LabVIEW Measurement	
Writer_Version	2
Reader_Version	2
Separator	Tab
Decimal_Separator	.
Multi_Headings	No
X_Columns	Multi
Time_Pref	Relative
Operator	TG lab
Date	2015/03/06
Time	16:07:12.9497075080871582032
***End_of_Header***	
	
Channels	1	
Samples	2000	
Date	1903/12/31	
Time	19:00:00	
X_Dimension	Time	
X0	0.0000000000000000E+0	
Delta_X	5.000000E-11	
***End_of_Header***		
X_Value	Untitled	Comment
0.000000	0.002330
5.000000E-11	0.002241
1.000000E-10	0.002198
1.500000E-10	0.002116
2.000000E-10	0.002031
2.500000E-10	0.002038
3.000000E-10	0.001994
3.500000E-10	0.002070
4.000000E-10	0.002100
4.500000E-10	0.002148
5.000000E-10	0.002191
5.500000E-10	0.002169
6.000000E-10	0.002164
6.500000E-10	0.002162
7.000000E-10	0.002119
7.500000E-10	0.001994
8.000000E-10	0.001895
8.500000E-10	0.001875
9.000000E-10	0.001748
9.500000E-10	0.001719
1.000000E-9	0.001717
1.050000E-9	0.001780
1.100000E-9	0.001794
1.150000E-9	0.001923
1.200000E-9	0.002006
1.250000E-9	0.002061
1.300000E-9	0.002087
1.350000E-9	0.002105
1.400000E-9	0.002108
1.450000E-9	0.002117
1.500000E-9	0.002148
1.550000E-9	0.002120
1.600000E-9	0.002045
1.650000E-9	0.002069
1.700000E-9	0.002058
1.750000E-9	0.001998
1.800000E-9	0.001980
1.850000E-9	0.002011
1.900000E-9	0.001956
1.950000E-9	0.001997
2.000000E-9	0.001959
2.050000E-9	0.002014
2.100000E-9	0.002023
2.150000E-9	0.002017
2.200000E-9	0.002023
2.250000E-9	0.002087
2.300000E-9	0.002086
2.350000E-9	0.002123
2.400000E-9	0.002111
2.450000E-9	0.002144
2.500000E-9	0.002161
2.550000E-9	0.002162
2.600000E-9	0.002150
2.650000E-9	0.002148
2.700000E-9	0.002122
2.750000E-9	0.002133
2.800000E-9	0.002058
2.850000E-9	0.002089
2.900000E-9	0.002084
2.950000E-9	0.002075
3.000000E-9	0.002102
3.050000E-9	0.002191
3.100000E-9	0.002114
3.150000E-9	0.002142
3.200000E-9	0.002133
3.250000E-9	0.002156
3.300000E-9	0.002080
3.350000E-9	0.002069
3.400000E-9	0.002045
3.450000E-9	0.001958
3.500000E-9	0.001947
3.550000E-9	0.001909
3.600000E-9	0.001909
3.650000E-9	0.001897
3.700000E-9	0.001888
3.750000E-9	0.001914
3.800000E-9	0.001922
3.850000E-9	0.001872
3.900000E-9	0.001883
3.950000E-9	0.001869
4.000000E-9	0.001841
4.050000E-9	0.001813
4.100000E-9	0.001819
4.150000E-9	0.001755
4.200000E-9	0.001750
4.250000E-9	0.001775
4.300000E-9	0.001772
4.350000E-9	0.001841
4.400000E-9	0.001828
4.450000E-9	0.001847
4.500000E-9	0.001845
4.550000E-9	0.001908
4.600000E-9	0.001903
4.650000E-9	0.001931
4.700000E-9	0.001961
4.750000E-9	0.001980
4.800000E-9	0.002038
4.850000E-9	0.002069
4.900000E-9	0.002105
4.950000E-9	0.002134
5.000000E-9	0.002116
5.050000E-9	0.002084
5.100000E-9	0.002016
5.150000E-9	0.002012
5.200000E-9	0.001880
5.250000E-9	0.001806
5.300000E-9	0.001697
5.350000E-9	0.001675
5.400000E-9	0.001653
5.450000E-9	0.001670
5.500000E-9	0.001727
5.550000E-9	0.001738
5.600000E-9	0.001783
5.650000E-9	0.001894
5.700000E-9	0.001920
5.750000E-9	0.002022
5.800000E-9	0.002052
5.850000E-9	0.001983
5.900000E-9	0.001980
5.950000E-9	0.002022
6.000000E-9	0.001953
6.050000E-9	0.001939
6.100000E-9	0.001852
6.150000E-9	0.001872
6.200000E-9	0.001884
6.250000E-9	0.001881
6.300000E-9	0.001809
6.350000E-9	0.001830
6.400000E-9	0.001795
6.450000E-9	0.001763
6.500000E-9	0.001756
6.550000E-9	0.001734
6.600000E-9	0.001653
6.650000E-9	0.001672
6.700000E-9	0.001655
6.750000E-9	0.001713
6.800000E-9	0.001748
6.850000E-9	0.001786
6.900000E-9	0.001880
6.950000E-9	0.002025
7.000000E-9	0.002213
7.050000E-9	0.002369
7.100000E-9	0.002553
7.150000E-9	0.002773
7.200000E-9	0.003048
7.250000E-9	0.003355
7.300000E-9	0.003597
7.350000E-9	0.004034
7.400000E-9	0.004444
7.450000E-9	0.004933
7.500000E-9	0.005463
7.550000E-9	0.006069
7.600000E-9	0.006684
7.650000E-9	0.007281
7.700000E-9	0.007742
7.750000E-9	0.008036
7.800000E-9	0.008014
7.850000E-9	0.007594
7.900000E-9	0.006856
7.950000E-9	0.005531
8.000000E-9	0.003753
8.050000E-9	0.001698
8.100000E-9	-0.000844
8.150000E-9	-0.003538
8.200000E-9	-0.006453
8.250000E-9	-0.009188
8.300000E-9	-0.011891
8.350000E-9	-0.014197
8.400000E-9	-0.016173
8.450000E-9	-0.017573
8.500000E-9	-0.018492
8.550000E-9	-0.018770
8.600000E-9	-0.018558
8.650000E-9	-0.017792
8.700000E-9	-0.016684
8.750000E-9	-0.015352
8.800000E-9	-0.013900
8.850000E-9	-0.012406
8.900000E-9	-0.011155
8.950000E-9	-0.010083
9.000000E-9	-0.009377
9.050000E-9	-0.009047
9.100000E-9	-0.009072
9.150000E-9	-0.009336
9.200000E-9	-0.009813
9.250000E-9	-0.010455
9.300000E-9	-0.011109
9.350000E-9	-0.011758
9.400000E-9	-0.012202
9.450000E-9	-0.012392
9.500000E-9	-0.012339
9.550000E-9	-0.011955
9.600000E-9	-0.011280
9.650000E-9	-0.010484
9.700000E-9	-0.009405
9.750000E-9	-0.008286
9.800000E-9	-0.007155
9.850000E-9	-0.006108
9.900000E-9	-0.005195
9.950000E-9	-0.004569
1.000000E-8	-0.004123
1.005000E-8	-0.003931
1.010000E-8	-0.004066
1.015000E-8	-0.004387
1.020000E-8	-0.004895
1.025000E-8	-0.005448
1.030000E-8	-0.006047
1.035000E-8	-0.006525
1.040000E-8	-0.006861
1.045000E-8	-0.007031
1.050000E-8	-0.007044
1.055000E-8	-0.006697
1.060000E-8	-0.006175
1.065000E-8	-0.005497
1.070000E-8	-0.004677
1.075000E-8	-0.003781
1.080000E-8	-0.002941
1.085000E-8	-0.002069
1.090000E-8	-0.001417
1.095000E-8	-0.000966
1.100000E-8	-0.000697
1.105000E-8	-0.000700
1.110000E-8	-0.000873
1.115000E-8	-0.001253
1.120000E-8	-0.001742
1.125000E-8	-0.002252
1.130000E-8	-0.002883
1.135000E-8	-0.003366
1.140000E-8	-0.003747
1.145000E-8	-0.003994
1.150000E-8	-0.004017
1.155000E-8	-0.003742
1.160000E-8	-0.003320
1.165000E-8	-0.002813
1.170000E-8	-0.002089
1.175000E-8	-0.001327
1.180000E-8	-0.000569
1.185000E-8	0.000102
1.190000E-8	0.000652
1.195000E-8	0.001016
1.200000E-8	0.001142
1.205000E-8	0.001100
1.210000E-8	0.000764
1.215000E-8	0.000419
1.220000E-8	-0.000189
1.225000E-8	-0.000778
1.230000E-8	-0.001402
1.235000E-8	-0.001933
1.240000E-8	-0.002342
1.245000E-8	-0.002533
1.250000E-8	-0.002536
1.255000E-8	-0.002378
1.260000E-8	-0.002025
1.265000E-8	-0.001505
1.270000E-8	-0.000888
1.275000E-8	-0.000222
1.280000E-8	0.000384
1.285000E-8	0.000983
1.290000E-8	0.001425
1.295000E-8	0.001720
1.300000E-8	0.001838
1.305000E-8	0.001705
1.310000E-8	0.001502
1.315000E-8	0.001069
1.320000E-8	0.000569
1.325000E-8	2.500000E-5
1.330000E-8	-0.000525
1.335000E-8	-0.000966
1.340000E-8	-0.001247
1.345000E-8	-0.001475
1.350000E-8	-0.001437
1.355000E-8	-0.001198
1.360000E-8	-0.000784
1.365000E-8	-0.000258
1.370000E-8	0.000219
1.375000E-8	0.000883
1.380000E-8	0.001494
1.385000E-8	0.002091
1.390000E-8	0.002475
1.395000E-8	0.002741
1.400000E-8	0.002802
1.405000E-8	0.002653
1.410000E-8	0.002306
1.415000E-8	0.001881
1.420000E-8	0.001419
1.425000E-8	0.000778
1.430000E-8	0.000202
1.435000E-8	-0.000281
1.440000E-8	-0.000642
1.445000E-8	-0.000806
1.450000E-8	-0.000848
1.455000E-8	-0.000642
1.460000E-8	-0.000286
1.465000E-8	0.000236
1.470000E-8	0.000878
1.475000E-8	0.001536
1.480000E-8	0.002108
1.485000E-8	0.002587
1.490000E-8	0.002941
1.495000E-8	0.003111
1.500000E-8	0.003025
1.505000E-8	0.002742
1.510000E-8	0.002292
1.515000E-8	0.001764
1.520000E-8	0.001027
1.525000E-8	0.000359
1.530000E-8	-0.000244
1.535000E-8	-0.000691
1.540000E-8	-0.000942
1.545000E-8	-0.000995
1.550000E-8	-0.000852
1.555000E-8	-0.000491
1.560000E-8	9.218750E-5
1.565000E-8	0.000731
1.570000E-8	0.001419
1.575000E-8	0.002170
1.580000E-8	0.002723
1.585000E-8	0.003195
1.590000E-8	0.003414
1.595000E-8	0.003411
1.600000E-8	0.003269
1.605000E-8	0.002855
1.610000E-8	0.002252
1.615000E-8	0.001628
1.620000E-8	0.000956
1.625000E-8	0.000386
1.630000E-8	-0.000116
1.635000E-8	-0.000480
1.640000E-8	-0.000578
1.645000E-8	-0.000458
1.650000E-8	-0.000205
1.655000E-8	0.000366
1.660000E-8	0.000991
1.665000E-8	0.001752
1.670000E-8	0.002408
1.675000E-8	0.003053
1.680000E-8	0.003581
1.685000E-8	0.003931
1.690000E-8	0.003931
1.695000E-8	0.003709
1.700000E-8	0.003338
1.705000E-8	0.002786
1.710000E-8	0.002133
1.715000E-8	0.001425
1.720000E-8	0.000755
1.725000E-8	0.000192
1.730000E-8	-0.000203
1.735000E-8	-0.000339
1.740000E-8	-0.000356
1.745000E-8	-0.000108
1.750000E-8	0.000358
1.755000E-8	0.000902
1.760000E-8	0.001548
1.765000E-8	0.002186
1.770000E-8	0.002730
1.775000E-8	0.003277
1.780000E-8	0.003503
1.785000E-8	0.003675
1.790000E-8	0.003606
1.795000E-8	0.003306
1.800000E-8	0.002830
1.805000E-8	0.002339
1.810000E-8	0.001687
1.815000E-8	0.001180
1.820000E-8	0.000667
1.825000E-8	0.000236
1.830000E-8	5.625000E-5
1.835000E-8	1.093750E-5
1.840000E-8	0.000164
1.845000E-8	0.000542
1.850000E-8	0.000959
1.855000E-8	0.001589
1.860000E-8	0.002164
1.865000E-8	0.002805
1.870000E-8	0.003195
1.875000E-8	0.003464
1.880000E-8	0.003642
1.885000E-8	0.003652
1.890000E-8	0.003463
1.895000E-8	0.003178
1.900000E-8	0.002694
1.905000E-8	0.002158
1.910000E-8	0.001595
1.915000E-8	0.001119
1.920000E-8	0.000659
1.925000E-8	0.000361
1.930000E-8	0.000213
1.935000E-8	0.000241
1.940000E-8	0.000433
1.945000E-8	0.000786
1.950000E-8	0.001281
1.955000E-8	0.001839
1.960000E-8	0.002388
1.965000E-8	0.002894
1.970000E-8	0.003338
1.975000E-8	0.003634
1.980000E-8	0.003778
1.985000E-8	0.003719
1.990000E-8	0.003533
1.995000E-8	0.003197
2.000000E-8	0.002691
2.005000E-8	0.002148
2.010000E-8	0.001627
2.015000E-8	0.001100
2.020000E-8	0.000714
2.025000E-8	0.000497
2.030000E-8	0.000392
2.035000E-8	0.000400
2.040000E-8	0.000600
2.045000E-8	0.000961
2.050000E-8	0.001319
2.055000E-8	0.001866
2.060000E-8	0.002292
2.065000E-8	0.002692
2.070000E-8	0.003063
2.075000E-8	0.003308
2.080000E-8	0.003352
2.085000E-8	0.003267
2.090000E-8	0.003020
2.095000E-8	0.002619
2.100000E-8	0.002203
2.105000E-8	0.001647
2.110000E-8	0.001152
2.115000E-8	0.000728
2.120000E-8	0.000345
2.125000E-8	0.000152
2.130000E-8	2.187500E-5
2.135000E-8	0.000167
2.140000E-8	0.000402
2.145000E-8	0.000775
2.150000E-8	0.001167
2.155000E-8	0.001698
2.160000E-8	0.002250
2.165000E-8	0.002675
2.170000E-8	0.003050
2.175000E-8	0.003261
2.180000E-8	0.003391
2.185000E-8	0.003227
2.190000E-8	0.002925
2.195000E-8	0.002555
2.200000E-8	0.002014
2.205000E-8	0.001467
2.210000E-8	0.000952
2.215000E-8	0.000522
2.220000E-8	0.000261
2.225000E-8	0.000189
2.230000E-8	0.000202
2.235000E-8	0.000511
2.240000E-8	0.000841
2.245000E-8	0.001398
2.250000E-8	0.001923
2.255000E-8	0.002542
2.260000E-8	0.003025
2.265000E-8	0.003352
2.270000E-8	0.003602
2.275000E-8	0.003647
2.280000E-8	0.003528
2.285000E-8	0.003267
2.290000E-8	0.002825
2.295000E-8	0.002427
2.300000E-8	0.001873
2.305000E-8	0.001388
2.310000E-8	0.000942
2.315000E-8	0.000650
2.320000E-8	0.000448
2.325000E-8	0.000419
2.330000E-8	0.000503
2.335000E-8	0.000873
2.340000E-8	0.001211
2.345000E-8	0.001705
2.350000E-8	0.002222
2.355000E-8	0.002711
2.360000E-8	0.003162
2.365000E-8	0.003461
2.370000E-8	0.003586
2.375000E-8	0.003569
2.380000E-8	0.003289
2.385000E-8	0.003006
2.390000E-8	0.002509
2.395000E-8	0.001925
2.400000E-8	0.001366
2.405000E-8	0.000905
2.410000E-8	0.000505
2.415000E-8	0.000230
2.420000E-8	0.000158
2.425000E-8	0.000305
2.430000E-8	0.000638
2.435000E-8	0.001012
2.440000E-8	0.001536
2.445000E-8	0.002033
2.450000E-8	0.002570
2.455000E-8	0.002959
2.460000E-8	0.003205
2.465000E-8	0.003311
2.470000E-8	0.003283
2.475000E-8	0.003116
2.480000E-8	0.002755
2.485000E-8	0.002359
2.490000E-8	0.001870
2.495000E-8	0.001456
2.500000E-8	0.001055
2.505000E-8	0.000755
2.510000E-8	0.000548
2.515000E-8	0.000542
2.520000E-8	0.000581
2.525000E-8	0.000811
2.530000E-8	0.001138
2.535000E-8	0.001577
2.540000E-8	0.002063
2.545000E-8	0.002541
2.550000E-8	0.002927
2.555000E-8	0.003292
2.560000E-8	0.003502
2.565000E-8	0.003636
2.570000E-8	0.003503
2.575000E-8	0.003328
2.580000E-8	0.003012
2.585000E-8	0.002652
2.590000E-8	0.002177
2.595000E-8	0.001791
2.600000E-8	0.001388
2.605000E-8	0.001111
2.610000E-8	0.000877
2.615000E-8	0.000828
2.620000E-8	0.000916
2.625000E-8	0.001069
2.630000E-8	0.001342
2.635000E-8	0.001747
2.640000E-8	0.002022
2.645000E-8	0.002444
2.650000E-8	0.002655
2.655000E-8	0.002958
2.660000E-8	0.003117
2.665000E-8	0.003106
2.670000E-8	0.003002
2.675000E-8	0.002908
2.680000E-8	0.002641
2.685000E-8	0.002298
2.690000E-8	0.002020
2.695000E-8	0.001719
2.700000E-8	0.001417
2.705000E-8	0.001236
2.710000E-8	0.001086
2.715000E-8	0.001108
2.720000E-8	0.001172
2.725000E-8	0.001389
2.730000E-8	0.001664
2.735000E-8	0.002020
2.740000E-8	0.002381
2.745000E-8	0.002805
2.750000E-8	0.003130
2.755000E-8	0.003325
2.760000E-8	0.003422
2.765000E-8	0.003411
2.770000E-8	0.003278
2.775000E-8	0.003014
2.780000E-8	0.002702
2.785000E-8	0.002294
2.790000E-8	0.001858
2.795000E-8	0.001475
2.800000E-8	0.001156
2.805000E-8	0.000947
2.810000E-8	0.000859
2.815000E-8	0.000856
2.820000E-8	0.000988
2.825000E-8	0.001264
2.830000E-8	0.001598
2.835000E-8	0.002052
2.840000E-8	0.002459
2.845000E-8	0.002814
2.850000E-8	0.003061
2.855000E-8	0.003294
2.860000E-8	0.003359
2.865000E-8	0.003305
2.870000E-8	0.003113
2.875000E-8	0.002905
2.880000E-8	0.002545
2.885000E-8	0.002220
2.890000E-8	0.001809
2.895000E-8	0.001519
2.900000E-8	0.001250
2.905000E-8	0.001122
2.910000E-8	0.001028
2.915000E-8	0.001063
2.920000E-8	0.001213
2.925000E-8	0.001456
2.930000E-8	0.001747
2.935000E-8	0.002111
2.940000E-8	0.002442
2.945000E-8	0.002814
2.950000E-8	0.003028
2.955000E-8	0.003172
2.960000E-8	0.003220
2.965000E-8	0.003122
2.970000E-8	0.002881
2.975000E-8	0.002583
2.980000E-8	0.002178
2.985000E-8	0.001836
2.990000E-8	0.001381
2.995000E-8	0.000994
3.000000E-8	0.000747
3.005000E-8	0.000700
3.010000E-8	0.000731
3.015000E-8	0.000902
3.020000E-8	0.001111
3.025000E-8	0.001527
3.030000E-8	0.001855
3.035000E-8	0.002314
3.040000E-8	0.002706
3.045000E-8	0.003045
3.050000E-8	0.003234
3.055000E-8	0.003289
3.060000E-8	0.003231
3.065000E-8	0.002975
3.070000E-8	0.002561
3.075000E-8	0.002181
3.080000E-8	0.001748
3.085000E-8	0.001325
3.090000E-8	0.000980
3.095000E-8	0.000723
3.100000E-8	0.000617
3.105000E-8	0.000666
3.110000E-8	0.000813
3.115000E-8	0.001147
3.120000E-8	0.001545
3.125000E-8	0.001983
3.130000E-8	0.002431
3.135000E-8	0.002833
3.140000E-8	0.003142
3.145000E-8	0.003345
3.150000E-8	0.003411
3.155000E-8	0.003422
3.160000E-8	0.003278
3.165000E-8	0.002975
3.170000E-8	0.002609
3.175000E-8	0.002283
3.180000E-8	0.001803
3.185000E-8	0.001405
3.190000E-8	0.001091
3.195000E-8	0.000886
3.200000E-8	0.000792
3.205000E-8	0.000905
3.210000E-8	0.001075
3.215000E-8	0.001417
3.220000E-8	0.001733
3.225000E-8	0.002102
3.230000E-8	0.002459
3.235000E-8	0.002733
3.240000E-8	0.002947
3.245000E-8	0.003083
3.250000E-8	0.003117
3.255000E-8	0.003017
3.260000E-8	0.002777
3.265000E-8	0.002427
3.270000E-8	0.002094
3.275000E-8	0.001722
3.280000E-8	0.001341
3.285000E-8	0.000995
3.290000E-8	0.000811
3.295000E-8	0.000678
3.300000E-8	0.000695
3.305000E-8	0.000836
3.310000E-8	0.001080
3.315000E-8	0.001400
3.320000E-8	0.001763
3.325000E-8	0.002119
3.330000E-8	0.002425
3.335000E-8	0.002731
3.340000E-8	0.002945
3.345000E-8	0.003067
3.350000E-8	0.003027
3.355000E-8	0.002917
3.360000E-8	0.002733
3.365000E-8	0.002475
3.370000E-8	0.002108
3.375000E-8	0.001797
3.380000E-8	0.001492
3.385000E-8	0.001263
3.390000E-8	0.001048
3.395000E-8	0.000989
3.400000E-8	0.000966
3.405000E-8	0.001116
3.410000E-8	0.001327
3.415000E-8	0.001667
3.420000E-8	0.002005
3.425000E-8	0.002373
3.430000E-8	0.002631
3.435000E-8	0.002847
3.440000E-8	0.003023
3.445000E-8	0.003078
3.450000E-8	0.003000
3.455000E-8	0.002917
3.460000E-8	0.002673
3.465000E-8	0.002361
3.470000E-8	0.001986
3.475000E-8	0.001630
3.480000E-8	0.001336
3.485000E-8	0.001127
3.490000E-8	0.000950
3.495000E-8	0.000870
3.500000E-8	0.000952
3.505000E-8	0.000992
3.510000E-8	0.001297
3.515000E-8	0.001644
3.520000E-8	0.001944
3.525000E-8	0.002233
3.530000E-8	0.002564
3.535000E-8	0.002817
3.540000E-8	0.002914
3.545000E-8	0.002938
3.550000E-8	0.002884
3.555000E-8	0.002723
3.560000E-8	0.002473
3.565000E-8	0.002234
3.570000E-8	0.001889
3.575000E-8	0.001619
3.580000E-8	0.001338
3.585000E-8	0.001172
3.590000E-8	0.001044
3.595000E-8	0.001063
3.600000E-8	0.001136
3.605000E-8	0.001388
3.610000E-8	0.001619
3.615000E-8	0.001916
3.620000E-8	0.002309
3.625000E-8	0.002673
3.630000E-8	0.002869
3.635000E-8	0.003095
3.640000E-8	0.003162
3.645000E-8	0.003098
3.650000E-8	0.002963
3.655000E-8	0.002694
3.660000E-8	0.002397
3.665000E-8	0.002019
3.670000E-8	0.001720
3.675000E-8	0.001378
3.680000E-8	0.001172
3.685000E-8	0.001055
3.690000E-8	0.001014
3.695000E-8	0.001141
3.700000E-8	0.001288
3.705000E-8	0.001617
3.710000E-8	0.001891
3.715000E-8	0.002317
3.720000E-8	0.002545
3.725000E-8	0.002841
3.730000E-8	0.003080
3.735000E-8	0.003197
3.740000E-8	0.003183
3.745000E-8	0.003048
3.750000E-8	0.002806
3.755000E-8	0.002584
3.760000E-8	0.002275
3.765000E-8	0.001928
3.770000E-8	0.001519
3.775000E-8	0.001258
3.780000E-8	0.001147
3.785000E-8	0.000980
3.790000E-8	0.000992
3.795000E-8	0.001142
3.800000E-8	0.001336
3.805000E-8	0.001620
3.810000E-8	0.001816
3.815000E-8	0.002181
3.820000E-8	0.002402
3.825000E-8	0.002634
3.830000E-8	0.002686
3.835000E-8	0.002706
3.840000E-8	0.002717
3.845000E-8	0.002544
3.850000E-8	0.002289
3.855000E-8	0.002131
3.860000E-8	0.001752
3.865000E-8	0.001544
3.870000E-8	0.001280
3.875000E-8	0.001147
3.880000E-8	0.001034
3.885000E-8	0.001070
3.890000E-8	0.001177
3.895000E-8	0.001403
3.900000E-8	0.001563
3.905000E-8	0.001847
3.910000E-8	0.002091
3.915000E-8	0.002395
3.920000E-8	0.002614
3.925000E-8	0.002831
3.930000E-8	0.002906
3.935000E-8	0.002917
3.940000E-8	0.002777
3.945000E-8	0.002555
3.950000E-8	0.002256
3.955000E-8	0.001983
3.960000E-8	0.001623
3.965000E-8	0.001339
3.970000E-8	0.001136
3.975000E-8	0.001012
3.980000E-8	0.000978
3.985000E-8	0.001045
3.990000E-8	0.001178
3.995000E-8	0.001483
4.000000E-8	0.001772
4.005000E-8	0.002150
4.010000E-8	0.002417
4.015000E-8	0.002714
4.020000E-8	0.002903
4.025000E-8	0.002967
4.030000E-8	0.003022
4.035000E-8	0.002944
4.040000E-8	0.002728
4.045000E-8	0.002613
4.050000E-8	0.002303
4.055000E-8	0.002030
4.060000E-8	0.001830
4.065000E-8	0.001644
4.070000E-8	0.001566
4.075000E-8	0.001491
4.080000E-8	0.001494
4.085000E-8	0.001636
4.090000E-8	0.001741
4.095000E-8	0.001875
4.100000E-8	0.002241
4.105000E-8	0.002425
4.110000E-8	0.002605
4.115000E-8	0.002763
4.120000E-8	0.002811
4.125000E-8	0.002802
4.130000E-8	0.002692
4.135000E-8	0.002592
4.140000E-8	0.002377
4.145000E-8	0.002172
4.150000E-8	0.001981
4.155000E-8	0.001819
4.160000E-8	0.001639
4.165000E-8	0.001609
4.170000E-8	0.001655
4.175000E-8	0.001595
4.180000E-8	0.001680
4.185000E-8	0.001839
4.190000E-8	0.001952
4.195000E-8	0.002087
4.200000E-8	0.002264
4.205000E-8	0.002419
4.210000E-8	0.002600
4.215000E-8	0.002789
4.220000E-8	0.002902
4.225000E-8	0.002889
4.230000E-8	0.002866
4.235000E-8	0.002791
4.240000E-8	0.002598
4.245000E-8	0.002444
4.250000E-8	0.002231
4.255000E-8	0.002025
4.260000E-8	0.001794
4.265000E-8	0.001633
4.270000E-8	0.001497
4.275000E-8	0.001450
4.280000E-8	0.001427
4.285000E-8	0.001572
4.290000E-8	0.001705
4.295000E-8	0.001925
4.300000E-8	0.002105
4.305000E-8	0.002333
4.310000E-8	0.002484
4.315000E-8	0.002645
4.320000E-8	0.002719
4.325000E-8	0.002770
4.330000E-8	0.002716
4.335000E-8	0.002608
4.340000E-8	0.002448
4.345000E-8	0.002183
4.350000E-8	0.001988
4.355000E-8	0.001745
4.360000E-8	0.001467
4.365000E-8	0.001297
4.370000E-8	0.001236
4.375000E-8	0.001247
4.380000E-8	0.001245
4.385000E-8	0.001406
4.390000E-8	0.001609
4.395000E-8	0.001836
4.400000E-8	0.002034
4.405000E-8	0.002283
4.410000E-8	0.002423
4.415000E-8	0.002528
4.420000E-8	0.002522
4.425000E-8	0.002473
4.430000E-8	0.002361
4.435000E-8	0.002136
4.440000E-8	0.001905
4.445000E-8	0.001628
4.450000E-8	0.001392
4.455000E-8	0.001244
4.460000E-8	0.001059
4.465000E-8	0.001006
4.470000E-8	0.001008
4.475000E-8	0.001178
4.480000E-8	0.001414
4.485000E-8	0.001614
4.490000E-8	0.001848
4.495000E-8	0.002086
4.500000E-8	0.002330
4.505000E-8	0.002512
4.510000E-8	0.002653
4.515000E-8	0.002670
4.520000E-8	0.002666
4.525000E-8	0.002603
4.530000E-8	0.002447
4.535000E-8	0.002303
4.540000E-8	0.002038
4.545000E-8	0.001803
4.550000E-8	0.001633
4.555000E-8	0.001425
4.560000E-8	0.001311
4.565000E-8	0.001311
4.570000E-8	0.001395
4.575000E-8	0.001481
4.580000E-8	0.001591
4.585000E-8	0.001823
4.590000E-8	0.002036
4.595000E-8	0.002273
4.600000E-8	0.002480
4.605000E-8	0.002563
4.610000E-8	0.002700
4.615000E-8	0.002725
4.620000E-8	0.002641
4.625000E-8	0.002509
4.630000E-8	0.002311
4.635000E-8	0.002117
4.640000E-8	0.001823
4.645000E-8	0.001631
4.650000E-8	0.001456
4.655000E-8	0.001350
4.660000E-8	0.001311
4.665000E-8	0.001383
4.670000E-8	0.001541
4.675000E-8	0.001669
4.680000E-8	0.001872
4.685000E-8	0.002070
4.690000E-8	0.002191
4.695000E-8	0.002380
4.700000E-8	0.002464
4.705000E-8	0.002503
4.710000E-8	0.002488
4.715000E-8	0.002491
4.720000E-8	0.002439
4.725000E-8	0.002252
4.730000E-8	0.002144
4.735000E-8	0.001895
4.740000E-8	0.001780
4.745000E-8	0.001564
4.750000E-8	0.001488
4.755000E-8	0.001489
4.760000E-8	0.001431
4.765000E-8	0.001455
4.770000E-8	0.001544
4.775000E-8	0.001619
4.780000E-8	0.001777
4.785000E-8	0.001970
4.790000E-8	0.002108
4.795000E-8	0.002209
4.800000E-8	0.002339
4.805000E-8	0.002363
4.810000E-8	0.002403
4.815000E-8	0.002383
4.820000E-8	0.002322
4.825000E-8	0.002166
4.830000E-8	0.002058
4.835000E-8	0.001900
4.840000E-8	0.001766
4.845000E-8	0.001611
4.850000E-8	0.001542
4.855000E-8	0.001459
4.860000E-8	0.001448
4.865000E-8	0.001514
4.870000E-8	0.001603
4.875000E-8	0.001738
4.880000E-8	0.001786
4.885000E-8	0.001959
4.890000E-8	0.002134
4.895000E-8	0.002252
4.900000E-8	0.002381
4.905000E-8	0.002466
4.910000E-8	0.002437
4.915000E-8	0.002391
4.920000E-8	0.002288
4.925000E-8	0.002063
4.930000E-8	0.001905
4.935000E-8	0.001763
4.940000E-8	0.001572
4.945000E-8	0.001448
4.950000E-8	0.001378
4.955000E-8	0.001413
4.960000E-8	0.001400
4.965000E-8	0.001608
4.970000E-8	0.001727
4.975000E-8	0.001880
4.980000E-8	0.002056
4.985000E-8	0.002253
4.990000E-8	0.002363
4.995000E-8	0.002489
5.000000E-8	0.002587
5.005000E-8	0.002563
5.010000E-8	0.002531
5.015000E-8	0.002437
5.020000E-8	0.002231
5.025000E-8	0.002073
5.030000E-8	0.001850
5.035000E-8	0.001661
5.040000E-8	0.001450
5.045000E-8	0.001400
5.050000E-8	0.001314
5.055000E-8	0.001316
5.060000E-8	0.001383
5.065000E-8	0.001522
5.070000E-8	0.001656
5.075000E-8	0.001863
5.080000E-8	0.002016
5.085000E-8	0.002156
5.090000E-8	0.002288
5.095000E-8	0.002323
5.100000E-8	0.002352
5.105000E-8	0.002348
5.110000E-8	0.002281
5.115000E-8	0.002139
5.120000E-8	0.001963
5.125000E-8	0.001883
5.130000E-8	0.001666
5.135000E-8	0.001630
5.140000E-8	0.001469
5.145000E-8	0.001486
5.150000E-8	0.001397
5.155000E-8	0.001411
5.160000E-8	0.001492
5.165000E-8	0.001555
5.170000E-8	0.001764
5.175000E-8	0.001930
5.180000E-8	0.002097
5.185000E-8	0.002298
5.190000E-8	0.002448
5.195000E-8	0.002519
5.200000E-8	0.002569
5.205000E-8	0.002634
5.210000E-8	0.002561
5.215000E-8	0.002442
5.220000E-8	0.002277
5.225000E-8	0.002119
5.230000E-8	0.001916
5.235000E-8	0.001750
5.240000E-8	0.001602
5.245000E-8	0.001511
5.250000E-8	0.001523
5.255000E-8	0.001566
5.260000E-8	0.001734
5.265000E-8	0.001925
5.270000E-8	0.002070
5.275000E-8	0.002283
5.280000E-8	0.002423
5.285000E-8	0.002527
5.290000E-8	0.002577
5.295000E-8	0.002666
5.300000E-8	0.002597
5.305000E-8	0.002447
5.310000E-8	0.002328
5.315000E-8	0.002186
5.320000E-8	0.001961
5.325000E-8	0.001767
5.330000E-8	0.001656
5.335000E-8	0.001580
5.340000E-8	0.001567
5.345000E-8	0.001528
5.350000E-8	0.001577
5.355000E-8	0.001633
5.360000E-8	0.001781
5.365000E-8	0.001852
5.370000E-8	0.002006
5.375000E-8	0.002127
5.380000E-8	0.002280
5.385000E-8	0.002400
5.390000E-8	0.002452
5.395000E-8	0.002578
5.400000E-8	0.002525
5.405000E-8	0.002472
5.410000E-8	0.002383
5.415000E-8	0.002305
5.420000E-8	0.002131
5.425000E-8	0.001980
5.430000E-8	0.001764
5.435000E-8	0.001741
5.440000E-8	0.001648
5.445000E-8	0.001609
5.450000E-8	0.001642
5.455000E-8	0.001714
5.460000E-8	0.001845
5.465000E-8	0.001963
5.470000E-8	0.002158
5.475000E-8	0.002333
5.480000E-8	0.002506
5.485000E-8	0.002556
5.490000E-8	0.002580
5.495000E-8	0.002581
5.500000E-8	0.002569
5.505000E-8	0.002409
5.510000E-8	0.002303
5.515000E-8	0.002128
5.520000E-8	0.001911
5.525000E-8	0.001755
5.530000E-8	0.001631
5.535000E-8	0.001597
5.540000E-8	0.001472
5.545000E-8	0.001525
5.550000E-8	0.001511
5.555000E-8	0.001617
5.560000E-8	0.001677
5.565000E-8	0.001875
5.570000E-8	0.001956
5.575000E-8	0.002141
5.580000E-8	0.002289
5.585000E-8	0.002275
5.590000E-8	0.002352
5.595000E-8	0.002375
5.600000E-8	0.002314
5.605000E-8	0.002266
5.610000E-8	0.002188
5.615000E-8	0.002089
5.620000E-8	0.001961
5.625000E-8	0.001833
5.630000E-8	0.001692
5.635000E-8	0.001669
5.640000E-8	0.001564
5.645000E-8	0.001570
5.650000E-8	0.001561
5.655000E-8	0.001666
5.660000E-8	0.001766
5.665000E-8	0.001853
5.670000E-8	0.001894
5.675000E-8	0.002098
5.680000E-8	0.002203
5.685000E-8	0.002194
5.690000E-8	0.002256
5.695000E-8	0.002256
5.700000E-8	0.002233
5.705000E-8	0.002127
5.710000E-8	0.002094
5.715000E-8	0.001966
5.720000E-8	0.001916
5.725000E-8	0.001886
5.730000E-8	0.001797
5.735000E-8	0.001856
5.740000E-8	0.001833
5.745000E-8	0.001872
5.750000E-8	0.001939
5.755000E-8	0.002058
5.760000E-8	0.002150
5.765000E-8	0.002236
5.770000E-8	0.002277
5.775000E-8	0.002352
5.780000E-8	0.002359
5.785000E-8	0.002377
5.790000E-8	0.002323
5.795000E-8	0.002291
5.800000E-8	0.002208
5.805000E-8	0.002275
5.810000E-8	0.002148
5.815000E-8	0.002097
5.820000E-8	0.001948
5.825000E-8	0.001838
5.830000E-8	0.001781
5.835000E-8	0.001767
5.840000E-8	0.001723
5.845000E-8	0.001702
5.850000E-8	0.001656
5.855000E-8	0.001738
5.860000E-8	0.001820
5.865000E-8	0.001908
5.870000E-8	0.001928
5.875000E-8	0.002039
5.880000E-8	0.002142
5.885000E-8	0.002141
5.890000E-8	0.002125
5.895000E-8	0.002195
5.900000E-8	0.002128
5.905000E-8	0.002016
5.910000E-8	0.001966
5.915000E-8	0.001886
5.920000E-8	0.001833
5.925000E-8	0.001788
5.930000E-8	0.001745
5.935000E-8	0.001727
5.940000E-8	0.001709
5.945000E-8	0.001759
5.950000E-8	0.001800
5.955000E-8	0.001838
5.960000E-8	0.001958
5.965000E-8	0.002083
5.970000E-8	0.002114
5.975000E-8	0.002209
5.980000E-8	0.002214
5.985000E-8	0.002225
5.990000E-8	0.002233
5.995000E-8	0.002198
6.000000E-8	0.002139
6.005000E-8	0.002114
6.010000E-8	0.002019
6.015000E-8	0.002002
6.020000E-8	0.001925
6.025000E-8	0.001859
6.030000E-8	0.001814
6.035000E-8	0.001902
6.040000E-8	0.001923
6.045000E-8	0.002052
6.050000E-8	0.002134
6.055000E-8	0.002273
6.060000E-8	0.002355
6.065000E-8	0.002445
6.070000E-8	0.002469
6.075000E-8	0.002495
6.080000E-8	0.002414
6.085000E-8	0.002375
6.090000E-8	0.002206
6.095000E-8	0.002097
6.100000E-8	0.001928
6.105000E-8	0.001806
6.110000E-8	0.001639
6.115000E-8	0.001581
6.120000E-8	0.001475
6.125000E-8	0.001511
6.130000E-8	0.001541
6.135000E-8	0.001700
6.140000E-8	0.001814
6.145000E-8	0.001933
6.150000E-8	0.002078
6.155000E-8	0.002227
6.160000E-8	0.002363
6.165000E-8	0.002453
6.170000E-8	0.002547
6.175000E-8	0.002441
6.180000E-8	0.002395
6.185000E-8	0.002322
6.190000E-8	0.002167
6.195000E-8	0.002069
6.200000E-8	0.001933
6.205000E-8	0.001842
6.210000E-8	0.001733
6.215000E-8	0.001689
6.220000E-8	0.001686
6.225000E-8	0.001702
6.230000E-8	0.001723
6.235000E-8	0.001742
6.240000E-8	0.001845
6.245000E-8	0.001942
6.250000E-8	0.002025
6.255000E-8	0.002169
6.260000E-8	0.002242
6.265000E-8	0.002252
6.270000E-8	0.002277
6.275000E-8	0.002283
6.280000E-8	0.002219
6.285000E-8	0.002178
6.290000E-8	0.002053
6.295000E-8	0.001988
6.300000E-8	0.001880
6.305000E-8	0.001798
6.310000E-8	0.001784
6.315000E-8	0.001780
6.320000E-8	0.001770
6.325000E-8	0.001872
6.330000E-8	0.001823
6.335000E-8	0.001895
6.340000E-8	0.002002
6.345000E-8	0.002108
6.350000E-8	0.002116
6.355000E-8	0.002233
6.360000E-8	0.002284
6.365000E-8	0.002372
6.370000E-8	0.002373
6.375000E-8	0.002406
6.380000E-8	0.002420
6.385000E-8	0.002334
6.390000E-8	0.002248
6.395000E-8	0.002080
6.400000E-8	0.001937
6.405000E-8	0.001870
6.410000E-8	0.001709
6.415000E-8	0.001631
6.420000E-8	0.001625
6.425000E-8	0.001620
6.430000E-8	0.001589
6.435000E-8	0.001659
6.440000E-8	0.001731
6.445000E-8	0.001813
6.450000E-8	0.001875
6.455000E-8	0.001947
6.460000E-8	0.001992
6.465000E-8	0.002069
6.470000E-8	0.002122
6.475000E-8	0.002033
6.480000E-8	0.002020
6.485000E-8	0.002038
6.490000E-8	0.001997
6.495000E-8	0.001906
6.500000E-8	0.001786
6.505000E-8	0.001686
6.510000E-8	0.001616
6.515000E-8	0.001539
6.520000E-8	0.001538
6.525000E-8	0.001536
6.530000E-8	0.001606
6.535000E-8	0.001731
6.540000E-8	0.001764
6.545000E-8	0.001891
6.550000E-8	0.002006
6.555000E-8	0.002142
6.560000E-8	0.002202
6.565000E-8	0.002247
6.570000E-8	0.002298
6.575000E-8	0.002336
6.580000E-8	0.002322
6.585000E-8	0.002263
6.590000E-8	0.002198
6.595000E-8	0.002237
6.600000E-8	0.002214
6.605000E-8	0.002173
6.610000E-8	0.002173
6.615000E-8	0.002167
6.620000E-8	0.002116
6.625000E-8	0.002091
6.630000E-8	0.002116
6.635000E-8	0.002127
6.640000E-8	0.002197
6.645000E-8	0.002192
6.650000E-8	0.002269
6.655000E-8	0.002334
6.660000E-8	0.002291
6.665000E-8	0.002297
6.670000E-8	0.002322
6.675000E-8	0.002333
6.680000E-8	0.002261
6.685000E-8	0.002197
6.690000E-8	0.002173
6.695000E-8	0.002158
6.700000E-8	0.002108
6.705000E-8	0.002131
6.710000E-8	0.002113
6.715000E-8	0.002102
6.720000E-8	0.002100
6.725000E-8	0.002103
6.730000E-8	0.002153
6.735000E-8	0.002159
6.740000E-8	0.002139
6.745000E-8	0.002087
6.750000E-8	0.002055
6.755000E-8	0.002120
6.760000E-8	0.002078
6.765000E-8	0.002039
6.770000E-8	0.002016
6.775000E-8	0.001988
6.780000E-8	0.001942
6.785000E-8	0.001883
6.790000E-8	0.001794
6.795000E-8	0.001777
6.800000E-8	0.001700
6.805000E-8	0.001673
6.810000E-8	0.001681
6.815000E-8	0.001713
6.820000E-8	0.001758
6.825000E-8	0.001845
6.830000E-8	0.001878
6.835000E-8	0.002028
6.840000E-8	0.002161
6.845000E-8	0.002219
6.850000E-8	0.002264
6.855000E-8	0.002334
6.860000E-8	0.002341
6.865000E-8	0.002388
6.870000E-8	0.002369
6.875000E-8	0.002272
6.880000E-8	0.002244
6.885000E-8	0.002225
6.890000E-8	0.002138
6.895000E-8	0.002106
6.900000E-8	0.002023
6.905000E-8	0.001964
6.910000E-8	0.001950
6.915000E-8	0.001855
6.920000E-8	0.001786
6.925000E-8	0.001822
6.930000E-8	0.001817
6.935000E-8	0.001831
6.940000E-8	0.001880
6.945000E-8	0.001947
6.950000E-8	0.001983
6.955000E-8	0.002095
6.960000E-8	0.002081
6.965000E-8	0.002113
6.970000E-8	0.002144
6.975000E-8	0.002050
6.980000E-8	0.001992
6.985000E-8	0.001842
6.990000E-8	0.001828
6.995000E-8	0.001789
7.000000E-8	0.001644
7.005000E-8	0.001600
7.010000E-8	0.001673
7.015000E-8	0.001675
7.020000E-8	0.001698
7.025000E-8	0.001736
7.030000E-8	0.001788
7.035000E-8	0.001853
7.040000E-8	0.001897
7.045000E-8	0.002020
7.050000E-8	0.001992
7.055000E-8	0.001989
7.060000E-8	0.002002
7.065000E-8	0.002003
7.070000E-8	0.001920
7.075000E-8	0.001894
7.080000E-8	0.001813
7.085000E-8	0.001689
7.090000E-8	0.001614
7.095000E-8	0.001545
7.100000E-8	0.001528
7.105000E-8	0.001522
7.110000E-8	0.001638
7.115000E-8	0.001703
7.120000E-8	0.001898
7.125000E-8	0.001931
7.130000E-8	0.002045
7.135000E-8	0.002180
7.140000E-8	0.002211
7.145000E-8	0.002241
7.150000E-8	0.002230
7.155000E-8	0.002256
7.160000E-8	0.002289
7.165000E-8	0.002259
7.170000E-8	0.002194
7.175000E-8	0.002148
7.180000E-8	0.002103
7.185000E-8	0.002087
7.190000E-8	0.002095
7.195000E-8	0.001997
7.200000E-8	0.002047
7.205000E-8	0.002038
7.210000E-8	0.002064
7.215000E-8	0.002105
7.220000E-8	0.002181
7.225000E-8	0.002253
7.230000E-8	0.002258
7.235000E-8	0.002314
7.240000E-8	0.002348
7.245000E-8	0.002322
7.250000E-8	0.002320
7.255000E-8	0.002283
7.260000E-8	0.002217
7.265000E-8	0.002237
7.270000E-8	0.002167
7.275000E-8	0.002103
7.280000E-8	0.002120
7.285000E-8	0.002103
7.290000E-8	0.002056
7.295000E-8	0.002120
7.300000E-8	0.002084
7.305000E-8	0.002152
7.310000E-8	0.002152
7.315000E-8	0.002241
7.320000E-8	0.002208
7.325000E-8	0.002305
7.330000E-8	0.002316
7.335000E-8	0.002284
7.340000E-8	0.002200
7.345000E-8	0.002130
7.350000E-8	0.002059
7.355000E-8	0.002052
7.360000E-8	0.001967
7.365000E-8	0.001891
7.370000E-8	0.001783
7.375000E-8	0.001763
7.380000E-8	0.001816
7.385000E-8	0.001827
7.390000E-8	0.001867
7.395000E-8	0.001897
7.400000E-8	0.002002
7.405000E-8	0.002042
7.410000E-8	0.002064
7.415000E-8	0.002141
7.420000E-8	0.002128
7.425000E-8	0.002122
7.430000E-8	0.002077
7.435000E-8	0.002050
7.440000E-8	0.002047
7.445000E-8	0.002066
7.450000E-8	0.002056
7.455000E-8	0.002069
7.460000E-8	0.002116
7.465000E-8	0.002102
7.470000E-8	0.002081
7.475000E-8	0.002170
7.480000E-8	0.002180
7.485000E-8	0.002245
7.490000E-8	0.002133
7.495000E-8	0.002120
7.500000E-8	0.002048
7.505000E-8	0.002095
7.510000E-8	0.002155
7.515000E-8	0.002152
7.520000E-8	0.002142
7.525000E-8	0.002180
7.530000E-8	0.002131
7.535000E-8	0.002175
7.540000E-8	0.002152
7.545000E-8	0.002161
7.550000E-8	0.002122
7.555000E-8	0.002128
7.560000E-8	0.002102
7.565000E-8	0.002120
7.570000E-8	0.002061
7.575000E-8	0.002023
7.580000E-8	0.001911
7.585000E-8	0.001864
7.590000E-8	0.001772
7.595000E-8	0.001708
7.600000E-8	0.001663
7.605000E-8	0.001655
7.610000E-8	0.001628
7.615000E-8	0.001633
7.620000E-8	0.001631
7.625000E-8	0.001666
7.630000E-8	0.001647
7.635000E-8	0.001652
7.640000E-8	0.001756
7.645000E-8	0.001803
7.650000E-8	0.001850
7.655000E-8	0.001861
7.660000E-8	0.001900
7.665000E-8	0.001953
7.670000E-8	0.001927
7.675000E-8	0.001867
7.680000E-8	0.001853
7.685000E-8	0.001853
7.690000E-8	0.001828
7.695000E-8	0.001808
7.700000E-8	0.001795
7.705000E-8	0.001764
7.710000E-8	0.001770
7.715000E-8	0.001847
7.720000E-8	0.001809
7.725000E-8	0.001903
7.730000E-8	0.001908
7.735000E-8	0.002042
7.740000E-8	0.002008
7.745000E-8	0.001989
7.750000E-8	0.002070
7.755000E-8	0.002064
7.760000E-8	0.002077
7.765000E-8	0.002127
7.770000E-8	0.002087
7.775000E-8	0.002064
7.780000E-8	0.001969
7.785000E-8	0.001961
7.790000E-8	0.001916
7.795000E-8	0.001889
7.800000E-8	0.001922
7.805000E-8	0.001933
7.810000E-8	0.001969
7.815000E-8	0.002012
7.820000E-8	0.002061
7.825000E-8	0.002152
7.830000E-8	0.002222
7.835000E-8	0.002195
7.840000E-8	0.002325
7.845000E-8	0.002342
7.850000E-8	0.002392
7.855000E-8	0.002331
7.860000E-8	0.002245
7.865000E-8	0.002247
7.870000E-8	0.002153
7.875000E-8	0.002230
7.880000E-8	0.002109
7.885000E-8	0.002091
7.890000E-8	0.002038
7.895000E-8	0.002027
7.900000E-8	0.002028
7.905000E-8	0.001947
7.910000E-8	0.001889
7.915000E-8	0.001911
7.920000E-8	0.001934
7.925000E-8	0.002017
7.930000E-8	0.001988
7.935000E-8	0.002012
7.940000E-8	0.002064
7.945000E-8	0.002064
7.950000E-8	0.002019
7.955000E-8	0.001997
7.960000E-8	0.001956
7.965000E-8	0.001827
7.970000E-8	0.001752
7.975000E-8	0.001716
7.980000E-8	0.001641
7.985000E-8	0.001641
7.990000E-8	0.001663
7.995000E-8	0.001683
8.000000E-8	0.001794
8.005000E-8	0.001831
8.010000E-8	0.001842
8.015000E-8	0.001927
8.020000E-8	0.002011
8.025000E-8	0.001983
8.030000E-8	0.002017
8.035000E-8	0.002066
8.040000E-8	0.002113
8.045000E-8	0.002184
8.050000E-8	0.002269
8.055000E-8	0.002330
8.060000E-8	0.002395
8.065000E-8	0.002384
8.070000E-8	0.002391
8.075000E-8	0.002345
8.080000E-8	0.002294
8.085000E-8	0.002272
8.090000E-8	0.002161
8.095000E-8	0.002114
8.100000E-8	0.002044
8.105000E-8	0.001958
8.110000E-8	0.001895
8.115000E-8	0.001908
8.120000E-8	0.001966
8.125000E-8	0.002023
8.130000E-8	0.002136
8.135000E-8	0.002252
8.140000E-8	0.002367
8.145000E-8	0.002413
8.150000E-8	0.002408
8.155000E-8	0.002456
8.160000E-8	0.002322
8.165000E-8	0.002325
8.170000E-8	0.002180
8.175000E-8	0.002128
8.180000E-8	0.002134
8.185000E-8	0.002070
8.190000E-8	0.002016
8.195000E-8	0.001991
8.200000E-8	0.002034
8.205000E-8	0.002003
8.210000E-8	0.002028
8.215000E-8	0.002075
8.220000E-8	0.002098
8.225000E-8	0.001994
8.230000E-8	0.001983
8.235000E-8	0.001970
8.240000E-8	0.001936
8.245000E-8	0.001906
8.250000E-8	0.001883
8.255000E-8	0.001819
8.260000E-8	0.001756
8.265000E-8	0.001698
8.270000E-8	0.001617
8.275000E-8	0.001617
8.280000E-8	0.001583
8.285000E-8	0.001527
8.290000E-8	0.001516
8.295000E-8	0.001508
8.300000E-8	0.001542
8.305000E-8	0.001602
8.310000E-8	0.001678
8.315000E-8	0.001823
8.320000E-8	0.001920
8.325000E-8	0.002069
8.330000E-8	0.002097
8.335000E-8	0.002189
8.340000E-8	0.002306
8.345000E-8	0.002317
8.350000E-8	0.002327
8.355000E-8	0.002305
8.360000E-8	0.002281
8.365000E-8	0.002216
8.370000E-8	0.002195
8.375000E-8	0.002220
8.380000E-8	0.002175
8.385000E-8	0.002109
8.390000E-8	0.002123
8.395000E-8	0.002161
8.400000E-8	0.002077
8.405000E-8	0.002103
8.410000E-8	0.002152
8.415000E-8	0.002183
8.420000E-8	0.002147
8.425000E-8	0.002130
8.430000E-8	0.002087
8.435000E-8	0.002095
8.440000E-8	0.002102
8.445000E-8	0.002094
8.450000E-8	0.002047
8.455000E-8	0.002016
8.460000E-8	0.001959
8.465000E-8	0.001930
8.470000E-8	0.001830
8.475000E-8	0.001859
8.480000E-8	0.001852
8.485000E-8	0.001794
8.490000E-8	0.001792
8.495000E-8	0.001858
8.500000E-8	0.001852
8.505000E-8	0.001875
8.510000E-8	0.001958
8.515000E-8	0.001942
8.520000E-8	0.001919
8.525000E-8	0.001895
8.530000E-8	0.001839
8.535000E-8	0.001794
8.540000E-8	0.001717
8.545000E-8	0.001686
8.550000E-8	0.001619
8.555000E-8	0.001619
8.560000E-8	0.001617
8.565000E-8	0.001620
8.570000E-8	0.001616
8.575000E-8	0.001677
8.580000E-8	0.001720
8.585000E-8	0.001817
8.590000E-8	0.001872
8.595000E-8	0.001919
8.600000E-8	0.001958
8.605000E-8	0.002011
8.610000E-8	0.002031
8.615000E-8	0.002058
8.620000E-8	0.002122
8.625000E-8	0.002133
8.630000E-8	0.002131
8.635000E-8	0.002108
8.640000E-8	0.002117
8.645000E-8	0.002070
8.650000E-8	0.002042
8.655000E-8	0.002014
8.660000E-8	0.001948
8.665000E-8	0.001934
8.670000E-8	0.001955
8.675000E-8	0.001928
8.680000E-8	0.001867
8.685000E-8	0.001855
8.690000E-8	0.001872
8.695000E-8	0.001920
8.700000E-8	0.001937
8.705000E-8	0.002019
8.710000E-8	0.002052
8.715000E-8	0.002056
8.720000E-8	0.002108
8.725000E-8	0.002109
8.730000E-8	0.002095
8.735000E-8	0.002087
8.740000E-8	0.002039
8.745000E-8	0.001991
8.750000E-8	0.001984
8.755000E-8	0.001939
8.760000E-8	0.001967
8.765000E-8	0.001963
8.770000E-8	0.001986
8.775000E-8	0.001958
8.780000E-8	0.001909
8.785000E-8	0.001991
8.790000E-8	0.001891
8.795000E-8	0.001913
8.800000E-8	0.001856
8.805000E-8	0.001866
8.810000E-8	0.001894
8.815000E-8	0.001944
8.820000E-8	0.001913
8.825000E-8	0.001919
8.830000E-8	0.001920
8.835000E-8	0.001881
8.840000E-8	0.001894
8.845000E-8	0.001944
8.850000E-8	0.001913
8.855000E-8	0.001931
8.860000E-8	0.001864
8.865000E-8	0.001919
8.870000E-8	0.001827
8.875000E-8	0.001948
8.880000E-8	0.001908
8.885000E-8	0.001986
8.890000E-8	0.001964
8.895000E-8	0.001928
8.900000E-8	0.002000
8.905000E-8	0.001983
8.910000E-8	0.001995
8.915000E-8	0.002125
8.920000E-8	0.002078
8.925000E-8	0.002078
8.930000E-8	0.002084
8.935000E-8	0.002119
8.940000E-8	0.002145
8.945000E-8	0.002117
8.950000E-8	0.002162
8.955000E-8	0.002136
8.960000E-8	0.002119
8.965000E-8	0.002153
8.970000E-8	0.002180
8.975000E-8	0.002195
8.980000E-8	0.002194
8.985000E-8	0.002231
8.990000E-8	0.002175
8.995000E-8	0.002227
9.000000E-8	0.002188
9.005000E-8	0.002180
9.010000E-8	0.002180
9.015000E-8	0.002141
9.020000E-8	0.002098
9.025000E-8	0.002125
9.030000E-8	0.002133
9.035000E-8	0.002113
9.040000E-8	0.002095
9.045000E-8	0.002081
9.050000E-8	0.002114
9.055000E-8	0.002080
9.060000E-8	0.002022
9.065000E-8	0.002030
9.070000E-8	0.001928
9.075000E-8	0.001948
9.080000E-8	0.001886
9.085000E-8	0.001888
9.090000E-8	0.001838
9.095000E-8	0.001820
9.100000E-8	0.001856
9.105000E-8	0.001816
9.110000E-8	0.001797
9.115000E-8	0.001794
9.120000E-8	0.001770
9.125000E-8	0.001753
9.130000E-8	0.001750
9.135000E-8	0.001766
9.140000E-8	0.001797
9.145000E-8	0.001798
9.150000E-8	0.001805
9.155000E-8	0.001891
9.160000E-8	0.001873
9.165000E-8	0.001925
9.170000E-8	0.001933
9.175000E-8	0.001970
9.180000E-8	0.002016
9.185000E-8	0.002091
9.190000E-8	0.002086
9.195000E-8	0.002030
9.200000E-8	0.002000
9.205000E-8	0.002056
9.210000E-8	0.001958
9.215000E-8	0.002005
9.220000E-8	0.001917
9.225000E-8	0.001902
9.230000E-8	0.001895
9.235000E-8	0.001883
9.240000E-8	0.001950
9.245000E-8	0.002069
9.250000E-8	0.002161
9.255000E-8	0.002164
9.260000E-8	0.002236
9.265000E-8	0.002303
9.270000E-8	0.002331
9.275000E-8	0.002413
9.280000E-8	0.002352
9.285000E-8	0.002325
9.290000E-8	0.002366
9.295000E-8	0.002345
9.300000E-8	0.002341
9.305000E-8	0.002350
9.310000E-8	0.002250
9.315000E-8	0.002242
9.320000E-8	0.002197
9.325000E-8	0.002156
9.330000E-8	0.002200
9.335000E-8	0.002170
9.340000E-8	0.002144
9.345000E-8	0.002134
9.350000E-8	0.002117
9.355000E-8	0.002144
9.360000E-8	0.002148
9.365000E-8	0.002166
9.370000E-8	0.002248
9.375000E-8	0.002241
9.380000E-8	0.002200
9.385000E-8	0.002162
9.390000E-8	0.002192
9.395000E-8	0.002198
9.400000E-8	0.002153
9.405000E-8	0.002167
9.410000E-8	0.002130
9.415000E-8	0.002134
9.420000E-8	0.002111
9.425000E-8	0.002067
9.430000E-8	0.002005
9.435000E-8	0.001941
9.440000E-8	0.001859
9.445000E-8	0.001942
9.450000E-8	0.001986
9.455000E-8	0.002003
9.460000E-8	0.001967
9.465000E-8	0.001963
9.470000E-8	0.001931
9.475000E-8	0.001958
9.480000E-8	0.001895
9.485000E-8	0.001877
9.490000E-8	0.001842
9.495000E-8	0.001808
9.500000E-8	0.001802
9.505000E-8	0.001873
9.510000E-8	0.001883
9.515000E-8	0.001966
9.520000E-8	0.001944
9.525000E-8	0.001978
9.530000E-8	0.002034
9.535000E-8	0.002036
9.540000E-8	0.002048
9.545000E-8	0.002056
9.550000E-8	0.001959
9.555000E-8	0.001973
9.560000E-8	0.001925
9.565000E-8	0.001936
9.570000E-8	0.001983
9.575000E-8	0.002044
9.580000E-8	0.002106
9.585000E-8	0.002139
9.590000E-8	0.002142
9.595000E-8	0.002231
9.600000E-8	0.002194
9.605000E-8	0.002169
9.610000E-8	0.002095
9.615000E-8	0.002006
9.620000E-8	0.002020
9.625000E-8	0.001928
9.630000E-8	0.001856
9.635000E-8	0.001777
9.640000E-8	0.001725
9.645000E-8	0.001780
9.650000E-8	0.001791
9.655000E-8	0.001775
9.660000E-8	0.001836
9.665000E-8	0.001858
9.670000E-8	0.001897
9.675000E-8	0.001972
9.680000E-8	0.001986
9.685000E-8	0.001994
9.690000E-8	0.002017
9.695000E-8	0.001995
9.700000E-8	0.001973
9.705000E-8	0.001881
9.710000E-8	0.001884
9.715000E-8	0.001931
9.720000E-8	0.001902
9.725000E-8	0.002003
9.730000E-8	0.001967
9.735000E-8	0.002038
9.740000E-8	0.002052
9.745000E-8	0.002058
9.750000E-8	0.002063
9.755000E-8	0.002086
9.760000E-8	0.002002
9.765000E-8	0.002050
9.770000E-8	0.002041
9.775000E-8	0.001959
9.780000E-8	0.001958
9.785000E-8	0.001989
9.790000E-8	0.001922
9.795000E-8	0.001945
9.800000E-8	0.001861
9.805000E-8	0.001950
9.810000E-8	0.001909
9.815000E-8	0.001973
9.820000E-8	0.001981
9.825000E-8	0.002000
9.830000E-8	0.002081
9.835000E-8	0.002119
9.840000E-8	0.002075
9.845000E-8	0.002120
9.850000E-8	0.002105
9.855000E-8	0.002087
9.860000E-8	0.002030
9.865000E-8	0.001941
9.870000E-8	0.001875
9.875000E-8	0.001798
9.880000E-8	0.001748
9.885000E-8	0.001700
9.890000E-8	0.001639
9.895000E-8	0.001669
9.900000E-8	0.001733
9.905000E-8	0.001727
9.910000E-8	0.001750
9.915000E-8	0.001839
9.920000E-8	0.001923
9.925000E-8	0.001942
9.930000E-8	0.001980
9.935000E-8	0.002027
9.940000E-8	0.001977
9.945000E-8	0.002030
9.950000E-8	0.002012
9.955000E-8	0.002034
9.960000E-8	0.002006
9.965000E-8	0.002070
9.970000E-8	0.002113
9.975000E-8	0.002203
9.980000E-8	0.002159
9.985000E-8	0.002142
9.990000E-8	0.002042
9.995000E-8	0.002022
