LabVIEW Measurement	
Writer_Version	2
Reader_Version	2
Separator	Tab
Decimal_Separator	.
Multi_Headings	No
X_Columns	Multi
Time_Pref	Relative
Operator	TG lab
Date	2015/03/06
Time	16:24:34.2482666969299316406
***End_of_Header***	
	
Channels	1	
Samples	2000	
Date	1903/12/31	
Time	19:00:00	
X_Dimension	Time	
X0	0.0000000000000000E+0	
Delta_X	5.000000E-11	
***End_of_Header***		
X_Value	Untitled	Comment
0.000000	0.001850
5.000000E-11	0.001909
1.000000E-10	0.001903
1.500000E-10	0.002006
2.000000E-10	0.001978
2.500000E-10	0.001875
3.000000E-10	0.001884
3.500000E-10	0.001903
4.000000E-10	0.002019
4.500000E-10	0.001991
5.000000E-10	0.002144
5.500000E-10	0.002166
6.000000E-10	0.002119
6.500000E-10	0.002147
7.000000E-10	0.002075
7.500000E-10	0.002056
8.000000E-10	0.002125
8.500000E-10	0.002050
9.000000E-10	0.001988
9.500000E-10	0.001956
1.000000E-9	0.001988
1.050000E-9	0.001994
1.100000E-9	0.001925
1.150000E-9	0.001928
1.200000E-9	0.002016
1.250000E-9	0.002069
1.300000E-9	0.002169
1.350000E-9	0.002081
1.400000E-9	0.002050
1.450000E-9	0.002063
1.500000E-9	0.001978
1.550000E-9	0.001903
1.600000E-9	0.001906
1.650000E-9	0.002044
1.700000E-9	0.002006
1.750000E-9	0.002075
1.800000E-9	0.002012
1.850000E-9	0.001975
1.900000E-9	0.002138
1.950000E-9	0.002200
2.000000E-9	0.002138
2.050000E-9	0.002194
2.100000E-9	0.002178
2.150000E-9	0.002141
2.200000E-9	0.002122
2.250000E-9	0.002162
2.300000E-9	0.002156
2.350000E-9	0.002294
2.400000E-9	0.002184
2.450000E-9	0.002097
2.500000E-9	0.002225
2.550000E-9	0.002172
2.600000E-9	0.002153
2.650000E-9	0.002144
2.700000E-9	0.002109
2.750000E-9	0.002056
2.800000E-9	0.001953
2.850000E-9	0.001947
2.900000E-9	0.001844
2.950000E-9	0.001953
3.000000E-9	0.001856
3.050000E-9	0.002028
3.100000E-9	0.002069
3.150000E-9	0.002084
3.200000E-9	0.002162
3.250000E-9	0.002194
3.300000E-9	0.002306
3.350000E-9	0.002444
3.400000E-9	0.002241
3.450000E-9	0.002303
3.500000E-9	0.002256
3.550000E-9	0.002150
3.600000E-9	0.002184
3.650000E-9	0.002313
3.700000E-9	0.002172
3.750000E-9	0.002166
3.800000E-9	0.002166
3.850000E-9	0.002281
3.900000E-9	0.002253
3.950000E-9	0.002263
4.000000E-9	0.002269
4.050000E-9	0.002119
4.100000E-9	0.002194
4.150000E-9	0.002250
4.200000E-9	0.002203
4.250000E-9	0.002125
4.300000E-9	0.002056
4.350000E-9	0.002016
4.400000E-9	0.002025
4.450000E-9	0.002044
4.500000E-9	0.002063
4.550000E-9	0.002156
4.600000E-9	0.002150
4.650000E-9	0.002206
4.700000E-9	0.002231
4.750000E-9	0.002313
4.800000E-9	0.002397
4.850000E-9	0.002441
4.900000E-9	0.002450
4.950000E-9	0.002556
5.000000E-9	0.002556
5.050000E-9	0.002631
5.100000E-9	0.002672
5.150000E-9	0.002741
5.200000E-9	0.002653
5.250000E-9	0.002703
5.300000E-9	0.002625
5.350000E-9	0.002584
5.400000E-9	0.002534
5.450000E-9	0.002525
5.500000E-9	0.002519
5.550000E-9	0.002578
5.600000E-9	0.002594
5.650000E-9	0.002628
5.700000E-9	0.002613
5.750000E-9	0.002616
5.800000E-9	0.002550
5.850000E-9	0.002606
5.900000E-9	0.002634
5.950000E-9	0.002578
6.000000E-9	0.002528
6.050000E-9	0.002519
6.100000E-9	0.002587
6.150000E-9	0.002625
6.200000E-9	0.002559
6.250000E-9	0.002669
6.300000E-9	0.002691
6.350000E-9	0.002750
6.400000E-9	0.002891
6.450000E-9	0.002975
6.500000E-9	0.002913
6.550000E-9	0.003031
6.600000E-9	0.003091
6.650000E-9	0.003128
6.700000E-9	0.003206
6.750000E-9	0.003306
6.800000E-9	0.003431
6.850000E-9	0.003606
6.900000E-9	0.003750
6.950000E-9	0.003831
7.000000E-9	0.004063
7.050000E-9	0.004284
7.100000E-9	0.004400
7.150000E-9	0.004744
7.200000E-9	0.005169
7.250000E-9	0.005497
7.300000E-9	0.005947
7.350000E-9	0.006588
7.400000E-9	0.007413
7.450000E-9	0.008322
7.500000E-9	0.009409
7.550000E-9	0.010672
7.600000E-9	0.011881
7.650000E-9	0.013184
7.700000E-9	0.014412
7.750000E-9	0.015722
7.800000E-9	0.016881
7.850000E-9	0.017975
7.900000E-9	0.019034
7.950000E-9	0.020044
8.000000E-9	0.020972
8.050000E-9	0.022156
8.100000E-9	0.023225
8.150000E-9	0.024528
8.200000E-9	0.025922
8.250000E-9	0.027391
8.300000E-9	0.028741
8.350000E-9	0.030075
8.400000E-9	0.031072
8.450000E-9	0.031728
8.500000E-9	0.031822
8.550000E-9	0.031631
8.600000E-9	0.030863
8.650000E-9	0.029481
8.700000E-9	0.027816
8.750000E-9	0.025878
8.800000E-9	0.023891
8.850000E-9	0.021888
8.900000E-9	0.020000
8.950000E-9	0.018587
9.000000E-9	0.017500
9.050000E-9	0.016994
9.100000E-9	0.016813
9.150000E-9	0.017106
9.200000E-9	0.017697
9.250000E-9	0.018494
9.300000E-9	0.019231
9.350000E-9	0.019834
9.400000E-9	0.020134
9.450000E-9	0.020200
9.500000E-9	0.019919
9.550000E-9	0.019219
9.600000E-9	0.018222
9.650000E-9	0.017097
9.700000E-9	0.015797
9.750000E-9	0.014334
9.800000E-9	0.012859
9.850000E-9	0.011638
9.900000E-9	0.010669
9.950000E-9	0.010006
1.000000E-8	0.009731
1.005000E-8	0.009641
1.010000E-8	0.009831
1.015000E-8	0.010338
1.020000E-8	0.010916
1.025000E-8	0.011656
1.030000E-8	0.012284
1.035000E-8	0.012853
1.040000E-8	0.013178
1.045000E-8	0.013338
1.050000E-8	0.013181
1.055000E-8	0.012794
1.060000E-8	0.012141
1.065000E-8	0.011319
1.070000E-8	0.010331
1.075000E-8	0.009322
1.080000E-8	0.008303
1.085000E-8	0.007488
1.090000E-8	0.006753
1.095000E-8	0.006228
1.100000E-8	0.006031
1.105000E-8	0.006200
1.110000E-8	0.006491
1.115000E-8	0.006891
1.120000E-8	0.007369
1.125000E-8	0.007978
1.130000E-8	0.008559
1.135000E-8	0.008966
1.140000E-8	0.009213
1.145000E-8	0.009294
1.150000E-8	0.009169
1.155000E-8	0.008834
1.160000E-8	0.008284
1.165000E-8	0.007419
1.170000E-8	0.006466
1.175000E-8	0.005659
1.180000E-8	0.004678
1.185000E-8	0.003928
1.190000E-8	0.003381
1.195000E-8	0.003087
1.200000E-8	0.003003
1.205000E-8	0.003175
1.210000E-8	0.003578
1.215000E-8	0.004009
1.220000E-8	0.004541
1.225000E-8	0.005219
1.230000E-8	0.005922
1.235000E-8	0.006384
1.240000E-8	0.006853
1.245000E-8	0.007044
1.250000E-8	0.007019
1.255000E-8	0.006784
1.260000E-8	0.006225
1.265000E-8	0.005713
1.270000E-8	0.005022
1.275000E-8	0.004234
1.280000E-8	0.003431
1.285000E-8	0.002669
1.290000E-8	0.002341
1.295000E-8	0.002012
1.300000E-8	0.001950
1.305000E-8	0.002228
1.310000E-8	0.002709
1.315000E-8	0.003269
1.320000E-8	0.004031
1.325000E-8	0.004691
1.330000E-8	0.005347
1.335000E-8	0.005959
1.340000E-8	0.006259
1.345000E-8	0.006413
1.350000E-8	0.006338
1.355000E-8	0.006025
1.360000E-8	0.005328
1.365000E-8	0.004609
1.370000E-8	0.003869
1.375000E-8	0.003100
1.380000E-8	0.002359
1.385000E-8	0.001794
1.390000E-8	0.001450
1.395000E-8	0.001222
1.400000E-8	0.001375
1.405000E-8	0.001684
1.410000E-8	0.002234
1.415000E-8	0.002847
1.420000E-8	0.003747
1.425000E-8	0.004522
1.430000E-8	0.005122
1.435000E-8	0.005672
1.440000E-8	0.006044
1.445000E-8	0.006134
1.450000E-8	0.005909
1.455000E-8	0.005372
1.460000E-8	0.004634
1.465000E-8	0.003881
1.470000E-8	0.002984
1.475000E-8	0.002175
1.480000E-8	0.001306
1.485000E-8	0.000903
1.490000E-8	0.000481
1.495000E-8	0.000394
1.500000E-8	0.000644
1.505000E-8	0.001009
1.510000E-8	0.001731
1.515000E-8	0.002569
1.520000E-8	0.003253
1.525000E-8	0.004078
1.530000E-8	0.004684
1.535000E-8	0.005094
1.540000E-8	0.005188
1.545000E-8	0.005206
1.550000E-8	0.004812
1.555000E-8	0.004272
1.560000E-8	0.003575
1.565000E-8	0.002797
1.570000E-8	0.001853
1.575000E-8	0.001141
1.580000E-8	0.000528
1.585000E-8	0.000134
1.590000E-8	3.125000E-5
1.595000E-8	0.000172
1.600000E-8	0.000638
1.605000E-8	0.001278
1.610000E-8	0.002025
1.615000E-8	0.002838
1.620000E-8	0.003603
1.625000E-8	0.004413
1.630000E-8	0.004988
1.635000E-8	0.005234
1.640000E-8	0.005163
1.645000E-8	0.005066
1.650000E-8	0.004591
1.655000E-8	0.004038
1.660000E-8	0.003203
1.665000E-8	0.002447
1.670000E-8	0.001687
1.675000E-8	0.001044
1.680000E-8	0.000491
1.685000E-8	0.000244
1.690000E-8	0.000128
1.695000E-8	0.000388
1.700000E-8	0.000919
1.705000E-8	0.001466
1.710000E-8	0.002313
1.715000E-8	0.003066
1.720000E-8	0.003866
1.725000E-8	0.004516
1.730000E-8	0.004816
1.735000E-8	0.004959
1.740000E-8	0.004900
1.745000E-8	0.004563
1.750000E-8	0.004000
1.755000E-8	0.003172
1.760000E-8	0.002413
1.765000E-8	0.001450
1.770000E-8	0.000697
1.775000E-8	6.562500E-5
1.780000E-8	-0.000338
1.785000E-8	-0.000491
1.790000E-8	-0.000284
1.795000E-8	0.000253
1.800000E-8	0.000863
1.805000E-8	0.001728
1.810000E-8	0.002534
1.815000E-8	0.003328
1.820000E-8	0.004059
1.825000E-8	0.004669
1.830000E-8	0.004794
1.835000E-8	0.004778
1.840000E-8	0.004488
1.845000E-8	0.003997
1.850000E-8	0.003209
1.855000E-8	0.002422
1.860000E-8	0.001578
1.865000E-8	0.000763
1.870000E-8	0.000331
1.875000E-8	2.500000E-5
1.880000E-8	-0.000194
1.885000E-8	2.187500E-5
1.890000E-8	0.000322
1.895000E-8	0.000934
1.900000E-8	0.001556
1.905000E-8	0.002388
1.910000E-8	0.003119
1.915000E-8	0.003697
1.920000E-8	0.004350
1.925000E-8	0.004638
1.930000E-8	0.004753
1.935000E-8	0.004666
1.940000E-8	0.004275
1.945000E-8	0.003763
1.950000E-8	0.003141
1.955000E-8	0.002494
1.960000E-8	0.001738
1.965000E-8	0.001191
1.970000E-8	0.000756
1.975000E-8	0.000497
1.980000E-8	0.000338
1.985000E-8	0.000634
1.990000E-8	0.000978
1.995000E-8	0.001497
2.000000E-8	0.002125
2.005000E-8	0.002781
2.010000E-8	0.003328
2.015000E-8	0.003831
2.020000E-8	0.004244
2.025000E-8	0.004475
2.030000E-8	0.004525
2.035000E-8	0.004181
2.040000E-8	0.003766
2.045000E-8	0.003250
2.050000E-8	0.002575
2.055000E-8	0.001894
2.060000E-8	0.001278
2.065000E-8	0.000597
2.070000E-8	0.000253
2.075000E-8	8.437500E-5
2.080000E-8	0.000000
2.085000E-8	0.000300
2.090000E-8	0.000775
2.095000E-8	0.001269
2.100000E-8	0.001819
2.105000E-8	0.002481
2.110000E-8	0.003116
2.115000E-8	0.003706
2.120000E-8	0.003966
2.125000E-8	0.004178
2.130000E-8	0.004109
2.135000E-8	0.003881
2.140000E-8	0.003491
2.145000E-8	0.002922
2.150000E-8	0.002191
2.155000E-8	0.001575
2.160000E-8	0.000928
2.165000E-8	0.000378
2.170000E-8	3.437500E-5
2.175000E-8	4.375000E-5
2.180000E-8	0.000109
2.185000E-8	0.000422
2.190000E-8	0.000794
2.195000E-8	0.001459
2.200000E-8	0.002275
2.205000E-8	0.002963
2.210000E-8	0.003550
2.215000E-8	0.004063
2.220000E-8	0.004338
2.225000E-8	0.004422
2.230000E-8	0.004169
2.235000E-8	0.003850
2.240000E-8	0.003288
2.245000E-8	0.002688
2.250000E-8	0.001931
2.255000E-8	0.001238
2.260000E-8	0.000706
2.265000E-8	0.000356
2.270000E-8	0.000175
2.275000E-8	0.000184
2.280000E-8	0.000294
2.285000E-8	0.000681
2.290000E-8	0.001209
2.295000E-8	0.001844
2.300000E-8	0.002550
2.305000E-8	0.003194
2.310000E-8	0.003691
2.315000E-8	0.004100
2.320000E-8	0.004250
2.325000E-8	0.004206
2.330000E-8	0.003884
2.335000E-8	0.003338
2.340000E-8	0.002578
2.345000E-8	0.001891
2.350000E-8	0.001163
2.355000E-8	0.000528
2.360000E-8	-2.187500E-5
2.365000E-8	-0.000328
2.370000E-8	-0.000378
2.375000E-8	-0.000122
2.380000E-8	0.000184
2.385000E-8	0.000888
2.390000E-8	0.001638
2.395000E-8	0.002388
2.400000E-8	0.002975
2.405000E-8	0.003522
2.410000E-8	0.004041
2.415000E-8	0.004141
2.420000E-8	0.003969
2.425000E-8	0.003722
2.430000E-8	0.003344
2.435000E-8	0.002822
2.440000E-8	0.002141
2.445000E-8	0.001437
2.450000E-8	0.000753
2.455000E-8	0.000194
2.460000E-8	-0.000172
2.465000E-8	-0.000241
2.470000E-8	-0.000156
2.475000E-8	0.000206
2.480000E-8	0.000616
2.485000E-8	0.001356
2.490000E-8	0.001956
2.495000E-8	0.002578
2.500000E-8	0.003175
2.505000E-8	0.003606
2.510000E-8	0.003844
2.515000E-8	0.003909
2.520000E-8	0.003744
2.525000E-8	0.003488
2.530000E-8	0.003075
2.535000E-8	0.002503
2.540000E-8	0.001869
2.545000E-8	0.001381
2.550000E-8	0.000881
2.555000E-8	0.000550
2.560000E-8	0.000416
2.565000E-8	0.000397
2.570000E-8	0.000456
2.575000E-8	0.000925
2.580000E-8	0.001388
2.585000E-8	0.001784
2.590000E-8	0.002484
2.595000E-8	0.002994
2.600000E-8	0.003350
2.605000E-8	0.003816
2.610000E-8	0.003856
2.615000E-8	0.003791
2.620000E-8	0.003447
2.625000E-8	0.002991
2.630000E-8	0.002453
2.635000E-8	0.001856
2.640000E-8	0.001103
2.645000E-8	0.000634
2.650000E-8	0.000194
2.655000E-8	4.062500E-5
2.660000E-8	-5.625000E-5
2.665000E-8	6.875000E-5
2.670000E-8	0.000347
2.675000E-8	0.000766
2.680000E-8	0.001284
2.685000E-8	0.001913
2.690000E-8	0.002416
2.695000E-8	0.002925
2.700000E-8	0.003281
2.705000E-8	0.003528
2.710000E-8	0.003647
2.715000E-8	0.003622
2.720000E-8	0.003406
2.725000E-8	0.003028
2.730000E-8	0.002603
2.735000E-8	0.002031
2.740000E-8	0.001500
2.745000E-8	0.001034
2.750000E-8	0.000581
2.755000E-8	0.000228
2.760000E-8	5.625000E-5
2.765000E-8	0.000228
2.770000E-8	0.000516
2.775000E-8	0.000903
2.780000E-8	0.001447
2.785000E-8	0.002069
2.790000E-8	0.002634
2.795000E-8	0.003169
2.800000E-8	0.003609
2.805000E-8	0.003878
2.810000E-8	0.003822
2.815000E-8	0.003759
2.820000E-8	0.003338
2.825000E-8	0.002913
2.830000E-8	0.002384
2.835000E-8	0.001719
2.840000E-8	0.001163
2.845000E-8	0.000719
2.850000E-8	0.000334
2.855000E-8	0.000234
2.860000E-8	0.000294
2.865000E-8	0.000547
2.870000E-8	0.000850
2.875000E-8	0.001344
2.880000E-8	0.001766
2.885000E-8	0.002406
2.890000E-8	0.002853
2.895000E-8	0.003300
2.900000E-8	0.003628
2.905000E-8	0.003703
2.910000E-8	0.003638
2.915000E-8	0.003350
2.920000E-8	0.002922
2.925000E-8	0.002388
2.930000E-8	0.001800
2.935000E-8	0.001234
2.940000E-8	0.000650
2.945000E-8	0.000394
2.950000E-8	0.000228
2.955000E-8	0.000259
2.960000E-8	0.000316
2.965000E-8	0.000728
2.970000E-8	0.001112
2.975000E-8	0.001753
2.980000E-8	0.002272
2.985000E-8	0.002825
2.990000E-8	0.003259
2.995000E-8	0.003625
3.000000E-8	0.003806
3.005000E-8	0.003897
3.010000E-8	0.003597
3.015000E-8	0.003303
3.020000E-8	0.002806
3.025000E-8	0.002253
3.030000E-8	0.001591
3.035000E-8	0.001041
3.040000E-8	0.000609
3.045000E-8	0.000306
3.050000E-8	3.125000E-5
3.055000E-8	0.000197
3.060000E-8	0.000459
3.065000E-8	0.000866
3.070000E-8	0.001378
3.075000E-8	0.001953
3.080000E-8	0.002413
3.085000E-8	0.003016
3.090000E-8	0.003378
3.095000E-8	0.003634
3.100000E-8	0.003809
3.105000E-8	0.003906
3.110000E-8	0.003581
3.115000E-8	0.003181
3.120000E-8	0.002753
3.125000E-8	0.002156
3.130000E-8	0.001531
3.135000E-8	0.001034
3.140000E-8	0.000681
3.145000E-8	0.000469
3.150000E-8	0.000391
3.155000E-8	0.000497
3.160000E-8	0.000847
3.165000E-8	0.001356
3.170000E-8	0.001791
3.175000E-8	0.002531
3.180000E-8	0.003087
3.185000E-8	0.003700
3.190000E-8	0.003969
3.195000E-8	0.004075
3.200000E-8	0.004019
3.205000E-8	0.003738
3.210000E-8	0.003431
3.215000E-8	0.002919
3.220000E-8	0.002259
3.225000E-8	0.001475
3.230000E-8	0.000963
3.235000E-8	0.000547
3.240000E-8	0.000278
3.245000E-8	0.000159
3.250000E-8	0.000181
3.255000E-8	0.000475
3.260000E-8	0.000797
3.265000E-8	0.001266
3.270000E-8	0.001800
3.275000E-8	0.002434
3.280000E-8	0.002888
3.285000E-8	0.003253
3.290000E-8	0.003522
3.295000E-8	0.003553
3.300000E-8	0.003488
3.305000E-8	0.003209
3.310000E-8	0.002825
3.315000E-8	0.002347
3.320000E-8	0.001781
3.325000E-8	0.001422
3.330000E-8	0.001038
3.335000E-8	0.000703
3.340000E-8	0.000619
3.345000E-8	0.000669
3.350000E-8	0.000850
3.355000E-8	0.001112
3.360000E-8	0.001441
3.365000E-8	0.001916
3.370000E-8	0.002356
3.375000E-8	0.002750
3.380000E-8	0.003003
3.385000E-8	0.003269
3.390000E-8	0.003403
3.395000E-8	0.003394
3.400000E-8	0.003338
3.405000E-8	0.003181
3.410000E-8	0.002878
3.415000E-8	0.002437
3.420000E-8	0.001975
3.425000E-8	0.001541
3.430000E-8	0.001191
3.435000E-8	0.000856
3.440000E-8	0.000841
3.445000E-8	0.000872
3.450000E-8	0.001075
3.455000E-8	0.001303
3.460000E-8	0.001778
3.465000E-8	0.002197
3.470000E-8	0.002656
3.475000E-8	0.003025
3.480000E-8	0.003319
3.485000E-8	0.003534
3.490000E-8	0.003516
3.495000E-8	0.003444
3.500000E-8	0.003269
3.505000E-8	0.002884
3.510000E-8	0.002437
3.515000E-8	0.001916
3.520000E-8	0.001413
3.525000E-8	0.001053
3.530000E-8	0.000691
3.535000E-8	0.000534
3.540000E-8	0.000566
3.545000E-8	0.000522
3.550000E-8	0.000809
3.555000E-8	0.001178
3.560000E-8	0.001491
3.565000E-8	0.001972
3.570000E-8	0.002347
3.575000E-8	0.002719
3.580000E-8	0.002888
3.585000E-8	0.003116
3.590000E-8	0.003075
3.595000E-8	0.002969
3.600000E-8	0.002719
3.605000E-8	0.002400
3.610000E-8	0.001934
3.615000E-8	0.001437
3.620000E-8	0.001053
3.625000E-8	0.000737
3.630000E-8	0.000513
3.635000E-8	0.000463
3.640000E-8	0.000531
3.645000E-8	0.000697
3.650000E-8	0.001069
3.655000E-8	0.001428
3.660000E-8	0.001813
3.665000E-8	0.002291
3.670000E-8	0.002684
3.675000E-8	0.002981
3.680000E-8	0.003188
3.685000E-8	0.003306
3.690000E-8	0.003222
3.695000E-8	0.003063
3.700000E-8	0.002800
3.705000E-8	0.002469
3.710000E-8	0.002016
3.715000E-8	0.001619
3.720000E-8	0.001250
3.725000E-8	0.000872
3.730000E-8	0.000594
3.735000E-8	0.000572
3.740000E-8	0.000713
3.745000E-8	0.000963
3.750000E-8	0.001325
3.755000E-8	0.001725
3.760000E-8	0.002028
3.765000E-8	0.002522
3.770000E-8	0.002791
3.775000E-8	0.003094
3.780000E-8	0.003084
3.785000E-8	0.003175
3.790000E-8	0.002966
3.795000E-8	0.002766
3.800000E-8	0.002369
3.805000E-8	0.002106
3.810000E-8	0.001725
3.815000E-8	0.001388
3.820000E-8	0.001097
3.825000E-8	0.000941
3.830000E-8	0.000753
3.835000E-8	0.000756
3.840000E-8	0.001044
3.845000E-8	0.001325
3.850000E-8	0.001797
3.855000E-8	0.002234
3.860000E-8	0.002709
3.865000E-8	0.002950
3.870000E-8	0.003203
3.875000E-8	0.003425
3.880000E-8	0.003431
3.885000E-8	0.003306
3.890000E-8	0.003038
3.895000E-8	0.002853
3.900000E-8	0.002278
3.905000E-8	0.001866
3.910000E-8	0.001538
3.915000E-8	0.001197
3.920000E-8	0.000975
3.925000E-8	0.000850
3.930000E-8	0.000806
3.935000E-8	0.001006
3.940000E-8	0.001228
3.945000E-8	0.001678
3.950000E-8	0.002091
3.955000E-8	0.002597
3.960000E-8	0.002838
3.965000E-8	0.003131
3.970000E-8	0.003334
3.975000E-8	0.003422
3.980000E-8	0.003278
3.985000E-8	0.003113
3.990000E-8	0.002737
3.995000E-8	0.002366
4.000000E-8	0.001944
4.005000E-8	0.001694
4.010000E-8	0.001359
4.015000E-8	0.001213
4.020000E-8	0.001038
4.025000E-8	0.001034
4.030000E-8	0.001150
4.035000E-8	0.001341
4.040000E-8	0.001506
4.045000E-8	0.001872
4.050000E-8	0.002084
4.055000E-8	0.002525
4.060000E-8	0.002828
4.065000E-8	0.003084
4.070000E-8	0.003222
4.075000E-8	0.003188
4.080000E-8	0.003113
4.085000E-8	0.002891
4.090000E-8	0.002666
4.095000E-8	0.002422
4.100000E-8	0.001969
4.105000E-8	0.001675
4.110000E-8	0.001259
4.115000E-8	0.000988
4.120000E-8	0.000838
4.125000E-8	0.000841
4.130000E-8	0.000934
4.135000E-8	0.001219
4.140000E-8	0.001494
4.145000E-8	0.001806
4.150000E-8	0.002194
4.155000E-8	0.002559
4.160000E-8	0.002841
4.165000E-8	0.003159
4.170000E-8	0.003288
4.175000E-8	0.003328
4.180000E-8	0.003272
4.185000E-8	0.003006
4.190000E-8	0.002775
4.195000E-8	0.002275
4.200000E-8	0.001816
4.205000E-8	0.001475
4.210000E-8	0.001103
4.215000E-8	0.000869
4.220000E-8	0.000653
4.225000E-8	0.000666
4.230000E-8	0.000756
4.235000E-8	0.001078
4.240000E-8	0.001400
4.245000E-8	0.001797
4.250000E-8	0.002116
4.255000E-8	0.002581
4.260000E-8	0.002728
4.265000E-8	0.002816
4.270000E-8	0.002875
4.275000E-8	0.002722
4.280000E-8	0.002603
4.285000E-8	0.002256
4.290000E-8	0.002000
4.295000E-8	0.001659
4.300000E-8	0.001428
4.305000E-8	0.001181
4.310000E-8	0.000847
4.315000E-8	0.000878
4.320000E-8	0.000969
4.325000E-8	0.001141
4.330000E-8	0.001266
4.335000E-8	0.001528
4.340000E-8	0.001919
4.345000E-8	0.002369
4.350000E-8	0.002694
4.355000E-8	0.003019
4.360000E-8	0.003269
4.365000E-8	0.003450
4.370000E-8	0.003309
4.375000E-8	0.003219
4.380000E-8	0.003006
4.385000E-8	0.002713
4.390000E-8	0.002322
4.395000E-8	0.002053
4.400000E-8	0.001691
4.405000E-8	0.001644
4.410000E-8	0.001388
4.415000E-8	0.001434
4.420000E-8	0.001450
4.425000E-8	0.001672
4.430000E-8	0.001816
4.435000E-8	0.002125
4.440000E-8	0.002281
4.445000E-8	0.002575
4.450000E-8	0.002722
4.455000E-8	0.002809
4.460000E-8	0.002878
4.465000E-8	0.002872
4.470000E-8	0.002822
4.475000E-8	0.002634
4.480000E-8	0.002359
4.485000E-8	0.002103
4.490000E-8	0.001878
4.495000E-8	0.001634
4.500000E-8	0.001366
4.505000E-8	0.001147
4.510000E-8	0.001019
4.515000E-8	0.001088
4.520000E-8	0.001147
4.525000E-8	0.001294
4.530000E-8	0.001513
4.535000E-8	0.001816
4.540000E-8	0.001997
4.545000E-8	0.002428
4.550000E-8	0.002609
4.555000E-8	0.002819
4.560000E-8	0.002903
4.565000E-8	0.002884
4.570000E-8	0.002647
4.575000E-8	0.002425
4.580000E-8	0.002225
4.585000E-8	0.001922
4.590000E-8	0.001625
4.595000E-8	0.001391
4.600000E-8	0.001175
4.605000E-8	0.001034
4.610000E-8	0.000944
4.615000E-8	0.000975
4.620000E-8	0.001141
4.625000E-8	0.001472
4.630000E-8	0.001769
4.635000E-8	0.002119
4.640000E-8	0.002356
4.645000E-8	0.002669
4.650000E-8	0.002850
4.655000E-8	0.002997
4.660000E-8	0.003044
4.665000E-8	0.003019
4.670000E-8	0.002888
4.675000E-8	0.002734
4.680000E-8	0.002378
4.685000E-8	0.002219
4.690000E-8	0.001975
4.695000E-8	0.001684
4.700000E-8	0.001556
4.705000E-8	0.001525
4.710000E-8	0.001509
4.715000E-8	0.001600
4.720000E-8	0.001738
4.725000E-8	0.001994
4.730000E-8	0.002166
4.735000E-8	0.002425
4.740000E-8	0.002550
4.745000E-8	0.002719
4.750000E-8	0.002772
4.755000E-8	0.002797
4.760000E-8	0.002678
4.765000E-8	0.002566
4.770000E-8	0.002356
4.775000E-8	0.002216
4.780000E-8	0.001981
4.785000E-8	0.001756
4.790000E-8	0.001584
4.795000E-8	0.001441
4.800000E-8	0.001294
4.805000E-8	0.001356
4.810000E-8	0.001409
4.815000E-8	0.001437
4.820000E-8	0.001569
4.825000E-8	0.001703
4.830000E-8	0.001969
4.835000E-8	0.002313
4.840000E-8	0.002425
4.845000E-8	0.002594
4.850000E-8	0.002644
4.855000E-8	0.002594
4.860000E-8	0.002600
4.865000E-8	0.002469
4.870000E-8	0.002272
4.875000E-8	0.002034
4.880000E-8	0.001828
4.885000E-8	0.001509
4.890000E-8	0.001266
4.895000E-8	0.001219
4.900000E-8	0.001034
4.905000E-8	0.001069
4.910000E-8	0.001081
4.915000E-8	0.001253
4.920000E-8	0.001469
4.925000E-8	0.001753
4.930000E-8	0.001891
4.935000E-8	0.002091
4.940000E-8	0.002356
4.945000E-8	0.002587
4.950000E-8	0.002647
4.955000E-8	0.002731
4.960000E-8	0.002750
4.965000E-8	0.002613
4.970000E-8	0.002466
4.975000E-8	0.002319
4.980000E-8	0.002097
4.985000E-8	0.001831
4.990000E-8	0.001622
4.995000E-8	0.001525
5.000000E-8	0.001472
5.005000E-8	0.001516
5.010000E-8	0.001638
5.015000E-8	0.001734
5.020000E-8	0.001859
5.025000E-8	0.001981
5.030000E-8	0.002231
5.035000E-8	0.002347
5.040000E-8	0.002400
5.045000E-8	0.002409
5.050000E-8	0.002478
5.055000E-8	0.002447
5.060000E-8	0.002294
5.065000E-8	0.002106
5.070000E-8	0.001809
5.075000E-8	0.001684
5.080000E-8	0.001422
5.085000E-8	0.001319
5.090000E-8	0.001281
5.095000E-8	0.001303
5.100000E-8	0.001272
5.105000E-8	0.001288
5.110000E-8	0.001331
5.115000E-8	0.001466
5.120000E-8	0.001684
5.125000E-8	0.001791
5.130000E-8	0.001944
5.135000E-8	0.002053
5.140000E-8	0.002119
5.145000E-8	0.002263
5.150000E-8	0.002356
5.155000E-8	0.002409
5.160000E-8	0.002319
5.165000E-8	0.002156
5.170000E-8	0.001950
5.175000E-8	0.001825
5.180000E-8	0.001700
5.185000E-8	0.001553
5.190000E-8	0.001447
5.195000E-8	0.001356
5.200000E-8	0.001241
5.205000E-8	0.001250
5.210000E-8	0.001472
5.215000E-8	0.001697
5.220000E-8	0.001919
5.225000E-8	0.002203
5.230000E-8	0.002497
5.235000E-8	0.002756
5.240000E-8	0.002850
5.245000E-8	0.002788
5.250000E-8	0.002703
5.255000E-8	0.002678
5.260000E-8	0.002353
5.265000E-8	0.002188
5.270000E-8	0.001947
5.275000E-8	0.001741
5.280000E-8	0.001491
5.285000E-8	0.001434
5.290000E-8	0.001291
5.295000E-8	0.001256
5.300000E-8	0.001372
5.305000E-8	0.001484
5.310000E-8	0.001616
5.315000E-8	0.001834
5.320000E-8	0.001934
5.325000E-8	0.002172
5.330000E-8	0.002369
5.335000E-8	0.002584
5.340000E-8	0.002566
5.345000E-8	0.002650
5.350000E-8	0.002534
5.355000E-8	0.002366
5.360000E-8	0.002231
5.365000E-8	0.002031
5.370000E-8	0.001697
5.375000E-8	0.001638
5.380000E-8	0.001434
5.385000E-8	0.001263
5.390000E-8	0.001147
5.395000E-8	0.001263
5.400000E-8	0.001334
5.405000E-8	0.001459
5.410000E-8	0.001606
5.415000E-8	0.001838
5.420000E-8	0.002034
5.425000E-8	0.002178
5.430000E-8	0.002281
5.435000E-8	0.002431
5.440000E-8	0.002534
5.445000E-8	0.002463
5.450000E-8	0.002325
5.455000E-8	0.002228
5.460000E-8	0.002075
5.465000E-8	0.001716
5.470000E-8	0.001484
5.475000E-8	0.001434
5.480000E-8	0.001303
5.485000E-8	0.001322
5.490000E-8	0.001356
5.495000E-8	0.001453
5.500000E-8	0.001506
5.505000E-8	0.001700
5.510000E-8	0.001853
5.515000E-8	0.002144
5.520000E-8	0.002359
5.525000E-8	0.002450
5.530000E-8	0.002494
5.535000E-8	0.002494
5.540000E-8	0.002463
5.545000E-8	0.002353
5.550000E-8	0.002188
5.555000E-8	0.002084
5.560000E-8	0.001784
5.565000E-8	0.001681
5.570000E-8	0.001441
5.575000E-8	0.001325
5.580000E-8	0.001294
5.585000E-8	0.001178
5.590000E-8	0.001144
5.595000E-8	0.001100
5.600000E-8	0.001253
5.605000E-8	0.001444
5.610000E-8	0.001491
5.615000E-8	0.001803
5.620000E-8	0.001950
5.625000E-8	0.002200
5.630000E-8	0.002369
5.635000E-8	0.002403
5.640000E-8	0.002394
5.645000E-8	0.002344
5.650000E-8	0.002166
5.655000E-8	0.001953
5.660000E-8	0.001841
5.665000E-8	0.001503
5.670000E-8	0.001350
5.675000E-8	0.001266
5.680000E-8	0.001097
5.685000E-8	0.001131
5.690000E-8	0.001191
5.695000E-8	0.001322
5.700000E-8	0.001481
5.705000E-8	0.001606
5.710000E-8	0.001856
5.715000E-8	0.002019
5.720000E-8	0.002256
5.725000E-8	0.002522
5.730000E-8	0.002659
5.735000E-8	0.002706
5.740000E-8	0.002631
5.745000E-8	0.002538
5.750000E-8	0.002363
5.755000E-8	0.002216
5.760000E-8	0.002025
5.765000E-8	0.001913
5.770000E-8	0.001847
5.775000E-8	0.001797
5.780000E-8	0.001691
5.785000E-8	0.001678
5.790000E-8	0.001647
5.795000E-8	0.001763
5.800000E-8	0.001959
5.805000E-8	0.002147
5.810000E-8	0.002194
5.815000E-8	0.002303
5.820000E-8	0.002372
5.825000E-8	0.002519
5.830000E-8	0.002516
5.835000E-8	0.002497
5.840000E-8	0.002466
5.845000E-8	0.002509
5.850000E-8	0.002338
5.855000E-8	0.002147
5.860000E-8	0.001937
5.865000E-8	0.001838
5.870000E-8	0.001713
5.875000E-8	0.001550
5.880000E-8	0.001391
5.885000E-8	0.001434
5.890000E-8	0.001456
5.895000E-8	0.001638
5.900000E-8	0.001725
5.905000E-8	0.001875
5.910000E-8	0.001897
5.915000E-8	0.002009
5.920000E-8	0.002184
5.925000E-8	0.002341
5.930000E-8	0.002294
5.935000E-8	0.002313
5.940000E-8	0.002131
5.945000E-8	0.002025
5.950000E-8	0.001778
5.955000E-8	0.001619
5.960000E-8	0.001459
5.965000E-8	0.001347
5.970000E-8	0.001300
5.975000E-8	0.001234
5.980000E-8	0.001316
5.985000E-8	0.001316
5.990000E-8	0.001347
5.995000E-8	0.001528
6.000000E-8	0.001703
6.005000E-8	0.001975
6.010000E-8	0.002103
6.015000E-8	0.002269
6.020000E-8	0.002397
6.025000E-8	0.002472
6.030000E-8	0.002534
6.035000E-8	0.002400
6.040000E-8	0.002263
6.045000E-8	0.002203
6.050000E-8	0.002075
6.055000E-8	0.001937
6.060000E-8	0.001806
6.065000E-8	0.001656
6.070000E-8	0.001538
6.075000E-8	0.001566
6.080000E-8	0.001612
6.085000E-8	0.001763
6.090000E-8	0.001872
6.095000E-8	0.002100
6.100000E-8	0.002231
6.105000E-8	0.002484
6.110000E-8	0.002500
6.115000E-8	0.002584
6.120000E-8	0.002547
6.125000E-8	0.002569
6.130000E-8	0.002488
6.135000E-8	0.002231
6.140000E-8	0.002047
6.145000E-8	0.001816
6.150000E-8	0.001544
6.155000E-8	0.001375
6.160000E-8	0.001275
6.165000E-8	0.001225
6.170000E-8	0.001197
6.175000E-8	0.001172
6.180000E-8	0.001144
6.185000E-8	0.001338
6.190000E-8	0.001603
6.195000E-8	0.001797
6.200000E-8	0.001916
6.205000E-8	0.002156
6.210000E-8	0.002153
6.215000E-8	0.002250
6.220000E-8	0.002191
6.225000E-8	0.002100
6.230000E-8	0.002016
6.235000E-8	0.001891
6.240000E-8	0.001775
6.245000E-8	0.001734
6.250000E-8	0.001675
6.255000E-8	0.001519
6.260000E-8	0.001406
6.265000E-8	0.001428
6.270000E-8	0.001425
6.275000E-8	0.001538
6.280000E-8	0.001506
6.285000E-8	0.001575
6.290000E-8	0.001816
6.295000E-8	0.001959
6.300000E-8	0.002091
6.305000E-8	0.002131
6.310000E-8	0.002237
6.315000E-8	0.002325
6.320000E-8	0.002372
6.325000E-8	0.002472
6.330000E-8	0.002450
6.335000E-8	0.002303
6.340000E-8	0.002250
6.345000E-8	0.002197
6.350000E-8	0.002103
6.355000E-8	0.002022
6.360000E-8	0.001978
6.365000E-8	0.001953
6.370000E-8	0.001953
6.375000E-8	0.001806
6.380000E-8	0.001884
6.385000E-8	0.001969
6.390000E-8	0.001884
6.395000E-8	0.001950
6.400000E-8	0.001988
6.405000E-8	0.002078
6.410000E-8	0.002119
6.415000E-8	0.002166
6.420000E-8	0.002125
6.425000E-8	0.002122
6.430000E-8	0.002059
6.435000E-8	0.002044
6.440000E-8	0.002009
6.445000E-8	0.001956
6.450000E-8	0.001775
6.455000E-8	0.001650
6.460000E-8	0.001463
6.465000E-8	0.001381
6.470000E-8	0.001409
6.475000E-8	0.001509
6.480000E-8	0.001553
6.485000E-8	0.001622
6.490000E-8	0.001838
6.495000E-8	0.002094
6.500000E-8	0.002247
6.505000E-8	0.002472
6.510000E-8	0.002516
6.515000E-8	0.002559
6.520000E-8	0.002403
6.525000E-8	0.002344
6.530000E-8	0.002234
6.535000E-8	0.002125
6.540000E-8	0.001913
6.545000E-8	0.001750
6.550000E-8	0.001588
6.555000E-8	0.001528
6.560000E-8	0.001488
6.565000E-8	0.001488
6.570000E-8	0.001584
6.575000E-8	0.001641
6.580000E-8	0.001781
6.585000E-8	0.001953
6.590000E-8	0.002131
6.595000E-8	0.002278
6.600000E-8	0.002372
6.605000E-8	0.002509
6.610000E-8	0.002522
6.615000E-8	0.002447
6.620000E-8	0.002400
6.625000E-8	0.002291
6.630000E-8	0.002213
6.635000E-8	0.002181
6.640000E-8	0.002106
6.645000E-8	0.001941
6.650000E-8	0.001881
6.655000E-8	0.001891
6.660000E-8	0.001838
6.665000E-8	0.001869
6.670000E-8	0.001888
6.675000E-8	0.001941
6.680000E-8	0.002025
6.685000E-8	0.002109
6.690000E-8	0.002241
6.695000E-8	0.002338
6.700000E-8	0.002359
6.705000E-8	0.002444
6.710000E-8	0.002500
6.715000E-8	0.002403
6.720000E-8	0.002341
6.725000E-8	0.002247
6.730000E-8	0.002087
6.735000E-8	0.001937
6.740000E-8	0.001872
6.745000E-8	0.001950
6.750000E-8	0.001759
6.755000E-8	0.001756
6.760000E-8	0.001734
6.765000E-8	0.001731
6.770000E-8	0.001869
6.775000E-8	0.002006
6.780000E-8	0.001894
6.785000E-8	0.002003
6.790000E-8	0.001944
6.795000E-8	0.001975
6.800000E-8	0.001897
6.805000E-8	0.001997
6.810000E-8	0.001975
6.815000E-8	0.002022
6.820000E-8	0.001906
6.825000E-8	0.002000
6.830000E-8	0.001931
6.835000E-8	0.001944
6.840000E-8	0.001922
6.845000E-8	0.001900
6.850000E-8	0.001791
6.855000E-8	0.001797
6.860000E-8	0.001681
6.865000E-8	0.001694
6.870000E-8	0.001616
6.875000E-8	0.001728
6.880000E-8	0.001784
6.885000E-8	0.001856
6.890000E-8	0.001975
6.895000E-8	0.002063
6.900000E-8	0.002125
6.905000E-8	0.002281
6.910000E-8	0.002309
6.915000E-8	0.002275
6.920000E-8	0.002178
6.925000E-8	0.002116
6.930000E-8	0.001903
6.935000E-8	0.001694
6.940000E-8	0.001528
6.945000E-8	0.001450
6.950000E-8	0.001234
6.955000E-8	0.001222
6.960000E-8	0.001222
6.965000E-8	0.001425
6.970000E-8	0.001687
6.975000E-8	0.001766
6.980000E-8	0.001834
6.985000E-8	0.002138
6.990000E-8	0.002178
6.995000E-8	0.002156
7.000000E-8	0.002131
7.005000E-8	0.002175
7.010000E-8	0.002059
7.015000E-8	0.002012
7.020000E-8	0.001894
7.025000E-8	0.001784
7.030000E-8	0.001659
7.035000E-8	0.001591
7.040000E-8	0.001538
7.045000E-8	0.001528
7.050000E-8	0.001491
7.055000E-8	0.001484
7.060000E-8	0.001650
7.065000E-8	0.001694
7.070000E-8	0.001806
7.075000E-8	0.001863
7.080000E-8	0.001809
7.085000E-8	0.002009
7.090000E-8	0.002006
7.095000E-8	0.002134
7.100000E-8	0.002172
7.105000E-8	0.002234
7.110000E-8	0.002169
7.115000E-8	0.002131
7.120000E-8	0.002097
7.125000E-8	0.002016
7.130000E-8	0.001778
7.135000E-8	0.001600
7.140000E-8	0.001553
7.145000E-8	0.001544
7.150000E-8	0.001519
7.155000E-8	0.001406
7.160000E-8	0.001384
7.165000E-8	0.001488
7.170000E-8	0.001588
7.175000E-8	0.001703
7.180000E-8	0.001788
7.185000E-8	0.001825
7.190000E-8	0.001897
7.195000E-8	0.002106
7.200000E-8	0.002194
7.205000E-8	0.002122
7.210000E-8	0.002153
7.215000E-8	0.002147
7.220000E-8	0.002038
7.225000E-8	0.001922
7.230000E-8	0.001869
7.235000E-8	0.001784
7.240000E-8	0.001722
7.245000E-8	0.001669
7.250000E-8	0.001675
7.255000E-8	0.001691
7.260000E-8	0.001663
7.265000E-8	0.001788
7.270000E-8	0.001813
7.275000E-8	0.001916
7.280000E-8	0.001969
7.285000E-8	0.002069
7.290000E-8	0.002009
7.295000E-8	0.001937
7.300000E-8	0.001794
7.305000E-8	0.001756
7.310000E-8	0.001766
7.315000E-8	0.001653
7.320000E-8	0.001616
7.325000E-8	0.001563
7.330000E-8	0.001488
7.335000E-8	0.001591
7.340000E-8	0.001569
7.345000E-8	0.001563
7.350000E-8	0.001647
7.355000E-8	0.001734
7.360000E-8	0.001803
7.365000E-8	0.001894
7.370000E-8	0.001850
7.375000E-8	0.001925
7.380000E-8	0.002009
7.385000E-8	0.002016
7.390000E-8	0.001994
7.395000E-8	0.002044
7.400000E-8	0.002075
7.405000E-8	0.002169
7.410000E-8	0.002141
7.415000E-8	0.002156
7.420000E-8	0.002131
7.425000E-8	0.002150
7.430000E-8	0.002122
7.435000E-8	0.002184
7.440000E-8	0.002003
7.445000E-8	0.001937
7.450000E-8	0.001906
7.455000E-8	0.002000
7.460000E-8	0.001972
7.465000E-8	0.001878
7.470000E-8	0.001913
7.475000E-8	0.002050
7.480000E-8	0.002122
7.485000E-8	0.002147
7.490000E-8	0.002231
7.495000E-8	0.002344
7.500000E-8	0.002331
7.505000E-8	0.002294
7.510000E-8	0.002281
7.515000E-8	0.002153
7.520000E-8	0.001978
7.525000E-8	0.001881
7.530000E-8	0.001872
7.535000E-8	0.001844
7.540000E-8	0.001763
7.545000E-8	0.001806
7.550000E-8	0.002069
7.555000E-8	0.002131
7.560000E-8	0.002225
7.565000E-8	0.002222
7.570000E-8	0.002356
7.575000E-8	0.002434
7.580000E-8	0.002325
7.585000E-8	0.002294
7.590000E-8	0.002222
7.595000E-8	0.002078
7.600000E-8	0.001969
7.605000E-8	0.001806
7.610000E-8	0.001653
7.615000E-8	0.001513
7.620000E-8	0.001397
7.625000E-8	0.001434
7.630000E-8	0.001463
7.635000E-8	0.001494
7.640000E-8	0.001584
7.645000E-8	0.001784
7.650000E-8	0.001838
7.655000E-8	0.001922
7.660000E-8	0.001850
7.665000E-8	0.001978
7.670000E-8	0.002078
7.675000E-8	0.002100
7.680000E-8	0.002138
7.685000E-8	0.002097
7.690000E-8	0.001947
7.695000E-8	0.001916
7.700000E-8	0.001791
7.705000E-8	0.001819
7.710000E-8	0.001828
7.715000E-8	0.001825
7.720000E-8	0.001756
7.725000E-8	0.001869
7.730000E-8	0.001909
7.735000E-8	0.002034
7.740000E-8	0.002044
7.745000E-8	0.002122
7.750000E-8	0.002162
7.755000E-8	0.002331
7.760000E-8	0.002350
7.765000E-8	0.002369
7.770000E-8	0.002272
7.775000E-8	0.002213
7.780000E-8	0.002172
7.785000E-8	0.002191
7.790000E-8	0.002069
7.795000E-8	0.002100
7.800000E-8	0.001994
7.805000E-8	0.001984
7.810000E-8	0.001963
7.815000E-8	0.001953
7.820000E-8	0.002034
7.825000E-8	0.001969
7.830000E-8	0.001984
7.835000E-8	0.002031
7.840000E-8	0.002175
7.845000E-8	0.002131
7.850000E-8	0.002237
7.855000E-8	0.002350
7.860000E-8	0.002422
7.865000E-8	0.002391
7.870000E-8	0.002359
7.875000E-8	0.002478
7.880000E-8	0.002269
7.885000E-8	0.002334
7.890000E-8	0.002309
7.895000E-8	0.002113
7.900000E-8	0.001994
7.905000E-8	0.001963
7.910000E-8	0.001919
7.915000E-8	0.001888
7.920000E-8	0.001906
7.925000E-8	0.001844
7.930000E-8	0.001781
7.935000E-8	0.001944
7.940000E-8	0.001894
7.945000E-8	0.001972
7.950000E-8	0.002003
7.955000E-8	0.002009
7.960000E-8	0.001928
7.965000E-8	0.001972
7.970000E-8	0.001966
7.975000E-8	0.002041
7.980000E-8	0.002038
7.985000E-8	0.001925
7.990000E-8	0.001909
7.995000E-8	0.001978
8.000000E-8	0.001875
8.005000E-8	0.001825
8.010000E-8	0.001806
8.015000E-8	0.001763
8.020000E-8	0.001684
8.025000E-8	0.001766
8.030000E-8	0.001663
8.035000E-8	0.001722
8.040000E-8	0.001809
8.045000E-8	0.001878
8.050000E-8	0.002016
8.055000E-8	0.001991
8.060000E-8	0.002006
8.065000E-8	0.002228
8.070000E-8	0.002150
8.075000E-8	0.002094
8.080000E-8	0.002078
8.085000E-8	0.002019
8.090000E-8	0.001991
8.095000E-8	0.001950
8.100000E-8	0.001841
8.105000E-8	0.001831
8.110000E-8	0.001738
8.115000E-8	0.001734
8.120000E-8	0.001672
8.125000E-8	0.001734
8.130000E-8	0.001800
8.135000E-8	0.001937
8.140000E-8	0.002000
8.145000E-8	0.002034
8.150000E-8	0.002072
8.155000E-8	0.002113
8.160000E-8	0.002194
8.165000E-8	0.002169
8.170000E-8	0.002128
8.175000E-8	0.002109
8.180000E-8	0.002038
8.185000E-8	0.002084
8.190000E-8	0.002094
8.195000E-8	0.002009
8.200000E-8	0.001869
8.205000E-8	0.001838
8.210000E-8	0.001803
8.215000E-8	0.001766
8.220000E-8	0.001850
8.225000E-8	0.001859
8.230000E-8	0.001778
8.235000E-8	0.001878
8.240000E-8	0.001766
8.245000E-8	0.001778
8.250000E-8	0.001800
8.255000E-8	0.001791
8.260000E-8	0.001931
8.265000E-8	0.001975
8.270000E-8	0.001803
8.275000E-8	0.001891
8.280000E-8	0.001838
8.285000E-8	0.001925
8.290000E-8	0.001809
8.295000E-8	0.001744
8.300000E-8	0.001672
8.305000E-8	0.001634
8.310000E-8	0.001575
8.315000E-8	0.001531
8.320000E-8	0.001600
8.325000E-8	0.001609
8.330000E-8	0.001625
8.335000E-8	0.001666
8.340000E-8	0.001741
8.345000E-8	0.001937
8.350000E-8	0.002028
8.355000E-8	0.002091
8.360000E-8	0.002078
8.365000E-8	0.002200
8.370000E-8	0.002091
8.375000E-8	0.002113
8.380000E-8	0.001997
8.385000E-8	0.002009
8.390000E-8	0.001931
8.395000E-8	0.001875
8.400000E-8	0.001872
8.405000E-8	0.001838
8.410000E-8	0.001825
8.415000E-8	0.001834
8.420000E-8	0.001981
8.425000E-8	0.001988
8.430000E-8	0.002069
8.435000E-8	0.002162
8.440000E-8	0.002106
8.445000E-8	0.002084
8.450000E-8	0.002103
8.455000E-8	0.002225
8.460000E-8	0.002188
8.465000E-8	0.002213
8.470000E-8	0.002128
8.475000E-8	0.002078
8.480000E-8	0.002041
8.485000E-8	0.001913
8.490000E-8	0.001772
8.495000E-8	0.001672
8.500000E-8	0.001619
8.505000E-8	0.001616
8.510000E-8	0.001616
8.515000E-8	0.001656
8.520000E-8	0.001687
8.525000E-8	0.001769
8.530000E-8	0.001834
8.535000E-8	0.001841
8.540000E-8	0.001878
8.545000E-8	0.001981
8.550000E-8	0.001981
8.555000E-8	0.002053
8.560000E-8	0.001922
8.565000E-8	0.001878
8.570000E-8	0.001819
8.575000E-8	0.001781
8.580000E-8	0.001734
8.585000E-8	0.001728
8.590000E-8	0.001612
8.595000E-8	0.001731
8.600000E-8	0.001691
8.605000E-8	0.001738
8.610000E-8	0.001850
8.615000E-8	0.001981
8.620000E-8	0.002050
8.625000E-8	0.002200
8.630000E-8	0.002206
8.635000E-8	0.002316
8.640000E-8	0.002306
8.645000E-8	0.002300
8.650000E-8	0.002300
8.655000E-8	0.002159
8.660000E-8	0.002141
8.665000E-8	0.002188
8.670000E-8	0.002134
8.675000E-8	0.002075
8.680000E-8	0.001909
8.685000E-8	0.001847
8.690000E-8	0.001884
8.695000E-8	0.001956
8.700000E-8	0.001897
8.705000E-8	0.001963
8.710000E-8	0.001922
8.715000E-8	0.001856
8.720000E-8	0.001788
8.725000E-8	0.001838
8.730000E-8	0.001866
8.735000E-8	0.002063
8.740000E-8	0.002075
8.745000E-8	0.002094
8.750000E-8	0.002122
8.755000E-8	0.002175
8.760000E-8	0.002087
8.765000E-8	0.002069
8.770000E-8	0.002100
8.775000E-8	0.001991
8.780000E-8	0.001956
8.785000E-8	0.001978
8.790000E-8	0.001937
8.795000E-8	0.001828
8.800000E-8	0.001763
8.805000E-8	0.001778
8.810000E-8	0.001719
8.815000E-8	0.001687
8.820000E-8	0.001756
8.825000E-8	0.001622
8.830000E-8	0.001703
8.835000E-8	0.001716
8.840000E-8	0.001738
8.845000E-8	0.001809
8.850000E-8	0.001878
8.855000E-8	0.001919
8.860000E-8	0.001900
8.865000E-8	0.001881
8.870000E-8	0.001841
8.875000E-8	0.001953
8.880000E-8	0.002022
8.885000E-8	0.001994
8.890000E-8	0.002069
8.895000E-8	0.002103
8.900000E-8	0.002031
8.905000E-8	0.002087
8.910000E-8	0.001984
8.915000E-8	0.001956
8.920000E-8	0.001894
8.925000E-8	0.001922
8.930000E-8	0.002012
8.935000E-8	0.002103
8.940000E-8	0.002016
8.945000E-8	0.002175
8.950000E-8	0.002150
8.955000E-8	0.002094
8.960000E-8	0.002134
8.965000E-8	0.002091
8.970000E-8	0.001991
8.975000E-8	0.001956
8.980000E-8	0.001859
8.985000E-8	0.002016
8.990000E-8	0.001909
8.995000E-8	0.001906
9.000000E-8	0.001919
9.005000E-8	0.002047
9.010000E-8	0.002125
9.015000E-8	0.002153
9.020000E-8	0.002228
9.025000E-8	0.002269
9.030000E-8	0.002350
9.035000E-8	0.002338
9.040000E-8	0.002256
9.045000E-8	0.002325
9.050000E-8	0.002156
9.055000E-8	0.002059
9.060000E-8	0.001913
9.065000E-8	0.001916
9.070000E-8	0.001819
9.075000E-8	0.001731
9.080000E-8	0.001703
9.085000E-8	0.001713
9.090000E-8	0.001631
9.095000E-8	0.001659
9.100000E-8	0.001684
9.105000E-8	0.001806
9.110000E-8	0.001956
9.115000E-8	0.001941
9.120000E-8	0.002063
9.125000E-8	0.002128
9.130000E-8	0.002169
9.135000E-8	0.002303
9.140000E-8	0.002253
9.145000E-8	0.002278
9.150000E-8	0.002138
9.155000E-8	0.002100
9.160000E-8	0.001997
9.165000E-8	0.002038
9.170000E-8	0.001881
9.175000E-8	0.001913
9.180000E-8	0.001834
9.185000E-8	0.001894
9.190000E-8	0.001794
9.195000E-8	0.001866
9.200000E-8	0.001781
9.205000E-8	0.001809
9.210000E-8	0.001825
9.215000E-8	0.001953
9.220000E-8	0.001881
9.225000E-8	0.001863
9.230000E-8	0.001888
9.235000E-8	0.001866
9.240000E-8	0.001813
9.245000E-8	0.001816
9.250000E-8	0.001719
9.255000E-8	0.001681
9.260000E-8	0.001731
9.265000E-8	0.001709
9.270000E-8	0.001678
9.275000E-8	0.001628
9.280000E-8	0.001634
9.285000E-8	0.001609
9.290000E-8	0.001603
9.295000E-8	0.001594
9.300000E-8	0.001653
9.305000E-8	0.001697
9.310000E-8	0.001725
9.315000E-8	0.001775
9.320000E-8	0.001809
9.325000E-8	0.001794
9.330000E-8	0.001856
9.335000E-8	0.002025
9.340000E-8	0.001975
9.345000E-8	0.002100
9.350000E-8	0.002162
9.355000E-8	0.002213
9.360000E-8	0.002203
9.365000E-8	0.002100
9.370000E-8	0.002031
9.375000E-8	0.002038
9.380000E-8	0.001975
9.385000E-8	0.002056
9.390000E-8	0.001891
9.395000E-8	0.001941
9.400000E-8	0.001856
9.405000E-8	0.001894
9.410000E-8	0.001944
9.415000E-8	0.002066
9.420000E-8	0.002066
9.425000E-8	0.002131
9.430000E-8	0.002175
9.435000E-8	0.002209
9.440000E-8	0.002034
9.445000E-8	0.002116
9.450000E-8	0.001997
9.455000E-8	0.001991
9.460000E-8	0.001863
9.465000E-8	0.001772
9.470000E-8	0.001741
9.475000E-8	0.001741
9.480000E-8	0.001641
9.485000E-8	0.001647
9.490000E-8	0.001663
9.495000E-8	0.001819
9.500000E-8	0.001875
9.505000E-8	0.001959
9.510000E-8	0.001937
9.515000E-8	0.001959
9.520000E-8	0.002100
9.525000E-8	0.002213
9.530000E-8	0.002256
9.535000E-8	0.002247
9.540000E-8	0.002269
9.545000E-8	0.002241
9.550000E-8	0.002197
9.555000E-8	0.002294
9.560000E-8	0.002231
9.565000E-8	0.002253
9.570000E-8	0.002147
9.575000E-8	0.002094
9.580000E-8	0.002022
9.585000E-8	0.002122
9.590000E-8	0.002094
9.595000E-8	0.002087
9.600000E-8	0.002006
9.605000E-8	0.002128
9.610000E-8	0.002119
9.615000E-8	0.002209
9.620000E-8	0.002119
9.625000E-8	0.002250
9.630000E-8	0.002266
9.635000E-8	0.002219
9.640000E-8	0.002256
9.645000E-8	0.002397
9.650000E-8	0.002266
9.655000E-8	0.002331
9.660000E-8	0.002094
9.665000E-8	0.002169
9.670000E-8	0.002122
9.675000E-8	0.002087
9.680000E-8	0.002053
9.685000E-8	0.002100
9.690000E-8	0.001894
9.695000E-8	0.001909
9.700000E-8	0.001844
9.705000E-8	0.001947
9.710000E-8	0.001856
9.715000E-8	0.001894
9.720000E-8	0.001881
9.725000E-8	0.001888
9.730000E-8	0.001844
9.735000E-8	0.001900
9.740000E-8	0.001934
9.745000E-8	0.001859
9.750000E-8	0.001884
9.755000E-8	0.001803
9.760000E-8	0.001859
9.765000E-8	0.001884
9.770000E-8	0.001856
9.775000E-8	0.001781
9.780000E-8	0.001791
9.785000E-8	0.001972
9.790000E-8	0.001988
9.795000E-8	0.002050
9.800000E-8	0.001959
9.805000E-8	0.001828
9.810000E-8	0.001788
9.815000E-8	0.001794
9.820000E-8	0.001769
9.825000E-8	0.001581
9.830000E-8	0.001609
9.835000E-8	0.001625
9.840000E-8	0.001694
9.845000E-8	0.001634
9.850000E-8	0.001722
9.855000E-8	0.001763
9.860000E-8	0.001697
9.865000E-8	0.001781
9.870000E-8	0.001894
9.875000E-8	0.001969
9.880000E-8	0.002016
9.885000E-8	0.002006
9.890000E-8	0.002063
9.895000E-8	0.002019
9.900000E-8	0.001888
9.905000E-8	0.001947
9.910000E-8	0.001888
9.915000E-8	0.001850
9.920000E-8	0.001772
9.925000E-8	0.001756
9.930000E-8	0.001809
9.935000E-8	0.001750
9.940000E-8	0.001616
9.945000E-8	0.001519
9.950000E-8	0.001578
9.955000E-8	0.001784
9.960000E-8	0.001725
9.965000E-8	0.001797
9.970000E-8	0.001794
9.975000E-8	0.001831
9.980000E-8	0.001831
9.985000E-8	0.001925
9.990000E-8	0.001934
9.995000E-8	0.001925
