LabVIEW Measurement	
Writer_Version	2
Reader_Version	2
Separator	Tab
Decimal_Separator	.
Multi_Headings	No
X_Columns	Multi
Time_Pref	Relative
Operator	TG lab
Date	2015/03/06
Time	16:33:31.2629818916320800781
***End_of_Header***	
	
Channels	1	
Samples	2000	
Date	2015/03/06	
Time	16:33:31.2629818916320800781	
X_Dimension	Time	
X0	0.0000000000000000E+0	
Delta_X	5.000000E-11	
***End_of_Header***		
X_Value	Untitled	Comment
0.000000	0.002188
5.000000E-11	0.002259
1.000000E-10	0.002300
1.500000E-10	0.002356
2.000000E-10	0.002363
2.500000E-10	0.002422
3.000000E-10	0.002431
3.500000E-10	0.002491
4.000000E-10	0.002506
4.500000E-10	0.002512
5.000000E-10	0.002441
5.500000E-10	0.002544
6.000000E-10	0.002541
6.500000E-10	0.002416
7.000000E-10	0.002391
7.500000E-10	0.002328
8.000000E-10	0.002322
8.500000E-10	0.002319
9.000000E-10	0.002141
9.500000E-10	0.002138
1.000000E-9	0.002009
1.050000E-9	0.002012
1.100000E-9	0.001956
1.150000E-9	0.001975
1.200000E-9	0.002025
1.250000E-9	0.002100
1.300000E-9	0.002066
1.350000E-9	0.002188
1.400000E-9	0.002334
1.450000E-9	0.002416
1.500000E-9	0.002344
1.550000E-9	0.002459
1.600000E-9	0.002416
1.650000E-9	0.002531
1.700000E-9	0.002456
1.750000E-9	0.002284
1.800000E-9	0.002184
1.850000E-9	0.002081
1.900000E-9	0.001963
1.950000E-9	0.002034
2.000000E-9	0.001966
2.050000E-9	0.001981
2.100000E-9	0.001903
2.150000E-9	0.002078
2.200000E-9	0.002091
2.250000E-9	0.002134
2.300000E-9	0.002241
2.350000E-9	0.002391
2.400000E-9	0.002497
2.450000E-9	0.002494
2.500000E-9	0.002450
2.550000E-9	0.002441
2.600000E-9	0.002369
2.650000E-9	0.002350
2.700000E-9	0.002334
2.750000E-9	0.002278
2.800000E-9	0.002178
2.850000E-9	0.002316
2.900000E-9	0.002322
2.950000E-9	0.002416
3.000000E-9	0.002378
3.050000E-9	0.002556
3.100000E-9	0.002556
3.150000E-9	0.002566
3.200000E-9	0.002622
3.250000E-9	0.002678
3.300000E-9	0.002753
3.350000E-9	0.002778
3.400000E-9	0.002678
3.450000E-9	0.002634
3.500000E-9	0.002563
3.550000E-9	0.002556
3.600000E-9	0.002441
3.650000E-9	0.002400
3.700000E-9	0.002300
3.750000E-9	0.002381
3.800000E-9	0.002437
3.850000E-9	0.002519
3.900000E-9	0.002497
3.950000E-9	0.002613
4.000000E-9	0.002531
4.050000E-9	0.002688
4.100000E-9	0.002688
4.150000E-9	0.002806
4.200000E-9	0.002759
4.250000E-9	0.002731
4.300000E-9	0.002706
4.350000E-9	0.002613
4.400000E-9	0.002694
4.450000E-9	0.002781
4.500000E-9	0.002666
4.550000E-9	0.002731
4.600000E-9	0.002719
4.650000E-9	0.002775
4.700000E-9	0.002834
4.750000E-9	0.002797
4.800000E-9	0.002813
4.850000E-9	0.002922
4.900000E-9	0.002988
4.950000E-9	0.003016
5.000000E-9	0.002834
5.050000E-9	0.002972
5.100000E-9	0.003009
5.150000E-9	0.002897
5.200000E-9	0.002919
5.250000E-9	0.002850
5.300000E-9	0.002950
5.350000E-9	0.003016
5.400000E-9	0.003012
5.450000E-9	0.003084
5.500000E-9	0.003091
5.550000E-9	0.003203
5.600000E-9	0.003153
5.650000E-9	0.003244
5.700000E-9	0.003384
5.750000E-9	0.003416
5.800000E-9	0.003306
5.850000E-9	0.003284
5.900000E-9	0.003244
5.950000E-9	0.003228
6.000000E-9	0.003178
6.050000E-9	0.003125
6.100000E-9	0.003150
6.150000E-9	0.003116
6.200000E-9	0.003063
6.250000E-9	0.003162
6.300000E-9	0.003147
6.350000E-9	0.003138
6.400000E-9	0.003175
6.450000E-9	0.003153
6.500000E-9	0.003306
6.550000E-9	0.003316
6.600000E-9	0.003366
6.650000E-9	0.003512
6.700000E-9	0.003416
6.750000E-9	0.003491
6.800000E-9	0.003616
6.850000E-9	0.003753
6.900000E-9	0.004000
6.950000E-9	0.004231
7.000000E-9	0.004431
7.050000E-9	0.004713
7.100000E-9	0.004938
7.150000E-9	0.005281
7.200000E-9	0.005544
7.250000E-9	0.005984
7.300000E-9	0.006500
7.350000E-9	0.007069
7.400000E-9	0.007775
7.450000E-9	0.008669
7.500000E-9	0.009709
7.550000E-9	0.010781
7.600000E-9	0.011997
7.650000E-9	0.013334
7.700000E-9	0.014503
7.750000E-9	0.015919
7.800000E-9	0.017125
7.850000E-9	0.018356
7.900000E-9	0.019456
7.950000E-9	0.020519
8.000000E-9	0.021556
8.050000E-9	0.022819
8.100000E-9	0.024147
8.150000E-9	0.025572
8.200000E-9	0.027006
8.250000E-9	0.028297
8.300000E-9	0.029794
8.350000E-9	0.031122
8.400000E-9	0.032097
8.450000E-9	0.032709
8.500000E-9	0.032853
8.550000E-9	0.032462
8.600000E-9	0.031691
8.650000E-9	0.030528
8.700000E-9	0.028913
8.750000E-9	0.027000
8.800000E-9	0.025012
8.850000E-9	0.023053
8.900000E-9	0.021134
8.950000E-9	0.019681
9.000000E-9	0.018584
9.050000E-9	0.017916
9.100000E-9	0.017597
9.150000E-9	0.017916
9.200000E-9	0.018316
9.250000E-9	0.018963
9.300000E-9	0.019653
9.350000E-9	0.020116
9.400000E-9	0.020497
9.450000E-9	0.020684
9.500000E-9	0.020356
9.550000E-9	0.019791
9.600000E-9	0.018937
9.650000E-9	0.017859
9.700000E-9	0.016459
9.750000E-9	0.015213
9.800000E-9	0.013881
9.850000E-9	0.012688
9.900000E-9	0.011588
9.950000E-9	0.010900
1.000000E-8	0.010397
1.005000E-8	0.010256
1.010000E-8	0.010484
1.015000E-8	0.010972
1.020000E-8	0.011550
1.025000E-8	0.012263
1.030000E-8	0.012916
1.035000E-8	0.013556
1.040000E-8	0.013944
1.045000E-8	0.014047
1.050000E-8	0.013847
1.055000E-8	0.013519
1.060000E-8	0.012681
1.065000E-8	0.011681
1.070000E-8	0.010641
1.075000E-8	0.009744
1.080000E-8	0.008584
1.085000E-8	0.007647
1.090000E-8	0.006972
1.095000E-8	0.006522
1.100000E-8	0.006500
1.105000E-8	0.006659
1.110000E-8	0.006981
1.115000E-8	0.007631
1.120000E-8	0.008244
1.125000E-8	0.008909
1.130000E-8	0.009506
1.135000E-8	0.010038
1.140000E-8	0.010178
1.145000E-8	0.010206
1.150000E-8	0.009931
1.155000E-8	0.009553
1.160000E-8	0.008722
1.165000E-8	0.007997
1.170000E-8	0.007050
1.175000E-8	0.006203
1.180000E-8	0.005319
1.185000E-8	0.004547
1.190000E-8	0.003938
1.195000E-8	0.003697
1.200000E-8	0.003647
1.205000E-8	0.003931
1.210000E-8	0.004306
1.215000E-8	0.004872
1.220000E-8	0.005544
1.225000E-8	0.006103
1.230000E-8	0.006794
1.235000E-8	0.007328
1.240000E-8	0.007672
1.245000E-8	0.007778
1.250000E-8	0.007588
1.255000E-8	0.007316
1.260000E-8	0.006634
1.265000E-8	0.005891
1.270000E-8	0.005059
1.275000E-8	0.004266
1.280000E-8	0.003491
1.285000E-8	0.003034
1.290000E-8	0.002613
1.295000E-8	0.002372
1.300000E-8	0.002503
1.305000E-8	0.002853
1.310000E-8	0.003206
1.315000E-8	0.003894
1.320000E-8	0.004650
1.325000E-8	0.005369
1.330000E-8	0.006006
1.335000E-8	0.006550
1.340000E-8	0.006878
1.345000E-8	0.007075
1.350000E-8	0.006891
1.355000E-8	0.006578
1.360000E-8	0.005888
1.365000E-8	0.005291
1.370000E-8	0.004372
1.375000E-8	0.003578
1.380000E-8	0.002713
1.385000E-8	0.002184
1.390000E-8	0.001719
1.395000E-8	0.001528
1.400000E-8	0.001622
1.405000E-8	0.001994
1.410000E-8	0.002419
1.415000E-8	0.003181
1.420000E-8	0.003844
1.425000E-8	0.004647
1.430000E-8	0.005206
1.435000E-8	0.005872
1.440000E-8	0.006159
1.445000E-8	0.006391
1.450000E-8	0.006109
1.455000E-8	0.005766
1.460000E-8	0.005147
1.465000E-8	0.004353
1.470000E-8	0.003444
1.475000E-8	0.002650
1.480000E-8	0.001875
1.485000E-8	0.001319
1.490000E-8	0.000909
1.495000E-8	0.000994
1.500000E-8	0.001112
1.505000E-8	0.001634
1.510000E-8	0.002147
1.515000E-8	0.002959
1.520000E-8	0.003769
1.525000E-8	0.004594
1.530000E-8	0.005141
1.535000E-8	0.005566
1.540000E-8	0.005803
1.545000E-8	0.005641
1.550000E-8	0.005297
1.555000E-8	0.004662
1.560000E-8	0.003928
1.565000E-8	0.003075
1.570000E-8	0.002381
1.575000E-8	0.001566
1.580000E-8	0.000950
1.585000E-8	0.000550
1.590000E-8	0.000363
1.595000E-8	0.000737
1.600000E-8	0.001200
1.605000E-8	0.001834
1.610000E-8	0.002616
1.615000E-8	0.003544
1.620000E-8	0.004353
1.625000E-8	0.005109
1.630000E-8	0.005662
1.635000E-8	0.005884
1.640000E-8	0.005822
1.645000E-8	0.005528
1.650000E-8	0.005078
1.655000E-8	0.004387
1.660000E-8	0.003584
1.665000E-8	0.002725
1.670000E-8	0.001909
1.675000E-8	0.001344
1.680000E-8	0.000853
1.685000E-8	0.000616
1.690000E-8	0.000700
1.695000E-8	0.001059
1.700000E-8	0.001578
1.705000E-8	0.002303
1.710000E-8	0.003056
1.715000E-8	0.003853
1.720000E-8	0.004528
1.725000E-8	0.005112
1.730000E-8	0.005322
1.735000E-8	0.005425
1.740000E-8	0.005172
1.745000E-8	0.004684
1.750000E-8	0.004053
1.755000E-8	0.003159
1.760000E-8	0.002272
1.765000E-8	0.001516
1.770000E-8	0.000731
1.775000E-8	0.000194
1.780000E-8	-0.000141
1.785000E-8	-6.250000E-5
1.790000E-8	0.000297
1.795000E-8	0.000869
1.800000E-8	0.001516
1.805000E-8	0.002284
1.810000E-8	0.003138
1.815000E-8	0.003881
1.820000E-8	0.004466
1.825000E-8	0.004669
1.830000E-8	0.004784
1.835000E-8	0.004684
1.840000E-8	0.004278
1.845000E-8	0.003688
1.850000E-8	0.002909
1.855000E-8	0.002234
1.860000E-8	0.001444
1.865000E-8	0.000759
1.870000E-8	0.000178
1.875000E-8	-0.000184
1.880000E-8	-0.000266
1.885000E-8	-0.000175
1.890000E-8	0.000153
1.895000E-8	0.000881
1.900000E-8	0.001525
1.905000E-8	0.002366
1.910000E-8	0.003106
1.915000E-8	0.003734
1.920000E-8	0.004272
1.925000E-8	0.004731
1.930000E-8	0.004747
1.935000E-8	0.004609
1.940000E-8	0.004225
1.945000E-8	0.003663
1.950000E-8	0.002975
1.955000E-8	0.002269
1.960000E-8	0.001556
1.965000E-8	0.001103
1.970000E-8	0.000700
1.975000E-8	0.000550
1.980000E-8	0.000544
1.985000E-8	0.000800
1.990000E-8	0.001216
1.995000E-8	0.001881
2.000000E-8	0.002375
2.005000E-8	0.003031
2.010000E-8	0.003594
2.015000E-8	0.004247
2.020000E-8	0.004684
2.025000E-8	0.004816
2.030000E-8	0.004800
2.035000E-8	0.004738
2.040000E-8	0.004216
2.045000E-8	0.003700
2.050000E-8	0.002978
2.055000E-8	0.002456
2.060000E-8	0.001666
2.065000E-8	0.001134
2.070000E-8	0.000588
2.075000E-8	0.000409
2.080000E-8	0.000341
2.085000E-8	0.000703
2.090000E-8	0.001122
2.095000E-8	0.001731
2.100000E-8	0.002263
2.105000E-8	0.003041
2.110000E-8	0.003663
2.115000E-8	0.004169
2.120000E-8	0.004459
2.125000E-8	0.004541
2.130000E-8	0.004481
2.135000E-8	0.004091
2.140000E-8	0.003556
2.145000E-8	0.002994
2.150000E-8	0.002172
2.155000E-8	0.001716
2.160000E-8	0.001156
2.165000E-8	0.000734
2.170000E-8	0.000309
2.175000E-8	0.000338
2.180000E-8	0.000425
2.185000E-8	0.000847
2.190000E-8	0.001319
2.195000E-8	0.001906
2.200000E-8	0.002600
2.205000E-8	0.003213
2.210000E-8	0.003788
2.215000E-8	0.004278
2.220000E-8	0.004428
2.225000E-8	0.004497
2.230000E-8	0.004303
2.235000E-8	0.003869
2.240000E-8	0.003363
2.245000E-8	0.002725
2.250000E-8	0.001947
2.255000E-8	0.001350
2.260000E-8	0.000794
2.265000E-8	0.000494
2.270000E-8	0.000319
2.275000E-8	0.000484
2.280000E-8	0.000631
2.285000E-8	0.001328
2.290000E-8	0.001925
2.295000E-8	0.002688
2.300000E-8	0.003400
2.305000E-8	0.004069
2.310000E-8	0.004613
2.315000E-8	0.004944
2.320000E-8	0.004891
2.325000E-8	0.004788
2.330000E-8	0.004347
2.335000E-8	0.003872
2.340000E-8	0.003028
2.345000E-8	0.002306
2.350000E-8	0.001466
2.355000E-8	0.000925
2.360000E-8	0.000359
2.365000E-8	3.125000E-5
2.370000E-8	5.937500E-5
2.375000E-8	0.000256
2.380000E-8	0.000675
2.385000E-8	0.001303
2.390000E-8	0.001856
2.395000E-8	0.002675
2.400000E-8	0.003334
2.405000E-8	0.003938
2.410000E-8	0.004278
2.415000E-8	0.004444
2.420000E-8	0.004300
2.425000E-8	0.003925
2.430000E-8	0.003431
2.435000E-8	0.002853
2.440000E-8	0.002209
2.445000E-8	0.001484
2.450000E-8	0.000800
2.455000E-8	0.000466
2.460000E-8	-5.937500E-5
2.465000E-8	-0.000109
2.470000E-8	-3.750000E-5
2.475000E-8	0.000344
2.480000E-8	0.000850
2.485000E-8	0.001566
2.490000E-8	0.002300
2.495000E-8	0.003041
2.500000E-8	0.003569
2.505000E-8	0.004084
2.510000E-8	0.004281
2.515000E-8	0.004328
2.520000E-8	0.004166
2.525000E-8	0.003725
2.530000E-8	0.003213
2.535000E-8	0.002653
2.540000E-8	0.002034
2.545000E-8	0.001450
2.550000E-8	0.000913
2.555000E-8	0.000563
2.560000E-8	0.000356
2.565000E-8	0.000656
2.570000E-8	0.000894
2.575000E-8	0.001338
2.580000E-8	0.001822
2.585000E-8	0.002391
2.590000E-8	0.002941
2.595000E-8	0.003475
2.600000E-8	0.003928
2.605000E-8	0.004266
2.610000E-8	0.004219
2.615000E-8	0.004231
2.620000E-8	0.003913
2.625000E-8	0.003556
2.630000E-8	0.002988
2.635000E-8	0.002453
2.640000E-8	0.001856
2.645000E-8	0.001403
2.650000E-8	0.000906
2.655000E-8	0.000688
2.660000E-8	0.000581
2.665000E-8	0.000572
2.670000E-8	0.000659
2.675000E-8	0.001059
2.680000E-8	0.001528
2.685000E-8	0.002100
2.690000E-8	0.002553
2.695000E-8	0.003209
2.700000E-8	0.003553
2.705000E-8	0.003806
2.710000E-8	0.003919
2.715000E-8	0.003863
2.720000E-8	0.003441
2.725000E-8	0.003162
2.730000E-8	0.002559
2.735000E-8	0.001966
2.740000E-8	0.001509
2.745000E-8	0.001106
2.750000E-8	0.000766
2.755000E-8	0.000528
2.760000E-8	0.000528
2.765000E-8	0.000725
2.770000E-8	0.001041
2.775000E-8	0.001531
2.780000E-8	0.001994
2.785000E-8	0.002500
2.790000E-8	0.002966
2.795000E-8	0.003413
2.800000E-8	0.003659
2.805000E-8	0.003913
2.810000E-8	0.003984
2.815000E-8	0.003997
2.820000E-8	0.003550
2.825000E-8	0.003225
2.830000E-8	0.002691
2.835000E-8	0.002309
2.840000E-8	0.001719
2.845000E-8	0.001353
2.850000E-8	0.000994
2.855000E-8	0.000903
2.860000E-8	0.000984
2.865000E-8	0.001116
2.870000E-8	0.001494
2.875000E-8	0.002031
2.880000E-8	0.002359
2.885000E-8	0.002822
2.890000E-8	0.003353
2.895000E-8	0.003622
2.900000E-8	0.003828
2.905000E-8	0.003872
2.910000E-8	0.003616
2.915000E-8	0.003381
2.920000E-8	0.003041
2.925000E-8	0.002575
2.930000E-8	0.001984
2.935000E-8	0.001534
2.940000E-8	0.001141
2.945000E-8	0.000856
2.950000E-8	0.000631
2.955000E-8	0.000581
2.960000E-8	0.000741
2.965000E-8	0.001106
2.970000E-8	0.001431
2.975000E-8	0.001900
2.980000E-8	0.002481
2.985000E-8	0.003056
2.990000E-8	0.003388
2.995000E-8	0.003700
3.000000E-8	0.004000
3.005000E-8	0.004006
3.010000E-8	0.003834
3.015000E-8	0.003544
3.020000E-8	0.003050
3.025000E-8	0.002781
3.030000E-8	0.002044
3.035000E-8	0.001600
3.040000E-8	0.001009
3.045000E-8	0.000728
3.050000E-8	0.000566
3.055000E-8	0.000534
3.060000E-8	0.000831
3.065000E-8	0.001122
3.070000E-8	0.001559
3.075000E-8	0.002197
3.080000E-8	0.002672
3.085000E-8	0.003197
3.090000E-8	0.003544
3.095000E-8	0.003988
3.100000E-8	0.004047
3.105000E-8	0.003800
3.110000E-8	0.003578
3.115000E-8	0.003234
3.120000E-8	0.002706
3.125000E-8	0.002278
3.130000E-8	0.001722
3.135000E-8	0.001263
3.140000E-8	0.000894
3.145000E-8	0.000750
3.150000E-8	0.000722
3.155000E-8	0.000944
3.160000E-8	0.001134
3.165000E-8	0.001597
3.170000E-8	0.001969
3.175000E-8	0.002406
3.180000E-8	0.002763
3.185000E-8	0.003172
3.190000E-8	0.003406
3.195000E-8	0.003691
3.200000E-8	0.003597
3.205000E-8	0.003628
3.210000E-8	0.003291
3.215000E-8	0.002859
3.220000E-8	0.002363
3.225000E-8	0.001941
3.230000E-8	0.001619
3.235000E-8	0.001303
3.240000E-8	0.000991
3.245000E-8	0.000863
3.250000E-8	0.001091
3.255000E-8	0.001256
3.260000E-8	0.001569
3.265000E-8	0.002025
3.270000E-8	0.002512
3.275000E-8	0.002869
3.280000E-8	0.003206
3.285000E-8	0.003509
3.290000E-8	0.003634
3.295000E-8	0.003806
3.300000E-8	0.003591
3.305000E-8	0.003197
3.310000E-8	0.002828
3.315000E-8	0.002419
3.320000E-8	0.001856
3.325000E-8	0.001478
3.330000E-8	0.000969
3.335000E-8	0.000734
3.340000E-8	0.000650
3.345000E-8	0.000688
3.350000E-8	0.000809
3.355000E-8	0.001172
3.360000E-8	0.001541
3.365000E-8	0.002006
3.370000E-8	0.002456
3.375000E-8	0.002966
3.380000E-8	0.003263
3.385000E-8	0.003650
3.390000E-8	0.003709
3.395000E-8	0.003753
3.400000E-8	0.003475
3.405000E-8	0.003184
3.410000E-8	0.002728
3.415000E-8	0.002344
3.420000E-8	0.001819
3.425000E-8	0.001388
3.430000E-8	0.000991
3.435000E-8	0.000813
3.440000E-8	0.000706
3.445000E-8	0.000947
3.450000E-8	0.001044
3.455000E-8	0.001419
3.460000E-8	0.001856
3.465000E-8	0.002400
3.470000E-8	0.002753
3.475000E-8	0.003338
3.480000E-8	0.003669
3.485000E-8	0.003816
3.490000E-8	0.003850
3.495000E-8	0.003800
3.500000E-8	0.003594
3.505000E-8	0.003319
3.510000E-8	0.002844
3.515000E-8	0.002322
3.520000E-8	0.001797
3.525000E-8	0.001528
3.530000E-8	0.001228
3.535000E-8	0.001022
3.540000E-8	0.000956
3.545000E-8	0.001047
3.550000E-8	0.001231
3.555000E-8	0.001625
3.560000E-8	0.001966
3.565000E-8	0.002366
3.570000E-8	0.002772
3.575000E-8	0.003087
3.580000E-8	0.003372
3.585000E-8	0.003566
3.590000E-8	0.003484
3.595000E-8	0.003441
3.600000E-8	0.003134
3.605000E-8	0.002850
3.610000E-8	0.002409
3.615000E-8	0.001941
3.620000E-8	0.001566
3.625000E-8	0.001253
3.630000E-8	0.000894
3.635000E-8	0.000822
3.640000E-8	0.000791
3.645000E-8	0.000991
3.650000E-8	0.001263
3.655000E-8	0.001672
3.660000E-8	0.001931
3.665000E-8	0.002431
3.670000E-8	0.002828
3.675000E-8	0.003216
3.680000E-8	0.003353
3.685000E-8	0.003416
3.690000E-8	0.003266
3.695000E-8	0.003103
3.700000E-8	0.002806
3.705000E-8	0.002528
3.710000E-8	0.002041
3.715000E-8	0.001800
3.720000E-8	0.001403
3.725000E-8	0.001147
3.730000E-8	0.001159
3.735000E-8	0.001175
3.740000E-8	0.001156
3.745000E-8	0.001519
3.750000E-8	0.001906
3.755000E-8	0.002244
3.760000E-8	0.002613
3.765000E-8	0.002991
3.770000E-8	0.003194
3.775000E-8	0.003475
3.780000E-8	0.003584
3.785000E-8	0.003572
3.790000E-8	0.003409
3.795000E-8	0.003316
3.800000E-8	0.002925
3.805000E-8	0.002544
3.810000E-8	0.002084
3.815000E-8	0.001756
3.820000E-8	0.001484
3.825000E-8	0.001109
3.830000E-8	0.001031
3.835000E-8	0.001059
3.840000E-8	0.001197
3.845000E-8	0.001497
3.850000E-8	0.001784
3.855000E-8	0.002172
3.860000E-8	0.002494
3.865000E-8	0.002909
3.870000E-8	0.003209
3.875000E-8	0.003444
3.880000E-8	0.003409
3.885000E-8	0.003306
3.890000E-8	0.003209
3.895000E-8	0.002969
3.900000E-8	0.002600
3.905000E-8	0.002237
3.910000E-8	0.001719
3.915000E-8	0.001447
3.920000E-8	0.001197
3.925000E-8	0.001053
3.930000E-8	0.001006
3.935000E-8	0.001197
3.940000E-8	0.001338
3.945000E-8	0.001784
3.950000E-8	0.002113
3.955000E-8	0.002338
3.960000E-8	0.002619
3.965000E-8	0.002988
3.970000E-8	0.003066
3.975000E-8	0.003134
3.980000E-8	0.003047
3.985000E-8	0.002838
3.990000E-8	0.002606
3.995000E-8	0.002384
4.000000E-8	0.002016
4.005000E-8	0.001750
4.010000E-8	0.001437
4.015000E-8	0.001275
4.020000E-8	0.001100
4.025000E-8	0.001134
4.030000E-8	0.001175
4.035000E-8	0.001434
4.040000E-8	0.001622
4.045000E-8	0.001959
4.050000E-8	0.002366
4.055000E-8	0.002659
4.060000E-8	0.002950
4.065000E-8	0.003141
4.070000E-8	0.003259
4.075000E-8	0.003272
4.080000E-8	0.003188
4.085000E-8	0.003162
4.090000E-8	0.002828
4.095000E-8	0.002688
4.100000E-8	0.002322
4.105000E-8	0.002091
4.110000E-8	0.001844
4.115000E-8	0.001659
4.120000E-8	0.001397
4.125000E-8	0.001338
4.130000E-8	0.001416
4.135000E-8	0.001556
4.140000E-8	0.001656
4.145000E-8	0.001888
4.150000E-8	0.002094
4.155000E-8	0.002481
4.160000E-8	0.002737
4.165000E-8	0.003025
4.170000E-8	0.003113
4.175000E-8	0.003244
4.180000E-8	0.003097
4.185000E-8	0.002947
4.190000E-8	0.002756
4.195000E-8	0.002491
4.200000E-8	0.002162
4.205000E-8	0.002012
4.210000E-8	0.001847
4.215000E-8	0.001691
4.220000E-8	0.001572
4.225000E-8	0.001672
4.230000E-8	0.001672
4.235000E-8	0.001900
4.240000E-8	0.002100
4.245000E-8	0.002350
4.250000E-8	0.002597
4.255000E-8	0.002781
4.260000E-8	0.002866
4.265000E-8	0.003006
4.270000E-8	0.003119
4.275000E-8	0.003034
4.280000E-8	0.002875
4.285000E-8	0.002647
4.290000E-8	0.002344
4.295000E-8	0.002203
4.300000E-8	0.001866
4.305000E-8	0.001584
4.310000E-8	0.001378
4.315000E-8	0.001272
4.320000E-8	0.001281
4.325000E-8	0.001362
4.330000E-8	0.001522
4.335000E-8	0.001788
4.340000E-8	0.001959
4.345000E-8	0.002447
4.350000E-8	0.002797
4.355000E-8	0.003122
4.360000E-8	0.003219
4.365000E-8	0.003388
4.370000E-8	0.003341
4.375000E-8	0.003134
4.380000E-8	0.002928
4.385000E-8	0.002791
4.390000E-8	0.002372
4.395000E-8	0.002200
4.400000E-8	0.001781
4.405000E-8	0.001484
4.410000E-8	0.001306
4.415000E-8	0.001250
4.420000E-8	0.001175
4.425000E-8	0.001428
4.430000E-8	0.001566
4.435000E-8	0.001991
4.440000E-8	0.002162
4.445000E-8	0.002578
4.450000E-8	0.002878
4.455000E-8	0.003222
4.460000E-8	0.003359
4.465000E-8	0.003556
4.470000E-8	0.003566
4.475000E-8	0.003447
4.480000E-8	0.003131
4.485000E-8	0.002847
4.490000E-8	0.002506
4.495000E-8	0.002231
4.500000E-8	0.001850
4.505000E-8	0.001559
4.510000E-8	0.001459
4.515000E-8	0.001591
4.520000E-8	0.001563
4.525000E-8	0.001678
4.530000E-8	0.001931
4.535000E-8	0.002272
4.540000E-8	0.002559
4.545000E-8	0.002716
4.550000E-8	0.002950
4.555000E-8	0.003234
4.560000E-8	0.003281
4.565000E-8	0.003306
4.570000E-8	0.003125
4.575000E-8	0.002959
4.580000E-8	0.002625
4.585000E-8	0.002434
4.590000E-8	0.002022
4.595000E-8	0.001847
4.600000E-8	0.001653
4.605000E-8	0.001612
4.610000E-8	0.001463
4.615000E-8	0.001525
4.620000E-8	0.001612
4.625000E-8	0.001863
4.630000E-8	0.001963
4.635000E-8	0.002256
4.640000E-8	0.002478
4.645000E-8	0.002703
4.650000E-8	0.002863
4.655000E-8	0.003122
4.660000E-8	0.003150
4.665000E-8	0.003012
4.670000E-8	0.002844
4.675000E-8	0.002578
4.680000E-8	0.002409
4.685000E-8	0.002153
4.690000E-8	0.001906
4.695000E-8	0.001659
4.700000E-8	0.001469
4.705000E-8	0.001381
4.710000E-8	0.001347
4.715000E-8	0.001425
4.720000E-8	0.001675
4.725000E-8	0.001859
4.730000E-8	0.001972
4.735000E-8	0.002263
4.740000E-8	0.002350
4.745000E-8	0.002622
4.750000E-8	0.002603
4.755000E-8	0.002756
4.760000E-8	0.002844
4.765000E-8	0.002747
4.770000E-8	0.002631
4.775000E-8	0.002466
4.780000E-8	0.002334
4.785000E-8	0.002056
4.790000E-8	0.001822
4.795000E-8	0.001681
4.800000E-8	0.001409
4.805000E-8	0.001347
4.810000E-8	0.001334
4.815000E-8	0.001472
4.820000E-8	0.001591
4.825000E-8	0.001791
4.830000E-8	0.002147
4.835000E-8	0.002419
4.840000E-8	0.002572
4.845000E-8	0.002881
4.850000E-8	0.002963
4.855000E-8	0.003063
4.860000E-8	0.002891
4.865000E-8	0.002816
4.870000E-8	0.002575
4.875000E-8	0.002441
4.880000E-8	0.002178
4.885000E-8	0.001913
4.890000E-8	0.001766
4.895000E-8	0.001744
4.900000E-8	0.001516
4.905000E-8	0.001622
4.910000E-8	0.001572
4.915000E-8	0.001638
4.920000E-8	0.001856
4.925000E-8	0.002059
4.930000E-8	0.002263
4.935000E-8	0.002544
4.940000E-8	0.002791
4.945000E-8	0.002878
4.950000E-8	0.003028
4.955000E-8	0.003122
4.960000E-8	0.002903
4.965000E-8	0.002759
4.970000E-8	0.002656
4.975000E-8	0.002450
4.980000E-8	0.002206
4.985000E-8	0.001894
4.990000E-8	0.001647
4.995000E-8	0.001491
5.000000E-8	0.001366
5.005000E-8	0.001453
5.010000E-8	0.001638
5.015000E-8	0.001909
5.020000E-8	0.002091
5.025000E-8	0.002428
5.030000E-8	0.002703
5.035000E-8	0.002978
5.040000E-8	0.003059
5.045000E-8	0.003259
5.050000E-8	0.003113
5.055000E-8	0.003022
5.060000E-8	0.002841
5.065000E-8	0.002741
5.070000E-8	0.002416
5.075000E-8	0.002241
5.080000E-8	0.001922
5.085000E-8	0.001756
5.090000E-8	0.001706
5.095000E-8	0.001609
5.100000E-8	0.001606
5.105000E-8	0.001741
5.110000E-8	0.001853
5.115000E-8	0.001978
5.120000E-8	0.002156
5.125000E-8	0.002403
5.130000E-8	0.002437
5.135000E-8	0.002616
5.140000E-8	0.002684
5.145000E-8	0.002725
5.150000E-8	0.002578
5.155000E-8	0.002500
5.160000E-8	0.002363
5.165000E-8	0.002313
5.170000E-8	0.002075
5.175000E-8	0.001984
5.180000E-8	0.001806
5.185000E-8	0.001728
5.190000E-8	0.001663
5.195000E-8	0.001747
5.200000E-8	0.001634
5.205000E-8	0.001825
5.210000E-8	0.001872
5.215000E-8	0.002028
5.220000E-8	0.002197
5.225000E-8	0.002400
5.230000E-8	0.002475
5.235000E-8	0.002603
5.240000E-8	0.002622
5.245000E-8	0.002700
5.250000E-8	0.002659
5.255000E-8	0.002591
5.260000E-8	0.002491
5.265000E-8	0.002300
5.270000E-8	0.002087
5.275000E-8	0.001881
5.280000E-8	0.001716
5.285000E-8	0.001772
5.290000E-8	0.001588
5.295000E-8	0.001478
5.300000E-8	0.001666
5.305000E-8	0.001894
5.310000E-8	0.002044
5.315000E-8	0.002297
5.320000E-8	0.002550
5.325000E-8	0.002672
5.330000E-8	0.002759
5.335000E-8	0.003000
5.340000E-8	0.003003
5.345000E-8	0.003028
5.350000E-8	0.002891
5.355000E-8	0.002766
5.360000E-8	0.002481
5.365000E-8	0.002331
5.370000E-8	0.002138
5.375000E-8	0.001956
5.380000E-8	0.001775
5.385000E-8	0.001541
5.390000E-8	0.001522
5.395000E-8	0.001575
5.400000E-8	0.001606
5.405000E-8	0.001791
5.410000E-8	0.001891
5.415000E-8	0.002125
5.420000E-8	0.002281
5.425000E-8	0.002328
5.430000E-8	0.002481
5.435000E-8	0.002584
5.440000E-8	0.002581
5.445000E-8	0.002531
5.450000E-8	0.002397
5.455000E-8	0.002322
5.460000E-8	0.002047
5.465000E-8	0.001937
5.470000E-8	0.001781
5.475000E-8	0.001794
5.480000E-8	0.001700
5.485000E-8	0.001669
5.490000E-8	0.001709
5.495000E-8	0.001756
5.500000E-8	0.001809
5.505000E-8	0.001928
5.510000E-8	0.001997
5.515000E-8	0.002284
5.520000E-8	0.002394
5.525000E-8	0.002534
5.530000E-8	0.002516
5.535000E-8	0.002563
5.540000E-8	0.002675
5.545000E-8	0.002441
5.550000E-8	0.002269
5.555000E-8	0.002328
5.560000E-8	0.002041
5.565000E-8	0.001894
5.570000E-8	0.001659
5.575000E-8	0.001672
5.580000E-8	0.001619
5.585000E-8	0.001644
5.590000E-8	0.001675
5.595000E-8	0.001722
5.600000E-8	0.001900
5.605000E-8	0.002087
5.610000E-8	0.002250
5.615000E-8	0.002491
5.620000E-8	0.002569
5.625000E-8	0.002719
5.630000E-8	0.002784
5.635000E-8	0.002825
5.640000E-8	0.002722
5.645000E-8	0.002516
5.650000E-8	0.002384
5.655000E-8	0.002253
5.660000E-8	0.002081
5.665000E-8	0.002053
5.670000E-8	0.001850
5.675000E-8	0.001847
5.680000E-8	0.001728
5.685000E-8	0.001831
5.690000E-8	0.001850
5.695000E-8	0.001875
5.700000E-8	0.001909
5.705000E-8	0.002066
5.710000E-8	0.002206
5.715000E-8	0.002400
5.720000E-8	0.002566
5.725000E-8	0.002644
5.730000E-8	0.002706
5.735000E-8	0.002737
5.740000E-8	0.002613
5.745000E-8	0.002516
5.750000E-8	0.002512
5.755000E-8	0.002347
5.760000E-8	0.002216
5.765000E-8	0.002022
5.770000E-8	0.001850
5.775000E-8	0.001697
5.780000E-8	0.001659
5.785000E-8	0.001716
5.790000E-8	0.001725
5.795000E-8	0.001794
5.800000E-8	0.001872
5.805000E-8	0.002125
5.810000E-8	0.002197
5.815000E-8	0.002344
5.820000E-8	0.002494
5.825000E-8	0.002791
5.830000E-8	0.002734
5.835000E-8	0.002713
5.840000E-8	0.002647
5.845000E-8	0.002653
5.850000E-8	0.002425
5.855000E-8	0.002234
5.860000E-8	0.002153
5.865000E-8	0.001919
5.870000E-8	0.001684
5.875000E-8	0.001575
5.880000E-8	0.001444
5.885000E-8	0.001428
5.890000E-8	0.001406
5.895000E-8	0.001687
5.900000E-8	0.001788
5.905000E-8	0.001891
5.910000E-8	0.001937
5.915000E-8	0.002094
5.920000E-8	0.002319
5.925000E-8	0.002531
5.930000E-8	0.002625
5.935000E-8	0.002659
5.940000E-8	0.002528
5.945000E-8	0.002359
5.950000E-8	0.002194
5.955000E-8	0.002072
5.960000E-8	0.001844
5.965000E-8	0.001716
5.970000E-8	0.001500
5.975000E-8	0.001400
5.980000E-8	0.001428
5.985000E-8	0.001603
5.990000E-8	0.001675
5.995000E-8	0.002063
6.000000E-8	0.002188
6.005000E-8	0.002447
6.010000E-8	0.002659
6.015000E-8	0.002997
6.020000E-8	0.002953
6.025000E-8	0.003087
6.030000E-8	0.003003
6.035000E-8	0.003016
6.040000E-8	0.002838
6.045000E-8	0.002566
6.050000E-8	0.002416
6.055000E-8	0.002284
6.060000E-8	0.002109
6.065000E-8	0.002047
6.070000E-8	0.002022
6.075000E-8	0.002094
6.080000E-8	0.002050
6.085000E-8	0.002250
6.090000E-8	0.002303
6.095000E-8	0.002434
6.100000E-8	0.002522
6.105000E-8	0.002597
6.110000E-8	0.002597
6.115000E-8	0.002647
6.120000E-8	0.002606
6.125000E-8	0.002572
6.130000E-8	0.002384
6.135000E-8	0.002400
6.140000E-8	0.002219
6.145000E-8	0.002147
6.150000E-8	0.001913
6.155000E-8	0.001900
6.160000E-8	0.001753
6.165000E-8	0.001809
6.170000E-8	0.001753
6.175000E-8	0.001803
6.180000E-8	0.001744
6.185000E-8	0.001925
6.190000E-8	0.001919
6.195000E-8	0.002181
6.200000E-8	0.002313
6.205000E-8	0.002463
6.210000E-8	0.002425
6.215000E-8	0.002591
6.220000E-8	0.002488
6.225000E-8	0.002416
6.230000E-8	0.002219
6.235000E-8	0.002256
6.240000E-8	0.002109
6.245000E-8	0.002063
6.250000E-8	0.001894
6.255000E-8	0.001806
6.260000E-8	0.001766
6.265000E-8	0.001822
6.270000E-8	0.001809
6.275000E-8	0.001934
6.280000E-8	0.002044
6.285000E-8	0.002219
6.290000E-8	0.002284
6.295000E-8	0.002459
6.300000E-8	0.002563
6.305000E-8	0.002700
6.310000E-8	0.002675
6.315000E-8	0.002722
6.320000E-8	0.002691
6.325000E-8	0.002694
6.330000E-8	0.002653
6.335000E-8	0.002556
6.340000E-8	0.002400
6.345000E-8	0.002363
6.350000E-8	0.002206
6.355000E-8	0.002166
6.360000E-8	0.002087
6.365000E-8	0.002038
6.370000E-8	0.002053
6.375000E-8	0.002050
6.380000E-8	0.002081
6.385000E-8	0.002050
6.390000E-8	0.002259
6.395000E-8	0.002341
6.400000E-8	0.002506
6.405000E-8	0.002597
6.410000E-8	0.002713
6.415000E-8	0.002772
6.420000E-8	0.002759
6.425000E-8	0.002722
6.430000E-8	0.002572
6.435000E-8	0.002397
6.440000E-8	0.002172
6.445000E-8	0.002047
6.450000E-8	0.001900
6.455000E-8	0.001725
6.460000E-8	0.001709
6.465000E-8	0.001666
6.470000E-8	0.001656
6.475000E-8	0.001700
6.480000E-8	0.001925
6.485000E-8	0.002091
6.490000E-8	0.002156
6.495000E-8	0.002206
6.500000E-8	0.002388
6.505000E-8	0.002559
6.510000E-8	0.002581
6.515000E-8	0.002500
6.520000E-8	0.002391
6.525000E-8	0.002384
6.530000E-8	0.002275
6.535000E-8	0.002087
6.540000E-8	0.001969
6.545000E-8	0.001894
6.550000E-8	0.001822
6.555000E-8	0.001806
6.560000E-8	0.001841
6.565000E-8	0.001863
6.570000E-8	0.001941
6.575000E-8	0.002097
6.580000E-8	0.002263
6.585000E-8	0.002394
6.590000E-8	0.002484
6.595000E-8	0.002634
6.600000E-8	0.002847
6.605000E-8	0.002875
6.610000E-8	0.002856
6.615000E-8	0.002903
6.620000E-8	0.002803
6.625000E-8	0.002722
6.630000E-8	0.002503
6.635000E-8	0.002391
6.640000E-8	0.002266
6.645000E-8	0.002166
6.650000E-8	0.002075
6.655000E-8	0.002019
6.660000E-8	0.002016
6.665000E-8	0.002175
6.670000E-8	0.002188
6.675000E-8	0.002306
6.680000E-8	0.002225
6.685000E-8	0.002375
6.690000E-8	0.002378
6.695000E-8	0.002469
6.700000E-8	0.002516
6.705000E-8	0.002541
6.710000E-8	0.002466
6.715000E-8	0.002509
6.720000E-8	0.002488
6.725000E-8	0.002250
6.730000E-8	0.002147
6.735000E-8	0.002031
6.740000E-8	0.001872
6.745000E-8	0.001713
6.750000E-8	0.001641
6.755000E-8	0.001612
6.760000E-8	0.001650
6.765000E-8	0.001831
6.770000E-8	0.001928
6.775000E-8	0.002197
6.780000E-8	0.002372
6.785000E-8	0.002441
6.790000E-8	0.002594
6.795000E-8	0.002494
6.800000E-8	0.002603
6.805000E-8	0.002662
6.810000E-8	0.002603
6.815000E-8	0.002466
6.820000E-8	0.002431
6.825000E-8	0.002372
6.830000E-8	0.002209
6.835000E-8	0.002166
6.840000E-8	0.002144
6.845000E-8	0.002169
6.850000E-8	0.002084
6.855000E-8	0.002113
6.860000E-8	0.002172
6.865000E-8	0.002244
6.870000E-8	0.002209
6.875000E-8	0.002228
6.880000E-8	0.002197
6.885000E-8	0.002188
6.890000E-8	0.002234
6.895000E-8	0.002316
6.900000E-8	0.002231
6.905000E-8	0.002384
6.910000E-8	0.002334
6.915000E-8	0.002453
6.920000E-8	0.002378
6.925000E-8	0.002319
6.930000E-8	0.002222
6.935000E-8	0.002203
6.940000E-8	0.002216
6.945000E-8	0.002172
6.950000E-8	0.002063
6.955000E-8	0.002056
6.960000E-8	0.001953
6.965000E-8	0.002063
6.970000E-8	0.002206
6.975000E-8	0.002372
6.980000E-8	0.002425
6.985000E-8	0.002591
6.990000E-8	0.002559
6.995000E-8	0.002688
7.000000E-8	0.002794
7.005000E-8	0.002841
7.010000E-8	0.002706
7.015000E-8	0.002525
7.020000E-8	0.002366
7.025000E-8	0.002166
7.030000E-8	0.002091
7.035000E-8	0.001941
7.040000E-8	0.001784
7.045000E-8	0.001856
7.050000E-8	0.001819
7.055000E-8	0.001997
7.060000E-8	0.001975
7.065000E-8	0.001950
7.070000E-8	0.002087
7.075000E-8	0.002291
7.080000E-8	0.002381
7.085000E-8	0.002319
7.090000E-8	0.002213
7.095000E-8	0.002275
7.100000E-8	0.002403
7.105000E-8	0.002391
7.110000E-8	0.002203
7.115000E-8	0.002266
7.120000E-8	0.002263
7.125000E-8	0.002319
7.130000E-8	0.002159
7.135000E-8	0.002150
7.140000E-8	0.002206
7.145000E-8	0.002275
7.150000E-8	0.002244
7.155000E-8	0.002309
7.160000E-8	0.002275
7.165000E-8	0.002341
7.170000E-8	0.002369
7.175000E-8	0.002491
7.180000E-8	0.002563
7.185000E-8	0.002681
7.190000E-8	0.002688
7.195000E-8	0.002638
7.200000E-8	0.002547
7.205000E-8	0.002522
7.210000E-8	0.002497
7.215000E-8	0.002425
7.220000E-8	0.002306
7.225000E-8	0.002294
7.230000E-8	0.002119
7.235000E-8	0.002003
7.240000E-8	0.002003
7.245000E-8	0.002006
7.250000E-8	0.002006
7.255000E-8	0.002047
7.260000E-8	0.002075
7.265000E-8	0.002200
7.270000E-8	0.002228
7.275000E-8	0.002306
7.280000E-8	0.002400
7.285000E-8	0.002491
7.290000E-8	0.002566
7.295000E-8	0.002619
7.300000E-8	0.002478
7.305000E-8	0.002531
7.310000E-8	0.002437
7.315000E-8	0.002394
7.320000E-8	0.002328
7.325000E-8	0.002306
7.330000E-8	0.002188
7.335000E-8	0.002178
7.340000E-8	0.002131
7.345000E-8	0.002106
7.350000E-8	0.002141
7.355000E-8	0.002253
7.360000E-8	0.002266
7.365000E-8	0.002400
7.370000E-8	0.002531
7.375000E-8	0.002631
7.380000E-8	0.002622
7.385000E-8	0.002678
7.390000E-8	0.002553
7.395000E-8	0.002550
7.400000E-8	0.002547
7.405000E-8	0.002500
7.410000E-8	0.002366
7.415000E-8	0.002278
7.420000E-8	0.002269
7.425000E-8	0.002381
7.430000E-8	0.002272
7.435000E-8	0.002244
7.440000E-8	0.002178
7.445000E-8	0.002078
7.450000E-8	0.002162
7.455000E-8	0.002266
7.460000E-8	0.002297
7.465000E-8	0.002281
7.470000E-8	0.002444
7.475000E-8	0.002497
7.480000E-8	0.002491
7.485000E-8	0.002491
7.490000E-8	0.002472
7.495000E-8	0.002491
7.500000E-8	0.002400
7.505000E-8	0.002491
7.510000E-8	0.002288
7.515000E-8	0.002372
7.520000E-8	0.002428
7.525000E-8	0.002450
7.530000E-8	0.002500
7.535000E-8	0.002447
7.540000E-8	0.002453
7.545000E-8	0.002475
7.550000E-8	0.002381
7.555000E-8	0.002437
7.560000E-8	0.002384
7.565000E-8	0.002422
7.570000E-8	0.002481
7.575000E-8	0.002519
7.580000E-8	0.002556
7.585000E-8	0.002694
7.590000E-8	0.002688
7.595000E-8	0.002613
7.600000E-8	0.002600
7.605000E-8	0.002613
7.610000E-8	0.002547
7.615000E-8	0.002425
7.620000E-8	0.002213
7.625000E-8	0.002203
7.630000E-8	0.002169
7.635000E-8	0.002225
7.640000E-8	0.002188
7.645000E-8	0.002219
7.650000E-8	0.002231
7.655000E-8	0.002228
7.660000E-8	0.002278
7.665000E-8	0.002369
7.670000E-8	0.002216
7.675000E-8	0.002344
7.680000E-8	0.002219
7.685000E-8	0.002256
7.690000E-8	0.002206
7.695000E-8	0.002197
7.700000E-8	0.002125
7.705000E-8	0.002150
7.710000E-8	0.002044
7.715000E-8	0.001978
7.720000E-8	0.001906
7.725000E-8	0.001869
7.730000E-8	0.001875
7.735000E-8	0.001975
7.740000E-8	0.001894
7.745000E-8	0.002078
7.750000E-8	0.002191
7.755000E-8	0.002225
7.760000E-8	0.002291
7.765000E-8	0.002291
7.770000E-8	0.002234
7.775000E-8	0.002331
7.780000E-8	0.002372
7.785000E-8	0.002319
7.790000E-8	0.002347
7.795000E-8	0.002388
7.800000E-8	0.002375
7.805000E-8	0.002300
7.810000E-8	0.002231
7.815000E-8	0.002250
7.820000E-8	0.002197
7.825000E-8	0.002275
7.830000E-8	0.002231
7.835000E-8	0.002234
7.840000E-8	0.002284
7.845000E-8	0.002297
7.850000E-8	0.002275
7.855000E-8	0.002409
7.860000E-8	0.002338
7.865000E-8	0.002441
7.870000E-8	0.002372
7.875000E-8	0.002391
7.880000E-8	0.002322
7.885000E-8	0.002347
7.890000E-8	0.002259
7.895000E-8	0.002213
7.900000E-8	0.002075
7.905000E-8	0.002016
7.910000E-8	0.002038
7.915000E-8	0.002019
7.920000E-8	0.001981
7.925000E-8	0.001997
7.930000E-8	0.001956
7.935000E-8	0.002106
7.940000E-8	0.002159
7.945000E-8	0.002159
7.950000E-8	0.002166
7.955000E-8	0.002181
7.960000E-8	0.002194
7.965000E-8	0.002219
7.970000E-8	0.002131
7.975000E-8	0.002134
7.980000E-8	0.002056
7.985000E-8	0.001972
7.990000E-8	0.002113
7.995000E-8	0.002059
8.000000E-8	0.001959
8.005000E-8	0.002094
8.010000E-8	0.001937
8.015000E-8	0.001944
8.020000E-8	0.001897
8.025000E-8	0.002081
8.030000E-8	0.002119
8.035000E-8	0.002066
8.040000E-8	0.002031
8.045000E-8	0.002131
8.050000E-8	0.002166
8.055000E-8	0.002372
8.060000E-8	0.002378
8.065000E-8	0.002437
8.070000E-8	0.002575
8.075000E-8	0.002566
8.080000E-8	0.002469
8.085000E-8	0.002437
8.090000E-8	0.002303
8.095000E-8	0.002391
8.100000E-8	0.002344
8.105000E-8	0.002234
8.110000E-8	0.002191
8.115000E-8	0.002175
8.120000E-8	0.002131
8.125000E-8	0.002156
8.130000E-8	0.002197
8.135000E-8	0.002406
8.140000E-8	0.002366
8.145000E-8	0.002394
8.150000E-8	0.002413
8.155000E-8	0.002450
8.160000E-8	0.002369
8.165000E-8	0.002441
8.170000E-8	0.002469
8.175000E-8	0.002428
8.180000E-8	0.002397
8.185000E-8	0.002422
8.190000E-8	0.002263
8.195000E-8	0.002181
8.200000E-8	0.002116
8.205000E-8	0.002016
8.210000E-8	0.001841
8.215000E-8	0.001869
8.220000E-8	0.001759
8.225000E-8	0.001744
8.230000E-8	0.001763
8.235000E-8	0.001800
8.240000E-8	0.001916
8.245000E-8	0.002141
8.250000E-8	0.002156
8.255000E-8	0.002303
8.260000E-8	0.002309
8.265000E-8	0.002350
8.270000E-8	0.002369
8.275000E-8	0.002325
8.280000E-8	0.002328
8.285000E-8	0.002266
8.290000E-8	0.002113
8.295000E-8	0.002066
8.300000E-8	0.001925
8.305000E-8	0.001969
8.310000E-8	0.001969
8.315000E-8	0.002138
8.320000E-8	0.002178
8.325000E-8	0.002325
8.330000E-8	0.002400
8.335000E-8	0.002534
8.340000E-8	0.002591
8.345000E-8	0.002650
8.350000E-8	0.002659
8.355000E-8	0.002772
8.360000E-8	0.002681
8.365000E-8	0.002613
8.370000E-8	0.002581
8.375000E-8	0.002472
8.380000E-8	0.002403
8.385000E-8	0.002381
8.390000E-8	0.002162
8.395000E-8	0.002169
8.400000E-8	0.002066
8.405000E-8	0.002087
8.410000E-8	0.001969
8.415000E-8	0.002066
8.420000E-8	0.002016
8.425000E-8	0.002113
8.430000E-8	0.002119
8.435000E-8	0.002256
8.440000E-8	0.002331
8.445000E-8	0.002297
8.450000E-8	0.002275
8.455000E-8	0.002347
8.460000E-8	0.002359
8.465000E-8	0.002403
8.470000E-8	0.002369
8.475000E-8	0.002384
8.480000E-8	0.002359
8.485000E-8	0.002328
8.490000E-8	0.002109
8.495000E-8	0.002016
8.500000E-8	0.001969
8.505000E-8	0.001869
8.510000E-8	0.001809
8.515000E-8	0.001869
8.520000E-8	0.001806
8.525000E-8	0.001922
8.530000E-8	0.002038
8.535000E-8	0.002222
8.540000E-8	0.002309
8.545000E-8	0.002528
8.550000E-8	0.002669
8.555000E-8	0.002678
8.560000E-8	0.002638
8.565000E-8	0.002681
8.570000E-8	0.002491
8.575000E-8	0.002425
8.580000E-8	0.002284
8.585000E-8	0.002203
8.590000E-8	0.002066
8.595000E-8	0.002063
8.600000E-8	0.002063
8.605000E-8	0.002053
8.610000E-8	0.002181
8.615000E-8	0.002328
8.620000E-8	0.002459
8.625000E-8	0.002563
8.630000E-8	0.002659
8.635000E-8	0.002722
8.640000E-8	0.002725
8.645000E-8	0.002722
8.650000E-8	0.002778
8.655000E-8	0.002706
8.660000E-8	0.002638
8.665000E-8	0.002600
8.670000E-8	0.002466
8.675000E-8	0.002469
8.680000E-8	0.002456
8.685000E-8	0.002450
8.690000E-8	0.002384
8.695000E-8	0.002481
8.700000E-8	0.002450
8.705000E-8	0.002456
8.710000E-8	0.002425
8.715000E-8	0.002566
8.720000E-8	0.002522
8.725000E-8	0.002613
8.730000E-8	0.002500
8.735000E-8	0.002328
8.740000E-8	0.002272
8.745000E-8	0.002322
8.750000E-8	0.002328
8.755000E-8	0.002159
8.760000E-8	0.002200
8.765000E-8	0.002150
8.770000E-8	0.002081
8.775000E-8	0.002056
8.780000E-8	0.002003
8.785000E-8	0.001922
8.790000E-8	0.001875
8.795000E-8	0.001816
8.800000E-8	0.001863
8.805000E-8	0.001931
8.810000E-8	0.001850
8.815000E-8	0.001847
8.820000E-8	0.001844
8.825000E-8	0.002006
8.830000E-8	0.002050
8.835000E-8	0.002369
8.840000E-8	0.002275
8.845000E-8	0.002413
8.850000E-8	0.002419
8.855000E-8	0.002466
8.860000E-8	0.002278
8.865000E-8	0.002237
8.870000E-8	0.002103
8.875000E-8	0.002041
8.880000E-8	0.001981
8.885000E-8	0.001928
8.890000E-8	0.001991
8.895000E-8	0.002159
8.900000E-8	0.002019
8.905000E-8	0.002006
8.910000E-8	0.002056
8.915000E-8	0.002066
8.920000E-8	0.002019
8.925000E-8	0.002075
8.930000E-8	0.002063
8.935000E-8	0.002000
8.940000E-8	0.002066
8.945000E-8	0.002113
8.950000E-8	0.002203
8.955000E-8	0.002322
8.960000E-8	0.002291
8.965000E-8	0.002422
8.970000E-8	0.002488
8.975000E-8	0.002522
8.980000E-8	0.002494
8.985000E-8	0.002550
8.990000E-8	0.002400
8.995000E-8	0.002516
9.000000E-8	0.002413
9.005000E-8	0.002400
9.010000E-8	0.002394
9.015000E-8	0.002431
9.020000E-8	0.002469
9.025000E-8	0.002509
9.030000E-8	0.002394
9.035000E-8	0.002359
9.040000E-8	0.002313
9.045000E-8	0.002319
9.050000E-8	0.002184
9.055000E-8	0.002222
9.060000E-8	0.002116
9.065000E-8	0.002259
9.070000E-8	0.002078
9.075000E-8	0.002150
9.080000E-8	0.002113
9.085000E-8	0.002138
9.090000E-8	0.002216
9.095000E-8	0.002363
9.100000E-8	0.002403
9.105000E-8	0.002428
9.110000E-8	0.002444
9.115000E-8	0.002559
9.120000E-8	0.002475
9.125000E-8	0.002506
9.130000E-8	0.002450
9.135000E-8	0.002431
9.140000E-8	0.002463
9.145000E-8	0.002278
9.150000E-8	0.002116
9.155000E-8	0.002169
9.160000E-8	0.002031
9.165000E-8	0.001956
9.170000E-8	0.002016
9.175000E-8	0.002069
9.180000E-8	0.002087
9.185000E-8	0.002081
9.190000E-8	0.002059
9.195000E-8	0.002119
9.200000E-8	0.002119
9.205000E-8	0.002256
9.210000E-8	0.002191
9.215000E-8	0.002237
9.220000E-8	0.002263
9.225000E-8	0.002253
9.230000E-8	0.002247
9.235000E-8	0.002297
9.240000E-8	0.002259
9.245000E-8	0.002269
9.250000E-8	0.002241
9.255000E-8	0.002203
9.260000E-8	0.002259
9.265000E-8	0.002131
9.270000E-8	0.002103
9.275000E-8	0.002244
9.280000E-8	0.002184
9.285000E-8	0.002191
9.290000E-8	0.002159
9.295000E-8	0.002175
9.300000E-8	0.002269
9.305000E-8	0.002322
9.310000E-8	0.002363
9.315000E-8	0.002309
9.320000E-8	0.002263
9.325000E-8	0.002219
9.330000E-8	0.002209
9.335000E-8	0.002219
9.340000E-8	0.002191
9.345000E-8	0.002178
9.350000E-8	0.002213
9.355000E-8	0.002294
9.360000E-8	0.002284
9.365000E-8	0.002331
9.370000E-8	0.002375
9.375000E-8	0.002431
9.380000E-8	0.002313
9.385000E-8	0.002347
9.390000E-8	0.002228
9.395000E-8	0.002300
9.400000E-8	0.002269
9.405000E-8	0.002353
9.410000E-8	0.002403
9.415000E-8	0.002384
9.420000E-8	0.002253
9.425000E-8	0.002197
9.430000E-8	0.002247
9.435000E-8	0.002325
9.440000E-8	0.002309
9.445000E-8	0.002322
9.450000E-8	0.002322
9.455000E-8	0.002159
9.460000E-8	0.002234
9.465000E-8	0.002353
9.470000E-8	0.002363
9.475000E-8	0.002500
9.480000E-8	0.002466
9.485000E-8	0.002475
9.490000E-8	0.002463
9.495000E-8	0.002525
9.500000E-8	0.002475
9.505000E-8	0.002372
9.510000E-8	0.002359
9.515000E-8	0.002384
9.520000E-8	0.002431
9.525000E-8	0.002522
9.530000E-8	0.002472
9.535000E-8	0.002472
9.540000E-8	0.002491
9.545000E-8	0.002506
9.550000E-8	0.002384
9.555000E-8	0.002244
9.560000E-8	0.002131
9.565000E-8	0.002134
9.570000E-8	0.002169
9.575000E-8	0.002113
9.580000E-8	0.002028
9.585000E-8	0.001969
9.590000E-8	0.002000
9.595000E-8	0.002084
9.600000E-8	0.002103
9.605000E-8	0.002328
9.610000E-8	0.002344
9.615000E-8	0.002434
9.620000E-8	0.002463
9.625000E-8	0.002531
9.630000E-8	0.002587
9.635000E-8	0.002587
9.640000E-8	0.002575
9.645000E-8	0.002437
9.650000E-8	0.002475
9.655000E-8	0.002453
9.660000E-8	0.002294
9.665000E-8	0.002294
9.670000E-8	0.002184
9.675000E-8	0.002259
9.680000E-8	0.002269
9.685000E-8	0.002266
9.690000E-8	0.002338
9.695000E-8	0.002328
9.700000E-8	0.002291
9.705000E-8	0.002303
9.710000E-8	0.002363
9.715000E-8	0.002331
9.720000E-8	0.002166
9.725000E-8	0.002216
9.730000E-8	0.002141
9.735000E-8	0.002156
9.740000E-8	0.002194
9.745000E-8	0.002209
9.750000E-8	0.002269
9.755000E-8	0.002341
9.760000E-8	0.002341
9.765000E-8	0.002363
9.770000E-8	0.002378
9.775000E-8	0.002356
9.780000E-8	0.002303
9.785000E-8	0.002288
9.790000E-8	0.002319
9.795000E-8	0.002300
9.800000E-8	0.002309
9.805000E-8	0.002353
9.810000E-8	0.002225
9.815000E-8	0.002353
9.820000E-8	0.002437
9.825000E-8	0.002444
9.830000E-8	0.002391
9.835000E-8	0.002359
9.840000E-8	0.002188
9.845000E-8	0.002147
9.850000E-8	0.002138
9.855000E-8	0.002169
9.860000E-8	0.002150
9.865000E-8	0.002084
9.870000E-8	0.002025
9.875000E-8	0.002044
9.880000E-8	0.002141
9.885000E-8	0.002209
9.890000E-8	0.002241
9.895000E-8	0.002334
9.900000E-8	0.002447
9.905000E-8	0.002453
9.910000E-8	0.002434
9.915000E-8	0.002572
9.920000E-8	0.002550
9.925000E-8	0.002634
9.930000E-8	0.002625
9.935000E-8	0.002528
9.940000E-8	0.002466
9.945000E-8	0.002394
9.950000E-8	0.002409
9.955000E-8	0.002347
9.960000E-8	0.002175
9.965000E-8	0.002131
9.970000E-8	0.002131
9.975000E-8	0.002063
9.980000E-8	0.002122
9.985000E-8	0.002197
9.990000E-8	0.002200
9.995000E-8	0.002309
