LabVIEW Measurement	
Writer_Version	2
Reader_Version	2
Separator	Tab
Decimal_Separator	.
Multi_Headings	No
X_Columns	Multi
Time_Pref	Relative
Operator	TG lab
Date	2015/03/06
Time	17:53:58.3850774765014648437
***End_of_Header***	
	
Channels	1	
Samples	2000	
Date	1903/12/31	
Time	19:00:00	
X_Dimension	Time	
X0	0.0000000000000000E+0	
Delta_X	5.000000E-11	
***End_of_Header***		
X_Value	Untitled	Comment
0.000000	0.002347
5.000000E-11	0.002284
1.000000E-10	0.002153
1.500000E-10	0.002044
2.000000E-10	0.002038
2.500000E-10	0.002131
3.000000E-10	0.002031
3.500000E-10	0.002172
4.000000E-10	0.002216
4.500000E-10	0.002369
5.000000E-10	0.002259
5.500000E-10	0.002341
6.000000E-10	0.002428
6.500000E-10	0.002469
7.000000E-10	0.002484
7.500000E-10	0.002466
8.000000E-10	0.002403
8.500000E-10	0.002441
9.000000E-10	0.002400
9.500000E-10	0.002363
1.000000E-9	0.002331
1.050000E-9	0.002497
1.100000E-9	0.002419
1.150000E-9	0.002450
1.200000E-9	0.002541
1.250000E-9	0.002563
1.300000E-9	0.002628
1.350000E-9	0.002697
1.400000E-9	0.002919
1.450000E-9	0.003050
1.500000E-9	0.002981
1.550000E-9	0.003003
1.600000E-9	0.002975
1.650000E-9	0.002969
1.700000E-9	0.003012
1.750000E-9	0.002925
1.800000E-9	0.002925
1.850000E-9	0.002978
1.900000E-9	0.002897
1.950000E-9	0.002981
2.000000E-9	0.002931
2.050000E-9	0.002975
2.100000E-9	0.003012
2.150000E-9	0.003025
2.200000E-9	0.003034
2.250000E-9	0.003081
2.300000E-9	0.002981
2.350000E-9	0.003041
2.400000E-9	0.003047
2.450000E-9	0.002978
2.500000E-9	0.002963
2.550000E-9	0.003075
2.600000E-9	0.003019
2.650000E-9	0.003119
2.700000E-9	0.003125
2.750000E-9	0.003200
2.800000E-9	0.003216
2.850000E-9	0.003288
2.900000E-9	0.003203
2.950000E-9	0.003263
3.000000E-9	0.003166
3.050000E-9	0.003272
3.100000E-9	0.003266
3.150000E-9	0.003422
3.200000E-9	0.003425
3.250000E-9	0.003475
3.300000E-9	0.003613
3.350000E-9	0.003731
3.400000E-9	0.003781
3.450000E-9	0.003944
3.500000E-9	0.003869
3.550000E-9	0.003959
3.600000E-9	0.003881
3.650000E-9	0.003888
3.700000E-9	0.003878
3.750000E-9	0.003959
3.800000E-9	0.004003
3.850000E-9	0.004053
3.900000E-9	0.004156
3.950000E-9	0.004372
4.000000E-9	0.004525
4.050000E-9	0.005044
4.100000E-9	0.005288
4.150000E-9	0.005613
4.200000E-9	0.006013
4.250000E-9	0.006506
4.300000E-9	0.007053
4.350000E-9	0.007738
4.400000E-9	0.008606
4.450000E-9	0.009603
4.500000E-9	0.010628
4.550000E-9	0.011991
4.600000E-9	0.013334
4.650000E-9	0.014850
4.700000E-9	0.016359
4.750000E-9	0.018006
4.800000E-9	0.019434
4.850000E-9	0.021197
4.900000E-9	0.022834
4.950000E-9	0.024569
5.000000E-9	0.026347
5.050000E-9	0.028347
5.100000E-9	0.030306
5.150000E-9	0.032225
5.200000E-9	0.034284
5.250000E-9	0.036359
5.300000E-9	0.038444
5.350000E-9	0.040244
5.400000E-9	0.041928
5.450000E-9	0.043412
5.500000E-9	0.044609
5.550000E-9	0.045475
5.600000E-9	0.045778
5.650000E-9	0.045988
5.700000E-9	0.045506
5.750000E-9	0.044753
5.800000E-9	0.043559
5.850000E-9	0.041834
5.900000E-9	0.039703
5.950000E-9	0.037406
6.000000E-9	0.034906
6.050000E-9	0.032478
6.100000E-9	0.030138
6.150000E-9	0.028153
6.200000E-9	0.026366
6.250000E-9	0.025138
6.300000E-9	0.024594
6.350000E-9	0.024325
6.400000E-9	0.024403
6.450000E-9	0.024872
6.500000E-9	0.025541
6.550000E-9	0.026337
6.600000E-9	0.027250
6.650000E-9	0.028081
6.700000E-9	0.028944
6.750000E-9	0.029650
6.800000E-9	0.030200
6.850000E-9	0.030563
6.900000E-9	0.030706
6.950000E-9	0.030569
7.000000E-9	0.030088
7.050000E-9	0.029350
7.100000E-9	0.028441
7.150000E-9	0.027216
7.200000E-9	0.025737
7.250000E-9	0.024250
7.300000E-9	0.022516
7.350000E-9	0.020822
7.400000E-9	0.019412
7.450000E-9	0.018106
7.500000E-9	0.016997
7.550000E-9	0.016153
7.600000E-9	0.015575
7.650000E-9	0.015344
7.700000E-9	0.015513
7.750000E-9	0.015825
7.800000E-9	0.016372
7.850000E-9	0.017006
7.900000E-9	0.017825
7.950000E-9	0.018772
8.000000E-9	0.019697
8.050000E-9	0.020463
8.100000E-9	0.021109
8.150000E-9	0.021722
8.200000E-9	0.021953
8.250000E-9	0.022087
8.300000E-9	0.021894
8.350000E-9	0.021459
8.400000E-9	0.020709
8.450000E-9	0.019819
8.500000E-9	0.018663
8.550000E-9	0.017544
8.600000E-9	0.016303
8.650000E-9	0.014969
8.700000E-9	0.013706
8.750000E-9	0.012634
8.800000E-9	0.011525
8.850000E-9	0.010806
8.900000E-9	0.010191
8.950000E-9	0.009800
9.000000E-9	0.009691
9.050000E-9	0.009959
9.100000E-9	0.010287
9.150000E-9	0.010875
9.200000E-9	0.011747
9.250000E-9	0.012544
9.300000E-9	0.013250
9.350000E-9	0.014188
9.400000E-9	0.014903
9.450000E-9	0.015422
9.500000E-9	0.015781
9.550000E-9	0.016075
9.600000E-9	0.015822
9.650000E-9	0.015644
9.700000E-9	0.015216
9.750000E-9	0.014769
9.800000E-9	0.014097
9.850000E-9	0.013181
9.900000E-9	0.012259
9.950000E-9	0.011253
1.000000E-8	0.010206
1.005000E-8	0.009231
1.010000E-8	0.008231
1.015000E-8	0.007397
1.020000E-8	0.006731
1.025000E-8	0.006309
1.030000E-8	0.006213
1.035000E-8	0.006272
1.040000E-8	0.006525
1.045000E-8	0.006994
1.050000E-8	0.007584
1.055000E-8	0.008497
1.060000E-8	0.009325
1.065000E-8	0.010219
1.070000E-8	0.010878
1.075000E-8	0.011591
1.080000E-8	0.012219
1.085000E-8	0.012644
1.090000E-8	0.012909
1.095000E-8	0.012978
1.100000E-8	0.012844
1.105000E-8	0.012478
1.110000E-8	0.011953
1.115000E-8	0.011166
1.120000E-8	0.010366
1.125000E-8	0.009356
1.130000E-8	0.008391
1.135000E-8	0.007516
1.140000E-8	0.006494
1.145000E-8	0.005647
1.150000E-8	0.004922
1.155000E-8	0.004441
1.160000E-8	0.004003
1.165000E-8	0.003825
1.170000E-8	0.004078
1.175000E-8	0.004450
1.180000E-8	0.004888
1.185000E-8	0.005559
1.190000E-8	0.006394
1.195000E-8	0.007338
1.200000E-8	0.008213
1.205000E-8	0.008997
1.210000E-8	0.009625
1.215000E-8	0.010197
1.220000E-8	0.010441
1.225000E-8	0.010603
1.230000E-8	0.010506
1.235000E-8	0.010287
1.240000E-8	0.009772
1.245000E-8	0.009231
1.250000E-8	0.008425
1.255000E-8	0.007522
1.260000E-8	0.006631
1.265000E-8	0.005703
1.270000E-8	0.004722
1.275000E-8	0.003900
1.280000E-8	0.003038
1.285000E-8	0.002628
1.290000E-8	0.002225
1.295000E-8	0.002131
1.300000E-8	0.002259
1.305000E-8	0.002616
1.310000E-8	0.003169
1.315000E-8	0.004069
1.320000E-8	0.004888
1.325000E-8	0.005753
1.330000E-8	0.006891
1.335000E-8	0.007903
1.340000E-8	0.008734
1.345000E-8	0.009503
1.350000E-8	0.009897
1.355000E-8	0.010300
1.360000E-8	0.010250
1.365000E-8	0.010144
1.370000E-8	0.009597
1.375000E-8	0.008875
1.380000E-8	0.008128
1.385000E-8	0.007200
1.390000E-8	0.006112
1.395000E-8	0.005116
1.400000E-8	0.003966
1.405000E-8	0.003084
1.410000E-8	0.002303
1.415000E-8	0.001816
1.420000E-8	0.001244
1.425000E-8	0.001116
1.430000E-8	0.001247
1.435000E-8	0.001525
1.440000E-8	0.001950
1.445000E-8	0.002609
1.450000E-8	0.003288
1.455000E-8	0.004034
1.460000E-8	0.004962
1.465000E-8	0.005812
1.470000E-8	0.006556
1.475000E-8	0.007328
1.480000E-8	0.007847
1.485000E-8	0.008159
1.490000E-8	0.008309
1.495000E-8	0.008272
1.500000E-8	0.007869
1.505000E-8	0.007284
1.510000E-8	0.006528
1.515000E-8	0.005753
1.520000E-8	0.004659
1.525000E-8	0.003725
1.530000E-8	0.002616
1.535000E-8	0.001678
1.540000E-8	0.000931
1.545000E-8	0.000356
1.550000E-8	-0.000163
1.555000E-8	-0.000372
1.560000E-8	-0.000213
1.565000E-8	0.000184
1.570000E-8	0.000725
1.575000E-8	0.001459
1.580000E-8	0.002409
1.585000E-8	0.003466
1.590000E-8	0.004459
1.595000E-8	0.005559
1.600000E-8	0.006469
1.605000E-8	0.007275
1.610000E-8	0.007819
1.615000E-8	0.008159
1.620000E-8	0.008203
1.625000E-8	0.008059
1.630000E-8	0.007506
1.635000E-8	0.006981
1.640000E-8	0.006116
1.645000E-8	0.005263
1.650000E-8	0.004197
1.655000E-8	0.003238
1.660000E-8	0.002178
1.665000E-8	0.001350
1.670000E-8	0.000438
1.675000E-8	-0.000147
1.680000E-8	-0.000634
1.685000E-8	-0.000713
1.690000E-8	-0.000734
1.695000E-8	-0.000416
1.700000E-8	0.000134
1.705000E-8	0.000788
1.710000E-8	0.001687
1.715000E-8	0.002656
1.720000E-8	0.003597
1.725000E-8	0.004638
1.730000E-8	0.005566
1.735000E-8	0.006391
1.740000E-8	0.007072
1.745000E-8	0.007413
1.750000E-8	0.007506
1.755000E-8	0.007338
1.760000E-8	0.006984
1.765000E-8	0.006384
1.770000E-8	0.005719
1.775000E-8	0.004728
1.780000E-8	0.003656
1.785000E-8	0.002697
1.790000E-8	0.001656
1.795000E-8	0.000747
1.800000E-8	-8.750000E-5
1.805000E-8	-0.000553
1.810000E-8	-0.001078
1.815000E-8	-0.001181
1.820000E-8	-0.000991
1.825000E-8	-0.000694
1.830000E-8	-0.000172
1.835000E-8	0.000572
1.840000E-8	0.001309
1.845000E-8	0.002322
1.850000E-8	0.003334
1.855000E-8	0.004216
1.860000E-8	0.005016
1.865000E-8	0.005766
1.870000E-8	0.006256
1.875000E-8	0.006713
1.880000E-8	0.006784
1.885000E-8	0.006694
1.890000E-8	0.006403
1.895000E-8	0.006044
1.900000E-8	0.005419
1.905000E-8	0.004734
1.910000E-8	0.003863
1.915000E-8	0.003059
1.920000E-8	0.002219
1.925000E-8	0.001369
1.930000E-8	0.000672
1.935000E-8	3.125000E-6
1.940000E-8	-0.000356
1.945000E-8	-0.000556
1.950000E-8	-0.000594
1.955000E-8	-0.000331
1.960000E-8	8.437500E-5
1.965000E-8	0.000541
1.970000E-8	0.001172
1.975000E-8	0.002091
1.980000E-8	0.002853
1.985000E-8	0.003641
1.990000E-8	0.004387
1.995000E-8	0.005072
2.000000E-8	0.005597
2.005000E-8	0.005959
2.010000E-8	0.006188
2.015000E-8	0.006294
2.020000E-8	0.006066
2.025000E-8	0.005759
2.030000E-8	0.005231
2.035000E-8	0.004506
2.040000E-8	0.003684
2.045000E-8	0.002797
2.050000E-8	0.001966
2.055000E-8	0.001187
2.060000E-8	0.000425
2.065000E-8	-9.375000E-5
2.070000E-8	-0.000609
2.075000E-8	-0.000850
2.080000E-8	-0.001031
2.085000E-8	-0.000744
2.090000E-8	-0.000441
2.095000E-8	0.000103
2.100000E-8	0.000691
2.105000E-8	0.001516
2.110000E-8	0.002241
2.115000E-8	0.003119
2.120000E-8	0.004013
2.125000E-8	0.004797
2.130000E-8	0.005316
2.135000E-8	0.005809
2.140000E-8	0.006016
2.145000E-8	0.006125
2.150000E-8	0.005731
2.155000E-8	0.005316
2.160000E-8	0.004756
2.165000E-8	0.004200
2.170000E-8	0.003422
2.175000E-8	0.002656
2.180000E-8	0.001884
2.185000E-8	0.001103
2.190000E-8	0.000497
2.195000E-8	-6.250000E-6
2.200000E-8	-0.000484
2.205000E-8	-0.000672
2.210000E-8	-0.000838
2.215000E-8	-0.000737
2.220000E-8	-0.000534
2.225000E-8	-6.875000E-5
2.230000E-8	0.000325
2.235000E-8	0.000984
2.240000E-8	0.001669
2.245000E-8	0.002469
2.250000E-8	0.003075
2.255000E-8	0.003966
2.260000E-8	0.004666
2.265000E-8	0.005241
2.270000E-8	0.005591
2.275000E-8	0.005884
2.280000E-8	0.005775
2.285000E-8	0.005600
2.290000E-8	0.005194
2.295000E-8	0.004700
2.300000E-8	0.004034
2.305000E-8	0.003141
2.310000E-8	0.002288
2.315000E-8	0.001547
2.320000E-8	0.000659
2.325000E-8	8.750000E-5
2.330000E-8	-0.000531
2.335000E-8	-0.000866
2.340000E-8	-0.001134
2.345000E-8	-0.001084
2.350000E-8	-0.000841
2.355000E-8	-0.000300
2.360000E-8	0.000281
2.365000E-8	0.000922
2.370000E-8	0.001678
2.375000E-8	0.002556
2.380000E-8	0.003300
2.385000E-8	0.004050
2.390000E-8	0.004662
2.395000E-8	0.005125
2.400000E-8	0.005391
2.405000E-8	0.005656
2.410000E-8	0.005578
2.415000E-8	0.005334
2.420000E-8	0.004959
2.425000E-8	0.004416
2.430000E-8	0.003750
2.435000E-8	0.003078
2.440000E-8	0.002119
2.445000E-8	0.001422
2.450000E-8	0.000672
2.455000E-8	0.000125
2.460000E-8	-0.000497
2.465000E-8	-0.000906
2.470000E-8	-0.001122
2.475000E-8	-0.001041
2.480000E-8	-0.000950
2.485000E-8	-0.000500
2.490000E-8	-3.437500E-5
2.495000E-8	0.000616
2.500000E-8	0.001400
2.505000E-8	0.002181
2.510000E-8	0.003091
2.515000E-8	0.003881
2.520000E-8	0.004591
2.525000E-8	0.005144
2.530000E-8	0.005506
2.535000E-8	0.005812
2.540000E-8	0.005819
2.545000E-8	0.005728
2.550000E-8	0.005303
2.555000E-8	0.004816
2.560000E-8	0.004069
2.565000E-8	0.003309
2.570000E-8	0.002431
2.575000E-8	0.001650
2.580000E-8	0.000897
2.585000E-8	0.000134
2.590000E-8	-0.000569
2.595000E-8	-0.000969
2.600000E-8	-0.001259
2.605000E-8	-0.001313
2.610000E-8	-0.001269
2.615000E-8	-0.000684
2.620000E-8	-0.000219
2.625000E-8	0.000519
2.630000E-8	0.001294
2.635000E-8	0.002094
2.640000E-8	0.003003
2.645000E-8	0.003966
2.650000E-8	0.004631
2.655000E-8	0.005191
2.660000E-8	0.005647
2.665000E-8	0.005913
2.670000E-8	0.005869
2.675000E-8	0.005750
2.680000E-8	0.005194
2.685000E-8	0.004531
2.690000E-8	0.003831
2.695000E-8	0.003106
2.700000E-8	0.002263
2.705000E-8	0.001356
2.710000E-8	0.000553
2.715000E-8	-4.062500E-5
2.720000E-8	-0.000678
2.725000E-8	-0.000972
2.730000E-8	-0.001012
2.735000E-8	-0.000975
2.740000E-8	-0.000894
2.745000E-8	-0.000428
2.750000E-8	1.250000E-5
2.755000E-8	0.000700
2.760000E-8	0.001447
2.765000E-8	0.002228
2.770000E-8	0.003050
2.775000E-8	0.003716
2.780000E-8	0.004353
2.785000E-8	0.004922
2.790000E-8	0.005300
2.795000E-8	0.005509
2.800000E-8	0.005491
2.805000E-8	0.005259
2.810000E-8	0.004966
2.815000E-8	0.004381
2.820000E-8	0.003769
2.825000E-8	0.002988
2.830000E-8	0.002231
2.835000E-8	0.001531
2.840000E-8	0.000819
2.845000E-8	0.000206
2.850000E-8	-0.000347
2.855000E-8	-0.000666
2.860000E-8	-0.000788
2.865000E-8	-0.000694
2.870000E-8	-0.000575
2.875000E-8	-0.000253
2.880000E-8	0.000103
2.885000E-8	0.000897
2.890000E-8	0.001362
2.895000E-8	0.002169
2.900000E-8	0.002825
2.905000E-8	0.003581
2.910000E-8	0.004131
2.915000E-8	0.004747
2.920000E-8	0.005181
2.925000E-8	0.005234
2.930000E-8	0.005203
2.935000E-8	0.005150
2.940000E-8	0.004816
2.945000E-8	0.004316
2.950000E-8	0.003763
2.955000E-8	0.003094
2.960000E-8	0.002481
2.965000E-8	0.001859
2.970000E-8	0.001253
2.975000E-8	0.000672
2.980000E-8	0.000181
2.985000E-8	-0.000156
2.990000E-8	-0.000522
2.995000E-8	-0.000563
3.000000E-8	-0.000569
3.005000E-8	-0.000513
3.010000E-8	-0.000219
3.015000E-8	0.000225
3.020000E-8	0.000703
3.025000E-8	0.001303
3.030000E-8	0.001959
3.035000E-8	0.002606
3.040000E-8	0.003125
3.045000E-8	0.003797
3.050000E-8	0.004159
3.055000E-8	0.004541
3.060000E-8	0.004681
3.065000E-8	0.004772
3.070000E-8	0.004453
3.075000E-8	0.004191
3.080000E-8	0.003622
3.085000E-8	0.003084
3.090000E-8	0.002353
3.095000E-8	0.001747
3.100000E-8	0.001028
3.105000E-8	0.000484
3.110000E-8	0.000100
3.115000E-8	-0.000200
3.120000E-8	-0.000353
3.125000E-8	-0.000375
3.130000E-8	-0.000375
3.135000E-8	-9.687500E-5
3.140000E-8	0.000191
3.145000E-8	0.000794
3.150000E-8	0.001175
3.155000E-8	0.001903
3.160000E-8	0.002622
3.165000E-8	0.003256
3.170000E-8	0.003756
3.175000E-8	0.004200
3.180000E-8	0.004406
3.185000E-8	0.004713
3.190000E-8	0.004716
3.195000E-8	0.004606
3.200000E-8	0.004419
3.205000E-8	0.004106
3.210000E-8	0.003694
3.215000E-8	0.003397
3.220000E-8	0.002841
3.225000E-8	0.002456
3.230000E-8	0.001878
3.235000E-8	0.001397
3.240000E-8	0.001053
3.245000E-8	0.000737
3.250000E-8	0.000259
3.255000E-8	0.000119
3.260000E-8	-9.062500E-5
3.265000E-8	-0.000109
3.270000E-8	3.125000E-5
3.275000E-8	0.000338
3.280000E-8	0.000716
3.285000E-8	0.001269
3.290000E-8	0.001806
3.295000E-8	0.002613
3.300000E-8	0.003200
3.305000E-8	0.003756
3.310000E-8	0.004262
3.315000E-8	0.004725
3.320000E-8	0.004950
3.325000E-8	0.005053
3.330000E-8	0.004828
3.335000E-8	0.004659
3.340000E-8	0.004131
3.345000E-8	0.003603
3.350000E-8	0.002978
3.355000E-8	0.002316
3.360000E-8	0.001616
3.365000E-8	0.000922
3.370000E-8	0.000334
3.375000E-8	-2.500000E-5
3.380000E-8	-0.000384
3.385000E-8	-0.000463
3.390000E-8	-0.000409
3.395000E-8	-0.000313
3.400000E-8	-5.937500E-5
3.405000E-8	0.000406
3.410000E-8	0.000834
3.415000E-8	0.001381
3.420000E-8	0.002034
3.425000E-8	0.002528
3.430000E-8	0.002969
3.435000E-8	0.003372
3.440000E-8	0.003884
3.445000E-8	0.004341
3.450000E-8	0.004516
3.455000E-8	0.004634
3.460000E-8	0.004563
3.465000E-8	0.004322
3.470000E-8	0.004019
3.475000E-8	0.003634
3.480000E-8	0.003050
3.485000E-8	0.002534
3.490000E-8	0.001891
3.495000E-8	0.001362
3.500000E-8	0.000778
3.505000E-8	0.000275
3.510000E-8	-0.000163
3.515000E-8	-0.000394
3.520000E-8	-0.000531
3.525000E-8	-0.000478
3.530000E-8	-0.000319
3.535000E-8	4.062500E-5
3.540000E-8	0.000388
3.545000E-8	0.001066
3.550000E-8	0.001447
3.555000E-8	0.002103
3.560000E-8	0.002625
3.565000E-8	0.003331
3.570000E-8	0.003663
3.575000E-8	0.004063
3.580000E-8	0.004375
3.585000E-8	0.004456
3.590000E-8	0.004503
3.595000E-8	0.004363
3.600000E-8	0.004006
3.605000E-8	0.003603
3.610000E-8	0.003028
3.615000E-8	0.002372
3.620000E-8	0.001741
3.625000E-8	0.001084
3.630000E-8	0.000556
3.635000E-8	0.000150
3.640000E-8	-0.000284
3.645000E-8	-0.000428
3.650000E-8	-0.000484
3.655000E-8	-0.000316
3.660000E-8	-0.000175
3.665000E-8	0.000256
3.670000E-8	0.000603
3.675000E-8	0.001288
3.680000E-8	0.001881
3.685000E-8	0.002516
3.690000E-8	0.003069
3.695000E-8	0.003744
3.700000E-8	0.004166
3.705000E-8	0.004459
3.710000E-8	0.004672
3.715000E-8	0.004738
3.720000E-8	0.004628
3.725000E-8	0.004569
3.730000E-8	0.004188
3.735000E-8	0.003769
3.740000E-8	0.003244
3.745000E-8	0.002809
3.750000E-8	0.002116
3.755000E-8	0.001563
3.760000E-8	0.000988
3.765000E-8	0.000581
3.770000E-8	0.000178
3.775000E-8	-5.937500E-5
3.780000E-8	-0.000188
3.785000E-8	-8.750000E-5
3.790000E-8	0.000125
3.795000E-8	0.000403
3.800000E-8	0.000800
3.805000E-8	0.001388
3.810000E-8	0.001984
3.815000E-8	0.002750
3.820000E-8	0.003272
3.825000E-8	0.003756
3.830000E-8	0.004112
3.835000E-8	0.004397
3.840000E-8	0.004525
3.845000E-8	0.004563
3.850000E-8	0.004422
3.855000E-8	0.004266
3.860000E-8	0.003931
3.865000E-8	0.003500
3.870000E-8	0.003159
3.875000E-8	0.002684
3.880000E-8	0.002106
3.885000E-8	0.001650
3.890000E-8	0.001125
3.895000E-8	0.000737
3.900000E-8	0.000237
3.905000E-8	-0.000109
3.910000E-8	-0.000269
3.915000E-8	-0.000234
3.920000E-8	-0.000113
3.925000E-8	0.000225
3.930000E-8	0.000522
3.935000E-8	0.001044
3.940000E-8	0.001594
3.945000E-8	0.002156
3.950000E-8	0.002691
3.955000E-8	0.003203
3.960000E-8	0.003541
3.965000E-8	0.003794
3.970000E-8	0.003906
3.975000E-8	0.004044
3.980000E-8	0.004034
3.985000E-8	0.003881
3.990000E-8	0.003638
3.995000E-8	0.003384
4.000000E-8	0.003044
4.005000E-8	0.002716
4.010000E-8	0.002206
4.015000E-8	0.001778
4.020000E-8	0.001353
4.025000E-8	0.000781
4.030000E-8	0.000356
4.035000E-8	9.375000E-5
4.040000E-8	-5.000000E-5
4.045000E-8	-0.000131
4.050000E-8	-3.750000E-5
4.055000E-8	0.000287
4.060000E-8	0.000581
4.065000E-8	0.001097
4.070000E-8	0.001469
4.075000E-8	0.002044
4.080000E-8	0.002559
4.085000E-8	0.003063
4.090000E-8	0.003453
4.095000E-8	0.003909
4.100000E-8	0.004169
4.105000E-8	0.004200
4.110000E-8	0.004178
4.115000E-8	0.004138
4.120000E-8	0.003891
4.125000E-8	0.003744
4.130000E-8	0.003375
4.135000E-8	0.002897
4.140000E-8	0.002431
4.145000E-8	0.001984
4.150000E-8	0.001484
4.155000E-8	0.001106
4.160000E-8	0.000634
4.165000E-8	0.000388
4.170000E-8	0.000203
4.175000E-8	0.000116
4.180000E-8	5.000000E-5
4.185000E-8	0.000200
4.190000E-8	0.000531
4.195000E-8	0.000816
4.200000E-8	0.001269
4.205000E-8	0.001831
4.210000E-8	0.002147
4.215000E-8	0.002547
4.220000E-8	0.002975
4.225000E-8	0.003391
4.230000E-8	0.003559
4.235000E-8	0.003697
4.240000E-8	0.003706
4.245000E-8	0.003781
4.250000E-8	0.003538
4.255000E-8	0.003259
4.260000E-8	0.002922
4.265000E-8	0.002594
4.270000E-8	0.002200
4.275000E-8	0.001756
4.280000E-8	0.001344
4.285000E-8	0.000925
4.290000E-8	0.000497
4.295000E-8	0.000231
4.300000E-8	2.812500E-5
4.305000E-8	-4.687500E-5
4.310000E-8	-2.812500E-5
4.315000E-8	7.500000E-5
4.320000E-8	0.000241
4.325000E-8	0.000653
4.330000E-8	0.001044
4.335000E-8	0.001488
4.340000E-8	0.001928
4.345000E-8	0.002444
4.350000E-8	0.002875
4.355000E-8	0.003322
4.360000E-8	0.003656
4.365000E-8	0.003884
4.370000E-8	0.003959
4.375000E-8	0.004031
4.380000E-8	0.003869
4.385000E-8	0.003722
4.390000E-8	0.003481
4.395000E-8	0.002972
4.400000E-8	0.002578
4.405000E-8	0.002131
4.410000E-8	0.001534
4.415000E-8	0.001259
4.420000E-8	0.000944
4.425000E-8	0.000703
4.430000E-8	0.000491
4.435000E-8	0.000497
4.440000E-8	0.000441
4.445000E-8	0.000556
4.450000E-8	0.000641
4.455000E-8	0.000953
4.460000E-8	0.001263
4.465000E-8	0.001634
4.470000E-8	0.002019
4.475000E-8	0.002422
4.480000E-8	0.002706
4.485000E-8	0.003122
4.490000E-8	0.003366
4.495000E-8	0.003625
4.500000E-8	0.003847
4.505000E-8	0.003756
4.510000E-8	0.003650
4.515000E-8	0.003553
4.520000E-8	0.003378
4.525000E-8	0.003028
4.530000E-8	0.002575
4.535000E-8	0.002209
4.540000E-8	0.001700
4.545000E-8	0.001353
4.550000E-8	0.001019
4.555000E-8	0.000678
4.560000E-8	0.000381
4.565000E-8	0.000244
4.570000E-8	0.000225
4.575000E-8	0.000313
4.580000E-8	0.000347
4.585000E-8	0.000722
4.590000E-8	0.001000
4.595000E-8	0.001369
4.600000E-8	0.001919
4.605000E-8	0.002431
4.610000E-8	0.002872
4.615000E-8	0.003259
4.620000E-8	0.003509
4.625000E-8	0.003888
4.630000E-8	0.003928
4.635000E-8	0.004081
4.640000E-8	0.003962
4.645000E-8	0.003753
4.650000E-8	0.003422
4.655000E-8	0.003034
4.660000E-8	0.002534
4.665000E-8	0.002144
4.670000E-8	0.001744
4.675000E-8	0.001378
4.680000E-8	0.001016
4.685000E-8	0.000744
4.690000E-8	0.000438
4.695000E-8	0.000528
4.700000E-8	0.000509
4.705000E-8	0.000556
4.710000E-8	0.000763
4.715000E-8	0.000984
4.720000E-8	0.001313
4.725000E-8	0.001834
4.730000E-8	0.002188
4.735000E-8	0.002650
4.740000E-8	0.002997
4.745000E-8	0.003459
4.750000E-8	0.003528
4.755000E-8	0.003734
4.760000E-8	0.003756
4.765000E-8	0.003591
4.770000E-8	0.003450
4.775000E-8	0.003191
4.780000E-8	0.002825
4.785000E-8	0.002494
4.790000E-8	0.001944
4.795000E-8	0.001619
4.800000E-8	0.001053
4.805000E-8	0.000759
4.810000E-8	0.000525
4.815000E-8	0.000256
4.820000E-8	0.000191
4.825000E-8	0.000209
4.830000E-8	0.000237
4.835000E-8	0.000397
4.840000E-8	0.000588
4.845000E-8	0.000897
4.850000E-8	0.001166
4.855000E-8	0.001641
4.860000E-8	0.001891
4.865000E-8	0.002266
4.870000E-8	0.002541
4.875000E-8	0.002913
4.880000E-8	0.003109
4.885000E-8	0.003325
4.890000E-8	0.003456
4.895000E-8	0.003491
4.900000E-8	0.003403
4.905000E-8	0.003397
4.910000E-8	0.003109
4.915000E-8	0.002916
4.920000E-8	0.002616
4.925000E-8	0.002297
4.930000E-8	0.001909
4.935000E-8	0.001716
4.940000E-8	0.001366
4.945000E-8	0.001119
4.950000E-8	0.000925
4.955000E-8	0.000916
4.960000E-8	0.000809
4.965000E-8	0.000806
4.970000E-8	0.000928
4.975000E-8	0.001116
4.980000E-8	0.001356
4.985000E-8	0.001728
4.990000E-8	0.001981
4.995000E-8	0.002344
5.000000E-8	0.002606
5.005000E-8	0.003025
5.010000E-8	0.003241
5.015000E-8	0.003534
5.020000E-8	0.003616
5.025000E-8	0.003638
5.030000E-8	0.003600
5.035000E-8	0.003503
5.040000E-8	0.003194
5.045000E-8	0.002931
5.050000E-8	0.002650
5.055000E-8	0.002309
5.060000E-8	0.001913
5.065000E-8	0.001653
5.070000E-8	0.001263
5.075000E-8	0.000978
5.080000E-8	0.000925
5.085000E-8	0.000825
5.090000E-8	0.000653
5.095000E-8	0.000666
5.100000E-8	0.000628
5.105000E-8	0.000756
5.110000E-8	0.000906
5.115000E-8	0.001313
5.120000E-8	0.001534
5.125000E-8	0.002072
5.130000E-8	0.002375
5.135000E-8	0.002834
5.140000E-8	0.003191
5.145000E-8	0.003528
5.150000E-8	0.003691
5.155000E-8	0.003881
5.160000E-8	0.003875
5.165000E-8	0.003941
5.170000E-8	0.003675
5.175000E-8	0.003525
5.180000E-8	0.003034
5.185000E-8	0.002634
5.190000E-8	0.002128
5.195000E-8	0.001725
5.200000E-8	0.001359
5.205000E-8	0.001191
5.210000E-8	0.001022
5.215000E-8	0.000884
5.220000E-8	0.000847
5.225000E-8	0.000884
5.230000E-8	0.001056
5.235000E-8	0.001278
5.240000E-8	0.001350
5.245000E-8	0.001534
5.250000E-8	0.001797
5.255000E-8	0.002034
5.260000E-8	0.002375
5.265000E-8	0.002572
5.270000E-8	0.002700
5.275000E-8	0.002988
5.280000E-8	0.003091
5.285000E-8	0.003300
5.290000E-8	0.003256
5.295000E-8	0.003447
5.300000E-8	0.003253
5.305000E-8	0.002994
5.310000E-8	0.002788
5.315000E-8	0.002491
5.320000E-8	0.002156
5.325000E-8	0.001869
5.330000E-8	0.001478
5.335000E-8	0.001216
5.340000E-8	0.001122
5.345000E-8	0.001041
5.350000E-8	0.000881
5.355000E-8	0.000925
5.360000E-8	0.000884
5.365000E-8	0.001138
5.370000E-8	0.001241
5.375000E-8	0.001481
5.380000E-8	0.001838
5.385000E-8	0.002178
5.390000E-8	0.002375
5.395000E-8	0.002816
5.400000E-8	0.002934
5.405000E-8	0.003175
5.410000E-8	0.003300
5.415000E-8	0.003441
5.420000E-8	0.003453
5.425000E-8	0.003328
5.430000E-8	0.003191
5.435000E-8	0.003019
5.440000E-8	0.002747
5.445000E-8	0.002578
5.450000E-8	0.002219
5.455000E-8	0.001937
5.460000E-8	0.001584
5.465000E-8	0.001306
5.470000E-8	0.000978
5.475000E-8	0.000772
5.480000E-8	0.000675
5.485000E-8	0.000550
5.490000E-8	0.000559
5.495000E-8	0.000681
5.500000E-8	0.000803
5.505000E-8	0.001219
5.510000E-8	0.001513
5.515000E-8	0.001934
5.520000E-8	0.002247
5.525000E-8	0.002631
5.530000E-8	0.003025
5.535000E-8	0.003216
5.540000E-8	0.003369
5.545000E-8	0.003581
5.550000E-8	0.003538
5.555000E-8	0.003563
5.560000E-8	0.003503
5.565000E-8	0.003325
5.570000E-8	0.003022
5.575000E-8	0.002725
5.580000E-8	0.002384
5.585000E-8	0.002069
5.590000E-8	0.001744
5.595000E-8	0.001606
5.600000E-8	0.001138
5.605000E-8	0.000959
5.610000E-8	0.000816
5.615000E-8	0.000722
5.620000E-8	0.000697
5.625000E-8	0.000756
5.630000E-8	0.000909
5.635000E-8	0.001034
5.640000E-8	0.001247
5.645000E-8	0.001519
5.650000E-8	0.001806
5.655000E-8	0.002119
5.660000E-8	0.002425
5.665000E-8	0.002769
5.670000E-8	0.003003
5.675000E-8	0.003238
5.680000E-8	0.003203
5.685000E-8	0.003250
5.690000E-8	0.003188
5.695000E-8	0.003006
5.700000E-8	0.002809
5.705000E-8	0.002634
5.710000E-8	0.002269
5.715000E-8	0.002081
5.720000E-8	0.001784
5.725000E-8	0.001634
5.730000E-8	0.001394
5.735000E-8	0.001281
5.740000E-8	0.001187
5.745000E-8	0.001247
5.750000E-8	0.001225
5.755000E-8	0.001366
5.760000E-8	0.001397
5.765000E-8	0.001619
5.770000E-8	0.001797
5.775000E-8	0.002103
5.780000E-8	0.002288
5.785000E-8	0.002606
5.790000E-8	0.002737
5.795000E-8	0.002966
5.800000E-8	0.003141
5.805000E-8	0.003238
5.810000E-8	0.003294
5.815000E-8	0.003350
5.820000E-8	0.003031
5.825000E-8	0.002988
5.830000E-8	0.002772
5.835000E-8	0.002541
5.840000E-8	0.002166
5.845000E-8	0.001825
5.850000E-8	0.001625
5.855000E-8	0.001481
5.860000E-8	0.001263
5.865000E-8	0.001288
5.870000E-8	0.001112
5.875000E-8	0.001156
5.880000E-8	0.001166
5.885000E-8	0.001341
5.890000E-8	0.001303
5.895000E-8	0.001528
5.900000E-8	0.001612
5.905000E-8	0.001806
5.910000E-8	0.001947
5.915000E-8	0.002237
5.920000E-8	0.002484
5.925000E-8	0.002816
5.930000E-8	0.003034
5.935000E-8	0.003216
5.940000E-8	0.003347
5.945000E-8	0.003413
5.950000E-8	0.003403
5.955000E-8	0.003375
5.960000E-8	0.003175
5.965000E-8	0.002966
5.970000E-8	0.002581
5.975000E-8	0.002338
5.980000E-8	0.002009
5.985000E-8	0.001759
5.990000E-8	0.001394
5.995000E-8	0.001228
6.000000E-8	0.001047
6.005000E-8	0.001109
6.010000E-8	0.001041
6.015000E-8	0.001356
6.020000E-8	0.001437
6.025000E-8	0.001609
6.030000E-8	0.001731
6.035000E-8	0.002041
6.040000E-8	0.002219
6.045000E-8	0.002369
6.050000E-8	0.002619
6.055000E-8	0.002831
6.060000E-8	0.002956
6.065000E-8	0.003075
6.070000E-8	0.003109
6.075000E-8	0.003153
6.080000E-8	0.003059
6.085000E-8	0.003025
6.090000E-8	0.002906
6.095000E-8	0.002731
6.100000E-8	0.002609
6.105000E-8	0.002450
6.110000E-8	0.002162
6.115000E-8	0.002019
6.120000E-8	0.001713
6.125000E-8	0.001484
6.130000E-8	0.001334
6.135000E-8	0.001209
6.140000E-8	0.001169
6.145000E-8	0.001247
6.150000E-8	0.001306
6.155000E-8	0.001453
6.160000E-8	0.001531
6.165000E-8	0.001781
6.170000E-8	0.001869
6.175000E-8	0.002294
6.180000E-8	0.002478
6.185000E-8	0.002606
6.190000E-8	0.002750
6.195000E-8	0.002928
6.200000E-8	0.002972
6.205000E-8	0.003141
6.210000E-8	0.002919
6.215000E-8	0.002863
6.220000E-8	0.002822
6.225000E-8	0.002706
6.230000E-8	0.002566
6.235000E-8	0.002397
6.240000E-8	0.002144
6.245000E-8	0.001975
6.250000E-8	0.001675
6.255000E-8	0.001525
6.260000E-8	0.001303
6.265000E-8	0.001213
6.270000E-8	0.001088
6.275000E-8	0.001038
6.280000E-8	0.001125
6.285000E-8	0.001241
6.290000E-8	0.001459
6.295000E-8	0.001816
6.300000E-8	0.002028
6.305000E-8	0.002441
6.310000E-8	0.002578
6.315000E-8	0.002894
6.320000E-8	0.003016
6.325000E-8	0.003022
6.330000E-8	0.003091
6.335000E-8	0.003022
6.340000E-8	0.002969
6.345000E-8	0.002850
6.350000E-8	0.002688
6.355000E-8	0.002522
6.360000E-8	0.002263
6.365000E-8	0.002091
6.370000E-8	0.001856
6.375000E-8	0.001659
6.380000E-8	0.001388
6.385000E-8	0.001300
6.390000E-8	0.001059
6.395000E-8	0.000988
6.400000E-8	0.000909
6.405000E-8	0.000875
6.410000E-8	0.000819
6.415000E-8	0.001019
6.420000E-8	0.001197
6.425000E-8	0.001444
6.430000E-8	0.001791
6.435000E-8	0.002125
6.440000E-8	0.002456
6.445000E-8	0.002684
6.450000E-8	0.002828
6.455000E-8	0.002825
6.460000E-8	0.002975
6.465000E-8	0.003016
6.470000E-8	0.003041
6.475000E-8	0.002938
6.480000E-8	0.002709
6.485000E-8	0.002506
6.490000E-8	0.002334
6.495000E-8	0.002025
6.500000E-8	0.001753
6.505000E-8	0.001644
6.510000E-8	0.001347
6.515000E-8	0.001275
6.520000E-8	0.001206
6.525000E-8	0.001234
6.530000E-8	0.001216
6.535000E-8	0.001306
6.540000E-8	0.001375
6.545000E-8	0.001550
6.550000E-8	0.001578
6.555000E-8	0.001687
6.560000E-8	0.001869
6.565000E-8	0.002069
6.570000E-8	0.002103
6.575000E-8	0.002325
6.580000E-8	0.002559
6.585000E-8	0.002691
6.590000E-8	0.002922
6.595000E-8	0.003147
6.600000E-8	0.003181
6.605000E-8	0.003175
6.610000E-8	0.003147
6.615000E-8	0.003141
6.620000E-8	0.002903
6.625000E-8	0.002553
6.630000E-8	0.002350
6.635000E-8	0.002087
6.640000E-8	0.001794
6.645000E-8	0.001825
6.650000E-8	0.001478
6.655000E-8	0.001381
6.660000E-8	0.001125
6.665000E-8	0.001197
6.670000E-8	0.001156
6.675000E-8	0.001350
6.680000E-8	0.001381
6.685000E-8	0.001494
6.690000E-8	0.001619
6.695000E-8	0.002012
6.700000E-8	0.002237
6.705000E-8	0.002481
6.710000E-8	0.002753
6.715000E-8	0.002978
6.720000E-8	0.003066
6.725000E-8	0.003134
6.730000E-8	0.003053
6.735000E-8	0.003028
6.740000E-8	0.002756
6.745000E-8	0.002659
6.750000E-8	0.002409
6.755000E-8	0.002122
6.760000E-8	0.001838
6.765000E-8	0.001731
6.770000E-8	0.001428
6.775000E-8	0.001284
6.780000E-8	0.001194
6.785000E-8	0.001144
6.790000E-8	0.001156
6.795000E-8	0.001231
6.800000E-8	0.001297
6.805000E-8	0.001466
6.810000E-8	0.001687
6.815000E-8	0.001844
6.820000E-8	0.002081
6.825000E-8	0.002413
6.830000E-8	0.002563
6.835000E-8	0.002788
6.840000E-8	0.002872
6.845000E-8	0.002959
6.850000E-8	0.002944
6.855000E-8	0.002975
6.860000E-8	0.002894
6.865000E-8	0.002875
6.870000E-8	0.002737
6.875000E-8	0.002662
6.880000E-8	0.002587
6.885000E-8	0.002437
6.890000E-8	0.002253
6.895000E-8	0.002175
6.900000E-8	0.002025
6.905000E-8	0.001950
6.910000E-8	0.001731
6.915000E-8	0.001741
6.920000E-8	0.001634
6.925000E-8	0.001547
6.930000E-8	0.001538
6.935000E-8	0.001694
6.940000E-8	0.001750
6.945000E-8	0.001888
6.950000E-8	0.002034
6.955000E-8	0.002006
6.960000E-8	0.002225
6.965000E-8	0.002587
6.970000E-8	0.002628
6.975000E-8	0.002769
6.980000E-8	0.002803
6.985000E-8	0.002881
6.990000E-8	0.002850
6.995000E-8	0.002875
7.000000E-8	0.002741
7.005000E-8	0.002600
7.010000E-8	0.002225
7.015000E-8	0.002231
7.020000E-8	0.002028
7.025000E-8	0.001869
7.030000E-8	0.001612
7.035000E-8	0.001653
7.040000E-8	0.001522
7.045000E-8	0.001500
7.050000E-8	0.001384
7.055000E-8	0.001541
7.060000E-8	0.001525
7.065000E-8	0.001600
7.070000E-8	0.001669
7.075000E-8	0.001772
7.080000E-8	0.001925
7.085000E-8	0.002113
7.090000E-8	0.002131
7.095000E-8	0.002281
7.100000E-8	0.002313
7.105000E-8	0.002431
7.110000E-8	0.002475
7.115000E-8	0.002650
7.120000E-8	0.002672
7.125000E-8	0.002763
7.130000E-8	0.002844
7.135000E-8	0.002919
7.140000E-8	0.002797
7.145000E-8	0.002694
7.150000E-8	0.002553
7.155000E-8	0.002325
7.160000E-8	0.002166
7.165000E-8	0.002022
7.170000E-8	0.001844
7.175000E-8	0.001738
7.180000E-8	0.001687
7.185000E-8	0.001687
7.190000E-8	0.001634
7.195000E-8	0.001631
7.200000E-8	0.001734
7.205000E-8	0.001859
7.210000E-8	0.001919
7.215000E-8	0.002075
7.220000E-8	0.002228
7.225000E-8	0.002366
7.230000E-8	0.002469
7.235000E-8	0.002744
7.240000E-8	0.002734
7.245000E-8	0.002819
7.250000E-8	0.002725
7.255000E-8	0.002766
7.260000E-8	0.002653
7.265000E-8	0.002622
7.270000E-8	0.002466
7.275000E-8	0.002375
7.280000E-8	0.002172
7.285000E-8	0.002097
7.290000E-8	0.001969
7.295000E-8	0.001909
7.300000E-8	0.001694
7.305000E-8	0.001644
7.310000E-8	0.001572
7.315000E-8	0.001491
7.320000E-8	0.001484
7.325000E-8	0.001594
7.330000E-8	0.001509
7.335000E-8	0.001581
7.340000E-8	0.001722
7.345000E-8	0.001928
7.350000E-8	0.002081
7.355000E-8	0.002275
7.360000E-8	0.002459
7.365000E-8	0.002666
7.370000E-8	0.002844
7.375000E-8	0.002881
7.380000E-8	0.002869
7.385000E-8	0.002784
7.390000E-8	0.002678
7.395000E-8	0.002594
7.400000E-8	0.002356
7.405000E-8	0.002191
7.410000E-8	0.001894
7.415000E-8	0.001719
7.420000E-8	0.001616
7.425000E-8	0.001625
7.430000E-8	0.001541
7.435000E-8	0.001444
7.440000E-8	0.001559
7.445000E-8	0.001616
7.450000E-8	0.001619
7.455000E-8	0.001678
7.460000E-8	0.001825
7.465000E-8	0.001950
7.470000E-8	0.002041
7.475000E-8	0.002197
7.480000E-8	0.002325
7.485000E-8	0.002447
7.490000E-8	0.002394
7.495000E-8	0.002516
7.500000E-8	0.002481
7.505000E-8	0.002488
7.510000E-8	0.002456
7.515000E-8	0.002547
7.520000E-8	0.002538
7.525000E-8	0.002584
7.530000E-8	0.002434
7.535000E-8	0.002281
7.540000E-8	0.002256
7.545000E-8	0.002347
7.550000E-8	0.002138
7.555000E-8	0.002009
7.560000E-8	0.001969
7.565000E-8	0.001881
7.570000E-8	0.001784
7.575000E-8	0.001781
7.580000E-8	0.001656
7.585000E-8	0.001644
7.590000E-8	0.001572
7.595000E-8	0.001672
7.600000E-8	0.001731
7.605000E-8	0.001937
7.610000E-8	0.002025
7.615000E-8	0.002331
7.620000E-8	0.002419
7.625000E-8	0.002556
7.630000E-8	0.002681
7.635000E-8	0.002737
7.640000E-8	0.002691
7.645000E-8	0.002763
7.650000E-8	0.002722
7.655000E-8	0.002669
7.660000E-8	0.002516
7.665000E-8	0.002437
7.670000E-8	0.002350
7.675000E-8	0.002366
7.680000E-8	0.002162
7.685000E-8	0.002122
7.690000E-8	0.001913
7.695000E-8	0.001819
7.700000E-8	0.001856
7.705000E-8	0.001734
7.710000E-8	0.001750
7.715000E-8	0.001678
7.720000E-8	0.001703
7.725000E-8	0.001838
7.730000E-8	0.001859
7.735000E-8	0.001994
7.740000E-8	0.002103
7.745000E-8	0.002325
7.750000E-8	0.002541
7.755000E-8	0.002606
7.760000E-8	0.002772
7.765000E-8	0.002803
7.770000E-8	0.002925
7.775000E-8	0.002791
7.780000E-8	0.002716
7.785000E-8	0.002806
7.790000E-8	0.002731
7.795000E-8	0.002662
7.800000E-8	0.002425
7.805000E-8	0.002328
7.810000E-8	0.002175
7.815000E-8	0.002128
7.820000E-8	0.001931
7.825000E-8	0.001763
7.830000E-8	0.001612
7.835000E-8	0.001631
7.840000E-8	0.001522
7.845000E-8	0.001525
7.850000E-8	0.001525
7.855000E-8	0.001578
7.860000E-8	0.001675
7.865000E-8	0.001853
7.870000E-8	0.002009
7.875000E-8	0.002256
7.880000E-8	0.002319
7.885000E-8	0.002603
7.890000E-8	0.002609
7.895000E-8	0.002638
7.900000E-8	0.002669
7.905000E-8	0.002538
7.910000E-8	0.002484
7.915000E-8	0.002353
7.920000E-8	0.002203
7.925000E-8	0.002134
7.930000E-8	0.002056
7.935000E-8	0.002016
7.940000E-8	0.001831
7.945000E-8	0.001784
7.950000E-8	0.001794
7.955000E-8	0.001838
7.960000E-8	0.001650
7.965000E-8	0.001797
7.970000E-8	0.001669
7.975000E-8	0.001675
7.980000E-8	0.001700
7.985000E-8	0.001738
7.990000E-8	0.001716
7.995000E-8	0.001788
8.000000E-8	0.001813
8.005000E-8	0.002009
8.010000E-8	0.002103
8.015000E-8	0.002216
8.020000E-8	0.002381
8.025000E-8	0.002397
8.030000E-8	0.002419
8.035000E-8	0.002600
8.040000E-8	0.002600
8.045000E-8	0.002681
8.050000E-8	0.002578
8.055000E-8	0.002628
8.060000E-8	0.002509
8.065000E-8	0.002441
8.070000E-8	0.002347
8.075000E-8	0.002269
8.080000E-8	0.002106
8.085000E-8	0.002091
8.090000E-8	0.002003
8.095000E-8	0.001916
8.100000E-8	0.001963
8.105000E-8	0.001966
8.110000E-8	0.002038
8.115000E-8	0.002106
8.120000E-8	0.002197
8.125000E-8	0.002281
8.130000E-8	0.002334
8.135000E-8	0.002397
8.140000E-8	0.002500
8.145000E-8	0.002709
8.150000E-8	0.002619
8.155000E-8	0.002809
8.160000E-8	0.002706
8.165000E-8	0.002744
8.170000E-8	0.002678
8.175000E-8	0.002675
8.180000E-8	0.002700
8.185000E-8	0.002722
8.190000E-8	0.002531
8.195000E-8	0.002472
8.200000E-8	0.002319
8.205000E-8	0.002150
8.210000E-8	0.001884
8.215000E-8	0.001747
8.220000E-8	0.001622
8.225000E-8	0.001534
8.230000E-8	0.001538
8.235000E-8	0.001522
8.240000E-8	0.001559
8.245000E-8	0.001597
8.250000E-8	0.001709
8.255000E-8	0.001822
8.260000E-8	0.001944
8.265000E-8	0.002003
8.270000E-8	0.002241
8.275000E-8	0.002425
8.280000E-8	0.002484
8.285000E-8	0.002591
8.290000E-8	0.002550
8.295000E-8	0.002638
8.300000E-8	0.002656
8.305000E-8	0.002859
8.310000E-8	0.002772
8.315000E-8	0.002766
8.320000E-8	0.002559
8.325000E-8	0.002437
8.330000E-8	0.002209
8.335000E-8	0.002122
8.340000E-8	0.001959
8.345000E-8	0.001909
8.350000E-8	0.001806
8.355000E-8	0.001784
8.360000E-8	0.001691
8.365000E-8	0.001853
8.370000E-8	0.001891
8.375000E-8	0.001791
8.380000E-8	0.001831
8.385000E-8	0.001978
8.390000E-8	0.001963
8.395000E-8	0.002109
8.400000E-8	0.002078
8.405000E-8	0.002122
8.410000E-8	0.002175
8.415000E-8	0.002291
8.420000E-8	0.002447
8.425000E-8	0.002512
8.430000E-8	0.002525
8.435000E-8	0.002556
8.440000E-8	0.002356
8.445000E-8	0.002288
8.450000E-8	0.002237
8.455000E-8	0.002184
8.460000E-8	0.002166
8.465000E-8	0.002084
8.470000E-8	0.002084
8.475000E-8	0.001944
8.480000E-8	0.001875
8.485000E-8	0.001884
8.490000E-8	0.001819
8.495000E-8	0.001906
8.500000E-8	0.001856
8.505000E-8	0.002047
8.510000E-8	0.002044
8.515000E-8	0.002328
8.520000E-8	0.002378
8.525000E-8	0.002519
8.530000E-8	0.002497
8.535000E-8	0.002528
8.540000E-8	0.002437
8.545000E-8	0.002456
8.550000E-8	0.002434
8.555000E-8	0.002488
8.560000E-8	0.002413
8.565000E-8	0.002488
8.570000E-8	0.002459
8.575000E-8	0.002400
8.580000E-8	0.002166
8.585000E-8	0.002172
8.590000E-8	0.002169
8.595000E-8	0.002150
8.600000E-8	0.002016
8.605000E-8	0.002003
8.610000E-8	0.001913
8.615000E-8	0.001941
8.620000E-8	0.001881
8.625000E-8	0.001816
8.630000E-8	0.001816
8.635000E-8	0.001806
8.640000E-8	0.001834
8.645000E-8	0.001913
8.650000E-8	0.001922
8.655000E-8	0.001997
8.660000E-8	0.001988
8.665000E-8	0.001969
8.670000E-8	0.001972
8.675000E-8	0.002044
8.680000E-8	0.002072
8.685000E-8	0.002206
8.690000E-8	0.002288
8.695000E-8	0.002350
8.700000E-8	0.002303
8.705000E-8	0.002359
8.710000E-8	0.002241
8.715000E-8	0.002153
8.720000E-8	0.002006
8.725000E-8	0.001819
8.730000E-8	0.001722
8.735000E-8	0.001672
8.740000E-8	0.001506
8.745000E-8	0.001588
8.750000E-8	0.001616
8.755000E-8	0.001822
8.760000E-8	0.001844
8.765000E-8	0.001966
8.770000E-8	0.002072
8.775000E-8	0.002188
8.780000E-8	0.002216
8.785000E-8	0.002247
8.790000E-8	0.002269
8.795000E-8	0.002363
8.800000E-8	0.002413
8.805000E-8	0.002478
8.810000E-8	0.002409
8.815000E-8	0.002475
8.820000E-8	0.002547
8.825000E-8	0.002641
8.830000E-8	0.002597
8.835000E-8	0.002566
8.840000E-8	0.002516
8.845000E-8	0.002484
8.850000E-8	0.002350
8.855000E-8	0.002219
8.860000E-8	0.001988
8.865000E-8	0.001956
8.870000E-8	0.001781
8.875000E-8	0.001838
8.880000E-8	0.001750
8.885000E-8	0.001806
8.890000E-8	0.001841
8.895000E-8	0.001809
8.900000E-8	0.001869
8.905000E-8	0.001869
8.910000E-8	0.001844
8.915000E-8	0.001972
8.920000E-8	0.001916
8.925000E-8	0.002034
8.930000E-8	0.002116
8.935000E-8	0.002150
8.940000E-8	0.002237
8.945000E-8	0.002294
8.950000E-8	0.002237
8.955000E-8	0.002153
8.960000E-8	0.002253
8.965000E-8	0.002244
8.970000E-8	0.002234
8.975000E-8	0.002194
8.980000E-8	0.002106
8.985000E-8	0.002050
8.990000E-8	0.002069
8.995000E-8	0.002016
9.000000E-8	0.001994
9.005000E-8	0.001944
9.010000E-8	0.001941
9.015000E-8	0.001900
9.020000E-8	0.001859
9.025000E-8	0.001959
9.030000E-8	0.002038
9.035000E-8	0.001997
9.040000E-8	0.001875
9.045000E-8	0.002047
9.050000E-8	0.002056
9.055000E-8	0.002072
9.060000E-8	0.001941
9.065000E-8	0.002028
9.070000E-8	0.002134
9.075000E-8	0.002172
9.080000E-8	0.002172
9.085000E-8	0.002391
9.090000E-8	0.002303
9.095000E-8	0.002353
9.100000E-8	0.002378
9.105000E-8	0.002425
9.110000E-8	0.002341
9.115000E-8	0.002384
9.120000E-8	0.002134
9.125000E-8	0.002081
9.130000E-8	0.001978
9.135000E-8	0.001841
9.140000E-8	0.001763
9.145000E-8	0.001584
9.150000E-8	0.001481
9.155000E-8	0.001450
9.160000E-8	0.001463
9.165000E-8	0.001434
9.170000E-8	0.001500
9.175000E-8	0.001591
9.180000E-8	0.001709
9.185000E-8	0.001947
9.190000E-8	0.002106
9.195000E-8	0.002272
9.200000E-8	0.002341
9.205000E-8	0.002559
9.210000E-8	0.002594
9.215000E-8	0.002763
9.220000E-8	0.002728
9.225000E-8	0.002666
9.230000E-8	0.002644
9.235000E-8	0.002713
9.240000E-8	0.002703
9.245000E-8	0.002609
9.250000E-8	0.002503
9.255000E-8	0.002500
9.260000E-8	0.002406
9.265000E-8	0.002234
9.270000E-8	0.002087
9.275000E-8	0.001978
9.280000E-8	0.001881
9.285000E-8	0.001856
9.290000E-8	0.001819
9.295000E-8	0.001894
9.300000E-8	0.001950
9.305000E-8	0.001997
9.310000E-8	0.002016
9.315000E-8	0.002194
9.320000E-8	0.002266
9.325000E-8	0.002403
9.330000E-8	0.002406
9.335000E-8	0.002456
9.340000E-8	0.002550
9.345000E-8	0.002653
9.350000E-8	0.002578
9.355000E-8	0.002550
9.360000E-8	0.002622
9.365000E-8	0.002606
9.370000E-8	0.002463
9.375000E-8	0.002488
9.380000E-8	0.002450
9.385000E-8	0.002372
9.390000E-8	0.002228
9.395000E-8	0.002191
9.400000E-8	0.002038
9.405000E-8	0.002047
9.410000E-8	0.001916
9.415000E-8	0.001963
9.420000E-8	0.002009
9.425000E-8	0.002162
9.430000E-8	0.002250
9.435000E-8	0.002353
9.440000E-8	0.002488
9.445000E-8	0.002591
9.450000E-8	0.002541
9.455000E-8	0.002563
9.460000E-8	0.002497
9.465000E-8	0.002488
9.470000E-8	0.002291
9.475000E-8	0.002300
9.480000E-8	0.002100
9.485000E-8	0.002106
9.490000E-8	0.002100
9.495000E-8	0.002072
9.500000E-8	0.002038
9.505000E-8	0.002128
9.510000E-8	0.002066
9.515000E-8	0.002172
9.520000E-8	0.002131
9.525000E-8	0.002278
9.530000E-8	0.002091
9.535000E-8	0.002019
9.540000E-8	0.001981
9.545000E-8	0.001978
9.550000E-8	0.001922
9.555000E-8	0.001906
9.560000E-8	0.001809
9.565000E-8	0.001863
9.570000E-8	0.001834
9.575000E-8	0.001991
9.580000E-8	0.002059
9.585000E-8	0.002113
9.590000E-8	0.002244
9.595000E-8	0.002409
9.600000E-8	0.002384
9.605000E-8	0.002394
9.610000E-8	0.002478
9.615000E-8	0.002503
9.620000E-8	0.002444
9.625000E-8	0.002459
9.630000E-8	0.002284
9.635000E-8	0.002213
9.640000E-8	0.002144
9.645000E-8	0.002166
9.650000E-8	0.002047
9.655000E-8	0.002078
9.660000E-8	0.001978
9.665000E-8	0.001934
9.670000E-8	0.001797
9.675000E-8	0.001734
9.680000E-8	0.001650
9.685000E-8	0.001781
9.690000E-8	0.001809
9.695000E-8	0.001741
9.700000E-8	0.001766
9.705000E-8	0.001884
9.710000E-8	0.001925
9.715000E-8	0.002038
9.720000E-8	0.002063
9.725000E-8	0.002134
9.730000E-8	0.002188
9.735000E-8	0.002266
9.740000E-8	0.002156
9.745000E-8	0.002241
9.750000E-8	0.002356
9.755000E-8	0.002431
9.760000E-8	0.002413
9.765000E-8	0.002506
9.770000E-8	0.002453
9.775000E-8	0.002453
9.780000E-8	0.002472
9.785000E-8	0.002425
9.790000E-8	0.002319
9.795000E-8	0.002263
9.800000E-8	0.002069
9.805000E-8	0.001900
9.810000E-8	0.001675
9.815000E-8	0.001625
9.820000E-8	0.001591
9.825000E-8	0.001497
9.830000E-8	0.001609
9.835000E-8	0.001759
9.840000E-8	0.001803
9.845000E-8	0.001981
9.850000E-8	0.002009
9.855000E-8	0.002122
9.860000E-8	0.002138
9.865000E-8	0.002338
9.870000E-8	0.002375
9.875000E-8	0.002419
9.880000E-8	0.002556
9.885000E-8	0.002594
9.890000E-8	0.002525
9.895000E-8	0.002531
9.900000E-8	0.002378
9.905000E-8	0.002372
9.910000E-8	0.002303
9.915000E-8	0.002281
9.920000E-8	0.002103
9.925000E-8	0.002000
9.930000E-8	0.001900
9.935000E-8	0.001856
9.940000E-8	0.001844
9.945000E-8	0.001863
9.950000E-8	0.001872
9.955000E-8	0.001875
9.960000E-8	0.001878
9.965000E-8	0.001994
9.970000E-8	0.001931
9.975000E-8	0.002009
9.980000E-8	0.001975
9.985000E-8	0.002078
9.990000E-8	0.002094
9.995000E-8	0.002072
