LabVIEW Measurement	
Writer_Version	2
Reader_Version	2
Separator	Tab
Decimal_Separator	.
Multi_Headings	No
X_Columns	Multi
Time_Pref	Relative
Operator	TG lab
Date	2015/03/06
Time	16:37:41.0852708816528320313
***End_of_Header***	
	
Channels	1	
Samples	2000	
Date	1903/12/31	
Time	19:00:00	
X_Dimension	Time	
X0	0.0000000000000000E+0	
Delta_X	5.000000E-11	
***End_of_Header***		
X_Value	Untitled	Comment
0.000000	0.002437
5.000000E-11	0.002609
1.000000E-10	0.002616
1.500000E-10	0.002662
2.000000E-10	0.002694
2.500000E-10	0.002759
3.000000E-10	0.002828
3.500000E-10	0.002856
4.000000E-10	0.002759
4.500000E-10	0.002909
5.000000E-10	0.002816
5.500000E-10	0.002853
6.000000E-10	0.002750
6.500000E-10	0.002791
7.000000E-10	0.002791
7.500000E-10	0.002678
8.000000E-10	0.002600
8.500000E-10	0.002553
9.000000E-10	0.002491
9.500000E-10	0.002550
1.000000E-9	0.002544
1.050000E-9	0.002559
1.100000E-9	0.002472
1.150000E-9	0.002422
1.200000E-9	0.002397
1.250000E-9	0.002447
1.300000E-9	0.002375
1.350000E-9	0.002391
1.400000E-9	0.002338
1.450000E-9	0.002384
1.500000E-9	0.002422
1.550000E-9	0.002431
1.600000E-9	0.002378
1.650000E-9	0.002441
1.700000E-9	0.002272
1.750000E-9	0.002466
1.800000E-9	0.002388
1.850000E-9	0.002431
1.900000E-9	0.002406
1.950000E-9	0.002522
2.000000E-9	0.002469
2.050000E-9	0.002441
2.100000E-9	0.002419
2.150000E-9	0.002500
2.200000E-9	0.002456
2.250000E-9	0.002609
2.300000E-9	0.002538
2.350000E-9	0.002587
2.400000E-9	0.002619
2.450000E-9	0.002634
2.500000E-9	0.002541
2.550000E-9	0.002650
2.600000E-9	0.002553
2.650000E-9	0.002550
2.700000E-9	0.002572
2.750000E-9	0.002544
2.800000E-9	0.002425
2.850000E-9	0.002391
2.900000E-9	0.002453
2.950000E-9	0.002503
3.000000E-9	0.002453
3.050000E-9	0.002444
3.100000E-9	0.002422
3.150000E-9	0.002444
3.200000E-9	0.002475
3.250000E-9	0.002581
3.300000E-9	0.002525
3.350000E-9	0.002500
3.400000E-9	0.002463
3.450000E-9	0.002534
3.500000E-9	0.002547
3.550000E-9	0.002559
3.600000E-9	0.002534
3.650000E-9	0.002450
3.700000E-9	0.002491
3.750000E-9	0.002531
3.800000E-9	0.002431
3.850000E-9	0.002431
3.900000E-9	0.002353
3.950000E-9	0.002369
4.000000E-9	0.002363
4.050000E-9	0.002372
4.100000E-9	0.002178
4.150000E-9	0.002219
4.200000E-9	0.002091
4.250000E-9	0.002056
4.300000E-9	0.002044
4.350000E-9	0.002075
4.400000E-9	0.002016
4.450000E-9	0.002106
4.500000E-9	0.002172
4.550000E-9	0.002191
4.600000E-9	0.002138
4.650000E-9	0.002172
4.700000E-9	0.002237
4.750000E-9	0.002288
4.800000E-9	0.002219
4.850000E-9	0.002191
4.900000E-9	0.002116
4.950000E-9	0.002244
5.000000E-9	0.002153
5.050000E-9	0.002144
5.100000E-9	0.002166
5.150000E-9	0.002097
5.200000E-9	0.002094
5.250000E-9	0.002200
5.300000E-9	0.002066
5.350000E-9	0.002031
5.400000E-9	0.001869
5.450000E-9	0.001937
5.500000E-9	0.001822
5.550000E-9	0.001750
5.600000E-9	0.001806
5.650000E-9	0.001819
5.700000E-9	0.001919
5.750000E-9	0.001947
5.800000E-9	0.001831
5.850000E-9	0.001925
5.900000E-9	0.001988
5.950000E-9	0.002025
6.000000E-9	0.001900
6.050000E-9	0.001963
6.100000E-9	0.001884
6.150000E-9	0.001972
6.200000E-9	0.001759
6.250000E-9	0.001806
6.300000E-9	0.001809
6.350000E-9	0.001778
6.400000E-9	0.001788
6.450000E-9	0.001919
6.500000E-9	0.001937
6.550000E-9	0.002081
6.600000E-9	0.002131
6.650000E-9	0.002106
6.700000E-9	0.002125
6.750000E-9	0.002247
6.800000E-9	0.002363
6.850000E-9	0.002425
6.900000E-9	0.002384
6.950000E-9	0.002400
7.000000E-9	0.002509
7.050000E-9	0.002644
7.100000E-9	0.002713
7.150000E-9	0.003034
7.200000E-9	0.003078
7.250000E-9	0.003288
7.300000E-9	0.003450
7.350000E-9	0.003572
7.400000E-9	0.003728
7.450000E-9	0.004072
7.500000E-9	0.004278
7.550000E-9	0.004597
7.600000E-9	0.004838
7.650000E-9	0.004938
7.700000E-9	0.004850
7.750000E-9	0.004491
7.800000E-9	0.003656
7.850000E-9	0.002566
7.900000E-9	0.000984
7.950000E-9	-0.001122
8.000000E-9	-0.003638
8.050000E-9	-0.006428
8.100000E-9	-0.009650
8.150000E-9	-0.012847
8.200000E-9	-0.016150
8.250000E-9	-0.019175
8.300000E-9	-0.021997
8.350000E-9	-0.024338
8.400000E-9	-0.026059
8.450000E-9	-0.027269
8.500000E-9	-0.027959
8.550000E-9	-0.027734
8.600000E-9	-0.027153
8.650000E-9	-0.025844
8.700000E-9	-0.024222
8.750000E-9	-0.022203
8.800000E-9	-0.020353
8.850000E-9	-0.018313
8.900000E-9	-0.016609
8.950000E-9	-0.015253
9.000000E-9	-0.014300
9.050000E-9	-0.013831
9.100000E-9	-0.013825
9.150000E-9	-0.014184
9.200000E-9	-0.014894
9.250000E-9	-0.015650
9.300000E-9	-0.016500
9.350000E-9	-0.017213
9.400000E-9	-0.017703
9.450000E-9	-0.017791
9.500000E-9	-0.017503
9.550000E-9	-0.016887
9.600000E-9	-0.015988
9.650000E-9	-0.014738
9.700000E-9	-0.013256
9.750000E-9	-0.011694
9.800000E-9	-0.010306
9.850000E-9	-0.008775
9.900000E-9	-0.007634
9.950000E-9	-0.006759
1.000000E-8	-0.006434
1.005000E-8	-0.006175
1.010000E-8	-0.006391
1.015000E-8	-0.006772
1.020000E-8	-0.007438
1.025000E-8	-0.008156
1.030000E-8	-0.008891
1.035000E-8	-0.009609
1.040000E-8	-0.010059
1.045000E-8	-0.010169
1.050000E-8	-0.010069
1.055000E-8	-0.009672
1.060000E-8	-0.009022
1.065000E-8	-0.008100
1.070000E-8	-0.006981
1.075000E-8	-0.005713
1.080000E-8	-0.004494
1.085000E-8	-0.003353
1.090000E-8	-0.002541
1.095000E-8	-0.001950
1.100000E-8	-0.001644
1.105000E-8	-0.001594
1.110000E-8	-0.001937
1.115000E-8	-0.002463
1.120000E-8	-0.003263
1.125000E-8	-0.003972
1.130000E-8	-0.004625
1.135000E-8	-0.005266
1.140000E-8	-0.005706
1.145000E-8	-0.005869
1.150000E-8	-0.005856
1.155000E-8	-0.005528
1.160000E-8	-0.004969
1.165000E-8	-0.004100
1.170000E-8	-0.003291
1.175000E-8	-0.002259
1.180000E-8	-0.001466
1.185000E-8	-0.000597
1.190000E-8	-5.000000E-5
1.195000E-8	0.000428
1.200000E-8	0.000488
1.205000E-8	0.000381
1.210000E-8	-6.875000E-5
1.215000E-8	-0.000659
1.220000E-8	-0.001397
1.225000E-8	-0.002016
1.230000E-8	-0.002859
1.235000E-8	-0.003306
1.240000E-8	-0.003703
1.245000E-8	-0.003962
1.250000E-8	-0.003866
1.255000E-8	-0.003422
1.260000E-8	-0.002863
1.265000E-8	-0.002078
1.270000E-8	-0.001288
1.275000E-8	-0.000272
1.280000E-8	0.000491
1.285000E-8	0.001234
1.290000E-8	0.001797
1.295000E-8	0.002091
1.300000E-8	0.002038
1.305000E-8	0.001838
1.310000E-8	0.001300
1.315000E-8	0.000737
1.320000E-8	-0.000106
1.325000E-8	-0.000816
1.330000E-8	-0.001631
1.335000E-8	-0.002169
1.340000E-8	-0.002563
1.345000E-8	-0.002647
1.350000E-8	-0.002631
1.355000E-8	-0.002100
1.360000E-8	-0.001506
1.365000E-8	-0.000638
1.370000E-8	0.000191
1.375000E-8	0.001269
1.380000E-8	0.002069
1.385000E-8	0.002828
1.390000E-8	0.003331
1.395000E-8	0.003603
1.400000E-8	0.003494
1.405000E-8	0.003216
1.410000E-8	0.002606
1.415000E-8	0.001966
1.420000E-8	0.001091
1.425000E-8	0.000181
1.430000E-8	-0.000588
1.435000E-8	-0.001288
1.440000E-8	-0.001650
1.445000E-8	-0.001844
1.450000E-8	-0.001666
1.455000E-8	-0.001125
1.460000E-8	-0.000406
1.465000E-8	0.000328
1.470000E-8	0.001175
1.475000E-8	0.002109
1.480000E-8	0.003034
1.485000E-8	0.003666
1.490000E-8	0.004013
1.495000E-8	0.004169
1.500000E-8	0.003759
1.505000E-8	0.003325
1.510000E-8	0.002409
1.515000E-8	0.001519
1.520000E-8	0.000491
1.525000E-8	-0.000453
1.530000E-8	-0.001191
1.535000E-8	-0.001566
1.540000E-8	-0.001841
1.545000E-8	-0.001653
1.550000E-8	-0.001169
1.555000E-8	-0.000478
1.560000E-8	0.000381
1.565000E-8	0.001409
1.570000E-8	0.002384
1.575000E-8	0.003322
1.580000E-8	0.004006
1.585000E-8	0.004463
1.590000E-8	0.004575
1.595000E-8	0.004603
1.600000E-8	0.004188
1.605000E-8	0.003478
1.610000E-8	0.002559
1.615000E-8	0.001603
1.620000E-8	0.000734
1.625000E-8	3.125000E-6
1.630000E-8	-0.000606
1.635000E-8	-0.000869
1.640000E-8	-0.000925
1.645000E-8	-0.000600
1.650000E-8	-0.000103
1.655000E-8	0.000803
1.660000E-8	0.001772
1.665000E-8	0.002672
1.670000E-8	0.003491
1.675000E-8	0.004097
1.680000E-8	0.004484
1.685000E-8	0.004719
1.690000E-8	0.004478
1.695000E-8	0.004106
1.700000E-8	0.003463
1.705000E-8	0.002766
1.710000E-8	0.001681
1.715000E-8	0.000956
1.720000E-8	0.000206
1.725000E-8	-0.000369
1.730000E-8	-0.000653
1.735000E-8	-0.000594
1.740000E-8	-0.000347
1.745000E-8	0.000144
1.750000E-8	0.000834
1.755000E-8	0.001544
1.760000E-8	0.002538
1.765000E-8	0.003363
1.770000E-8	0.004022
1.775000E-8	0.004516
1.780000E-8	0.004662
1.785000E-8	0.004687
1.790000E-8	0.004472
1.795000E-8	0.003941
1.800000E-8	0.003184
1.805000E-8	0.002356
1.810000E-8	0.001566
1.815000E-8	0.000756
1.820000E-8	-3.750000E-5
1.825000E-8	-0.000447
1.830000E-8	-0.000666
1.835000E-8	-0.000503
1.840000E-8	-0.000269
1.845000E-8	0.000319
1.850000E-8	0.000994
1.855000E-8	0.001791
1.860000E-8	0.002509
1.865000E-8	0.003197
1.870000E-8	0.003778
1.875000E-8	0.004372
1.880000E-8	0.004509
1.885000E-8	0.004347
1.890000E-8	0.004097
1.895000E-8	0.003647
1.900000E-8	0.003022
1.905000E-8	0.002284
1.910000E-8	0.001578
1.915000E-8	0.000913
1.920000E-8	0.000219
1.925000E-8	-0.000109
1.930000E-8	-0.000203
1.935000E-8	-0.000138
1.940000E-8	0.000122
1.945000E-8	0.000694
1.950000E-8	0.001381
1.955000E-8	0.002184
1.960000E-8	0.002906
1.965000E-8	0.003716
1.970000E-8	0.004106
1.975000E-8	0.004563
1.980000E-8	0.004678
1.985000E-8	0.004563
1.990000E-8	0.004116
1.995000E-8	0.003641
2.000000E-8	0.002863
2.005000E-8	0.002250
2.010000E-8	0.001428
2.015000E-8	0.000813
2.020000E-8	0.000266
2.025000E-8	9.062500E-5
2.030000E-8	-1.562500E-5
2.035000E-8	0.000147
2.040000E-8	0.000578
2.045000E-8	0.001288
2.050000E-8	0.001950
2.055000E-8	0.002559
2.060000E-8	0.003253
2.065000E-8	0.003769
2.070000E-8	0.004297
2.075000E-8	0.004497
2.080000E-8	0.004416
2.085000E-8	0.004216
2.090000E-8	0.003744
2.095000E-8	0.003269
2.100000E-8	0.002531
2.105000E-8	0.001738
2.110000E-8	0.001138
2.115000E-8	0.000709
2.120000E-8	0.000175
2.125000E-8	4.687500E-5
2.130000E-8	1.562500E-5
2.135000E-8	0.000306
2.140000E-8	0.000566
2.145000E-8	0.001069
2.150000E-8	0.001731
2.155000E-8	0.002456
2.160000E-8	0.003078
2.165000E-8	0.003672
2.170000E-8	0.004084
2.175000E-8	0.004297
2.180000E-8	0.004219
2.185000E-8	0.003928
2.190000E-8	0.003456
2.195000E-8	0.002741
2.200000E-8	0.002050
2.205000E-8	0.001384
2.210000E-8	0.000809
2.215000E-8	0.000237
2.220000E-8	-8.750000E-5
2.225000E-8	-5.312500E-5
2.230000E-8	1.562500E-5
2.235000E-8	0.000475
2.240000E-8	0.001112
2.245000E-8	0.001956
2.250000E-8	0.002725
2.255000E-8	0.003563
2.260000E-8	0.004178
2.265000E-8	0.004566
2.270000E-8	0.004819
2.275000E-8	0.004875
2.280000E-8	0.004534
2.285000E-8	0.004022
2.290000E-8	0.003275
2.295000E-8	0.002644
2.300000E-8	0.001900
2.305000E-8	0.001300
2.310000E-8	0.000666
2.315000E-8	0.000244
2.320000E-8	0.000141
2.325000E-8	0.000247
2.330000E-8	0.000541
2.335000E-8	0.001097
2.340000E-8	0.001663
2.345000E-8	0.002359
2.350000E-8	0.002994
2.355000E-8	0.003756
2.360000E-8	0.004228
2.365000E-8	0.004606
2.370000E-8	0.004488
2.375000E-8	0.004387
2.380000E-8	0.003903
2.385000E-8	0.003206
2.390000E-8	0.002497
2.395000E-8	0.001784
2.400000E-8	0.001106
2.405000E-8	0.000563
2.410000E-8	8.750000E-5
2.415000E-8	-8.750000E-5
2.420000E-8	-0.000109
2.425000E-8	0.000338
2.430000E-8	0.000663
2.435000E-8	0.001259
2.440000E-8	0.001947
2.445000E-8	0.002587
2.450000E-8	0.003272
2.455000E-8	0.003909
2.460000E-8	0.004350
2.465000E-8	0.004631
2.470000E-8	0.004572
2.475000E-8	0.004350
2.480000E-8	0.003925
2.485000E-8	0.003400
2.490000E-8	0.002678
2.495000E-8	0.002094
2.500000E-8	0.001444
2.505000E-8	0.001003
2.510000E-8	0.000737
2.515000E-8	0.000544
2.520000E-8	0.000681
2.525000E-8	0.001219
2.530000E-8	0.001647
2.535000E-8	0.002247
2.540000E-8	0.002894
2.545000E-8	0.003534
2.550000E-8	0.004134
2.555000E-8	0.004516
2.560000E-8	0.004687
2.565000E-8	0.004594
2.570000E-8	0.004341
2.575000E-8	0.003962
2.580000E-8	0.003413
2.585000E-8	0.002772
2.590000E-8	0.002125
2.595000E-8	0.001644
2.600000E-8	0.001031
2.605000E-8	0.000700
2.610000E-8	0.000484
2.615000E-8	0.000622
2.620000E-8	0.000984
2.625000E-8	0.001453
2.630000E-8	0.001941
2.635000E-8	0.002594
2.640000E-8	0.003244
2.645000E-8	0.003834
2.650000E-8	0.004128
2.655000E-8	0.004316
2.660000E-8	0.004444
2.665000E-8	0.004356
2.670000E-8	0.003975
2.675000E-8	0.003456
2.680000E-8	0.002894
2.685000E-8	0.002469
2.690000E-8	0.001869
2.695000E-8	0.001384
2.700000E-8	0.000844
2.705000E-8	0.000641
2.710000E-8	0.000456
2.715000E-8	0.000478
2.720000E-8	0.000747
2.725000E-8	0.001238
2.730000E-8	0.001634
2.735000E-8	0.002200
2.740000E-8	0.002725
2.745000E-8	0.003175
2.750000E-8	0.003597
2.755000E-8	0.003966
2.760000E-8	0.004031
2.765000E-8	0.003941
2.770000E-8	0.003803
2.775000E-8	0.003463
2.780000E-8	0.002978
2.785000E-8	0.002469
2.790000E-8	0.001709
2.795000E-8	0.001256
2.800000E-8	0.000934
2.805000E-8	0.000769
2.810000E-8	0.000591
2.815000E-8	0.000653
2.820000E-8	0.000906
2.825000E-8	0.001366
2.830000E-8	0.001816
2.835000E-8	0.002566
2.840000E-8	0.003009
2.845000E-8	0.003563
2.850000E-8	0.004028
2.855000E-8	0.004341
2.860000E-8	0.004322
2.865000E-8	0.004316
2.870000E-8	0.003841
2.875000E-8	0.003525
2.880000E-8	0.002925
2.885000E-8	0.002350
2.890000E-8	0.001797
2.895000E-8	0.001256
2.900000E-8	0.000778
2.905000E-8	0.000534
2.910000E-8	0.000403
2.915000E-8	0.000663
2.920000E-8	0.001056
2.925000E-8	0.001503
2.930000E-8	0.002012
2.935000E-8	0.002662
2.940000E-8	0.003238
2.945000E-8	0.003769
2.950000E-8	0.004172
2.955000E-8	0.004422
2.960000E-8	0.004269
2.965000E-8	0.003959
2.970000E-8	0.003459
2.975000E-8	0.002969
2.980000E-8	0.002166
2.985000E-8	0.001584
2.990000E-8	0.001031
2.995000E-8	0.000581
3.000000E-8	0.000403
3.005000E-8	0.000384
3.010000E-8	0.000481
3.015000E-8	0.000856
3.020000E-8	0.001300
3.025000E-8	0.001972
3.030000E-8	0.002391
3.035000E-8	0.002963
3.040000E-8	0.003463
3.045000E-8	0.003791
3.050000E-8	0.003916
3.055000E-8	0.003919
3.060000E-8	0.003722
3.065000E-8	0.003469
3.070000E-8	0.002950
3.075000E-8	0.002459
3.080000E-8	0.001838
3.085000E-8	0.001322
3.090000E-8	0.001016
3.095000E-8	0.000878
3.100000E-8	0.000775
3.105000E-8	0.001009
3.110000E-8	0.001259
3.115000E-8	0.001913
3.120000E-8	0.002319
3.125000E-8	0.002928
3.130000E-8	0.003472
3.135000E-8	0.003966
3.140000E-8	0.004234
3.145000E-8	0.004309
3.150000E-8	0.004253
3.155000E-8	0.004087
3.160000E-8	0.003784
3.165000E-8	0.003303
3.170000E-8	0.002884
3.175000E-8	0.002256
3.180000E-8	0.001750
3.185000E-8	0.001378
3.190000E-8	0.001069
3.195000E-8	0.000891
3.200000E-8	0.000884
3.205000E-8	0.001097
3.210000E-8	0.001400
3.215000E-8	0.001969
3.220000E-8	0.002403
3.225000E-8	0.002963
3.230000E-8	0.003319
3.235000E-8	0.003722
3.240000E-8	0.003894
3.245000E-8	0.004109
3.250000E-8	0.004038
3.255000E-8	0.003931
3.260000E-8	0.003484
3.265000E-8	0.003150
3.270000E-8	0.002609
3.275000E-8	0.002269
3.280000E-8	0.001850
3.285000E-8	0.001522
3.290000E-8	0.001222
3.295000E-8	0.001213
3.300000E-8	0.001159
3.305000E-8	0.001447
3.310000E-8	0.001728
3.315000E-8	0.002213
3.320000E-8	0.002553
3.325000E-8	0.003069
3.330000E-8	0.003453
3.335000E-8	0.003809
3.340000E-8	0.003875
3.345000E-8	0.004047
3.350000E-8	0.003972
3.355000E-8	0.003653
3.360000E-8	0.003359
3.365000E-8	0.002909
3.370000E-8	0.002413
3.375000E-8	0.002019
3.380000E-8	0.001619
3.385000E-8	0.001356
3.390000E-8	0.001187
3.395000E-8	0.001150
3.400000E-8	0.001338
3.405000E-8	0.001634
3.410000E-8	0.001963
3.415000E-8	0.002422
3.420000E-8	0.002866
3.425000E-8	0.003363
3.430000E-8	0.003563
3.435000E-8	0.003841
3.440000E-8	0.003781
3.445000E-8	0.003891
3.450000E-8	0.003575
3.455000E-8	0.003219
3.460000E-8	0.002656
3.465000E-8	0.002372
3.470000E-8	0.001897
3.475000E-8	0.001591
3.480000E-8	0.001197
3.485000E-8	0.001081
3.490000E-8	0.001103
3.495000E-8	0.001216
3.500000E-8	0.001509
3.505000E-8	0.002031
3.510000E-8	0.002331
3.515000E-8	0.002831
3.520000E-8	0.003231
3.525000E-8	0.003728
3.530000E-8	0.003894
3.535000E-8	0.004128
3.540000E-8	0.004025
3.545000E-8	0.003922
3.550000E-8	0.003694
3.555000E-8	0.003206
3.560000E-8	0.002775
3.565000E-8	0.002375
3.570000E-8	0.001803
3.575000E-8	0.001547
3.580000E-8	0.001291
3.585000E-8	0.001203
3.590000E-8	0.001125
3.595000E-8	0.001303
3.600000E-8	0.001513
3.605000E-8	0.001834
3.610000E-8	0.002091
3.615000E-8	0.002553
3.620000E-8	0.002897
3.625000E-8	0.003325
3.630000E-8	0.003453
3.635000E-8	0.003634
3.640000E-8	0.003569
3.645000E-8	0.003512
3.650000E-8	0.003269
3.655000E-8	0.002972
3.660000E-8	0.002544
3.665000E-8	0.002097
3.670000E-8	0.001728
3.675000E-8	0.001478
3.680000E-8	0.001103
3.685000E-8	0.001075
3.690000E-8	0.001028
3.695000E-8	0.001191
3.700000E-8	0.001413
3.705000E-8	0.001806
3.710000E-8	0.002297
3.715000E-8	0.002809
3.720000E-8	0.003094
3.725000E-8	0.003400
3.730000E-8	0.003666
3.735000E-8	0.003703
3.740000E-8	0.003475
3.745000E-8	0.003266
3.750000E-8	0.003028
3.755000E-8	0.002647
3.760000E-8	0.002206
3.765000E-8	0.001759
3.770000E-8	0.001428
3.775000E-8	0.001159
3.780000E-8	0.001125
3.785000E-8	0.001106
3.790000E-8	0.001191
3.795000E-8	0.001362
3.800000E-8	0.001806
3.805000E-8	0.002378
3.810000E-8	0.002784
3.815000E-8	0.003300
3.820000E-8	0.003500
3.825000E-8	0.003756
3.830000E-8	0.003806
3.835000E-8	0.003766
3.840000E-8	0.003569
3.845000E-8	0.003259
3.850000E-8	0.002916
3.855000E-8	0.002541
3.860000E-8	0.002075
3.865000E-8	0.001753
3.870000E-8	0.001391
3.875000E-8	0.001163
3.880000E-8	0.001163
3.885000E-8	0.001231
3.890000E-8	0.001416
3.895000E-8	0.001925
3.900000E-8	0.002263
3.905000E-8	0.002694
3.910000E-8	0.003012
3.915000E-8	0.003491
3.920000E-8	0.003697
3.925000E-8	0.003775
3.930000E-8	0.003769
3.935000E-8	0.003644
3.940000E-8	0.003306
3.945000E-8	0.002963
3.950000E-8	0.002659
3.955000E-8	0.002331
3.960000E-8	0.001931
3.965000E-8	0.001681
3.970000E-8	0.001525
3.975000E-8	0.001475
3.980000E-8	0.001491
3.985000E-8	0.001553
3.990000E-8	0.001653
3.995000E-8	0.002056
4.000000E-8	0.002303
4.005000E-8	0.002728
4.010000E-8	0.003031
4.015000E-8	0.003291
4.020000E-8	0.003447
4.025000E-8	0.003478
4.030000E-8	0.003512
4.035000E-8	0.003391
4.040000E-8	0.003113
4.045000E-8	0.002850
4.050000E-8	0.002372
4.055000E-8	0.002100
4.060000E-8	0.001631
4.065000E-8	0.001484
4.070000E-8	0.001263
4.075000E-8	0.001263
4.080000E-8	0.001297
4.085000E-8	0.001591
4.090000E-8	0.001806
4.095000E-8	0.002303
4.100000E-8	0.002731
4.105000E-8	0.003091
4.110000E-8	0.003359
4.115000E-8	0.003644
4.120000E-8	0.003794
4.125000E-8	0.003734
4.130000E-8	0.003600
4.135000E-8	0.003394
4.140000E-8	0.002978
4.145000E-8	0.002603
4.150000E-8	0.002266
4.155000E-8	0.001866
4.160000E-8	0.001644
4.165000E-8	0.001606
4.170000E-8	0.001491
4.175000E-8	0.001525
4.180000E-8	0.001609
4.185000E-8	0.001834
4.190000E-8	0.002003
4.195000E-8	0.002256
4.200000E-8	0.002450
4.205000E-8	0.002769
4.210000E-8	0.003031
4.215000E-8	0.003213
4.220000E-8	0.003284
4.225000E-8	0.003356
4.230000E-8	0.003322
4.235000E-8	0.003094
4.240000E-8	0.002894
4.245000E-8	0.002659
4.250000E-8	0.002216
4.255000E-8	0.001813
4.260000E-8	0.001553
4.265000E-8	0.001375
4.270000E-8	0.001362
4.275000E-8	0.001419
4.280000E-8	0.001463
4.285000E-8	0.001697
4.290000E-8	0.001950
4.295000E-8	0.002384
4.300000E-8	0.002734
4.305000E-8	0.003203
4.310000E-8	0.003450
4.315000E-8	0.003659
4.320000E-8	0.003700
4.325000E-8	0.003750
4.330000E-8	0.003444
4.335000E-8	0.003319
4.340000E-8	0.002844
4.345000E-8	0.002394
4.350000E-8	0.001991
4.355000E-8	0.001588
4.360000E-8	0.001278
4.365000E-8	0.001125
4.370000E-8	0.001187
4.375000E-8	0.001300
4.380000E-8	0.001563
4.385000E-8	0.001869
4.390000E-8	0.002278
4.395000E-8	0.002669
4.400000E-8	0.002984
4.405000E-8	0.003178
4.410000E-8	0.003353
4.415000E-8	0.003369
4.420000E-8	0.003250
4.425000E-8	0.003141
4.430000E-8	0.002919
4.435000E-8	0.002666
4.440000E-8	0.002294
4.445000E-8	0.002066
4.450000E-8	0.001856
4.455000E-8	0.001738
4.460000E-8	0.001672
4.465000E-8	0.001700
4.470000E-8	0.001803
4.475000E-8	0.001956
4.480000E-8	0.002053
4.485000E-8	0.002403
4.490000E-8	0.002647
4.495000E-8	0.002853
4.500000E-8	0.003016
4.505000E-8	0.003197
4.510000E-8	0.003313
4.515000E-8	0.003334
4.520000E-8	0.003134
4.525000E-8	0.003056
4.530000E-8	0.002828
4.535000E-8	0.002566
4.540000E-8	0.002381
4.545000E-8	0.002169
4.550000E-8	0.001891
4.555000E-8	0.001759
4.560000E-8	0.001559
4.565000E-8	0.001675
4.570000E-8	0.001797
4.575000E-8	0.002103
4.580000E-8	0.002313
4.585000E-8	0.002656
4.590000E-8	0.002919
4.595000E-8	0.003172
4.600000E-8	0.003269
4.605000E-8	0.003269
4.610000E-8	0.003378
4.615000E-8	0.003334
4.620000E-8	0.003141
4.625000E-8	0.002872
4.630000E-8	0.002628
4.635000E-8	0.002366
4.640000E-8	0.002050
4.645000E-8	0.001888
4.650000E-8	0.001619
4.655000E-8	0.001634
4.660000E-8	0.001650
4.665000E-8	0.001684
4.670000E-8	0.001856
4.675000E-8	0.002200
4.680000E-8	0.002509
4.685000E-8	0.002819
4.690000E-8	0.003166
4.695000E-8	0.003288
4.700000E-8	0.003525
4.705000E-8	0.003653
4.710000E-8	0.003631
4.715000E-8	0.003512
4.720000E-8	0.003259
4.725000E-8	0.003234
4.730000E-8	0.002881
4.735000E-8	0.002591
4.740000E-8	0.002328
4.745000E-8	0.002222
4.750000E-8	0.002063
4.755000E-8	0.002066
4.760000E-8	0.001869
4.765000E-8	0.002050
4.770000E-8	0.002122
4.775000E-8	0.002297
4.780000E-8	0.002441
4.785000E-8	0.002581
4.790000E-8	0.002909
4.795000E-8	0.003103
4.800000E-8	0.003225
4.805000E-8	0.003331
4.810000E-8	0.003259
4.815000E-8	0.003372
4.820000E-8	0.003156
4.825000E-8	0.002903
4.830000E-8	0.002587
4.835000E-8	0.002328
4.840000E-8	0.002050
4.845000E-8	0.001981
4.850000E-8	0.001831
4.855000E-8	0.001822
4.860000E-8	0.001753
4.865000E-8	0.001888
4.870000E-8	0.002028
4.875000E-8	0.002300
4.880000E-8	0.002434
4.885000E-8	0.002569
4.890000E-8	0.002713
4.895000E-8	0.002844
4.900000E-8	0.002888
4.905000E-8	0.002900
4.910000E-8	0.002950
4.915000E-8	0.002894
4.920000E-8	0.002622
4.925000E-8	0.002491
4.930000E-8	0.002328
4.935000E-8	0.002237
4.940000E-8	0.002131
4.945000E-8	0.002041
4.950000E-8	0.002056
4.955000E-8	0.002200
4.960000E-8	0.002184
4.965000E-8	0.002375
4.970000E-8	0.002409
4.975000E-8	0.002759
4.980000E-8	0.002878
4.985000E-8	0.003028
4.990000E-8	0.003184
4.995000E-8	0.003206
5.000000E-8	0.003147
5.005000E-8	0.003109
5.010000E-8	0.003044
5.015000E-8	0.002697
5.020000E-8	0.002466
5.025000E-8	0.002206
5.030000E-8	0.001906
5.035000E-8	0.001600
5.040000E-8	0.001469
5.045000E-8	0.001444
5.050000E-8	0.001494
5.055000E-8	0.001631
5.060000E-8	0.001819
5.065000E-8	0.002188
5.070000E-8	0.002494
5.075000E-8	0.002791
5.080000E-8	0.002966
5.085000E-8	0.003200
5.090000E-8	0.003469
5.095000E-8	0.003447
5.100000E-8	0.003459
5.105000E-8	0.003291
5.110000E-8	0.003091
5.115000E-8	0.002925
5.120000E-8	0.002497
5.125000E-8	0.002253
5.130000E-8	0.001884
5.135000E-8	0.001856
5.140000E-8	0.001550
5.145000E-8	0.001456
5.150000E-8	0.001553
5.155000E-8	0.001734
5.160000E-8	0.001853
5.165000E-8	0.002150
5.170000E-8	0.002413
5.175000E-8	0.002684
5.180000E-8	0.002853
5.185000E-8	0.002978
5.190000E-8	0.003122
5.195000E-8	0.003153
5.200000E-8	0.003234
5.205000E-8	0.003162
5.210000E-8	0.002978
5.215000E-8	0.002834
5.220000E-8	0.002553
5.225000E-8	0.002512
5.230000E-8	0.002284
5.235000E-8	0.002138
5.240000E-8	0.002059
5.245000E-8	0.001900
5.250000E-8	0.001853
5.255000E-8	0.001972
5.260000E-8	0.002116
5.265000E-8	0.002359
5.270000E-8	0.002522
5.275000E-8	0.002700
5.280000E-8	0.002747
5.285000E-8	0.002881
5.290000E-8	0.002897
5.295000E-8	0.002950
5.300000E-8	0.002813
5.305000E-8	0.002609
5.310000E-8	0.002466
5.315000E-8	0.002203
5.320000E-8	0.002019
5.325000E-8	0.001738
5.330000E-8	0.001644
5.335000E-8	0.001594
5.340000E-8	0.001456
5.345000E-8	0.001516
5.350000E-8	0.001666
5.355000E-8	0.001850
5.360000E-8	0.002128
5.365000E-8	0.002409
5.370000E-8	0.002631
5.375000E-8	0.002966
5.380000E-8	0.003022
5.385000E-8	0.003109
5.390000E-8	0.003191
5.395000E-8	0.003078
5.400000E-8	0.002994
5.405000E-8	0.002922
5.410000E-8	0.002619
5.415000E-8	0.002481
5.420000E-8	0.002350
5.425000E-8	0.002178
5.430000E-8	0.001931
5.435000E-8	0.001828
5.440000E-8	0.001719
5.445000E-8	0.001950
5.450000E-8	0.002047
5.455000E-8	0.002075
5.460000E-8	0.002181
5.465000E-8	0.002369
5.470000E-8	0.002700
5.475000E-8	0.003028
5.480000E-8	0.003087
5.485000E-8	0.003281
5.490000E-8	0.003272
5.495000E-8	0.003222
5.500000E-8	0.003103
5.505000E-8	0.002925
5.510000E-8	0.002656
5.515000E-8	0.002369
5.520000E-8	0.002225
5.525000E-8	0.002116
5.530000E-8	0.001913
5.535000E-8	0.001919
5.540000E-8	0.001975
5.545000E-8	0.002066
5.550000E-8	0.002041
5.555000E-8	0.002306
5.560000E-8	0.002394
5.565000E-8	0.002491
5.570000E-8	0.002575
5.575000E-8	0.002769
5.580000E-8	0.002713
5.585000E-8	0.002669
5.590000E-8	0.002500
5.595000E-8	0.002431
5.600000E-8	0.002166
5.605000E-8	0.002237
5.610000E-8	0.001994
5.615000E-8	0.001888
5.620000E-8	0.001769
5.625000E-8	0.001738
5.630000E-8	0.001694
5.635000E-8	0.001731
5.640000E-8	0.001828
5.645000E-8	0.002169
5.650000E-8	0.002213
5.655000E-8	0.002456
5.660000E-8	0.002516
5.665000E-8	0.002634
5.670000E-8	0.002766
5.675000E-8	0.002841
5.680000E-8	0.002691
5.685000E-8	0.002713
5.690000E-8	0.002525
5.695000E-8	0.002394
5.700000E-8	0.002203
5.705000E-8	0.002087
5.710000E-8	0.001975
5.715000E-8	0.001975
5.720000E-8	0.001875
5.725000E-8	0.001900
5.730000E-8	0.001937
5.735000E-8	0.002072
5.740000E-8	0.002275
5.745000E-8	0.002478
5.750000E-8	0.002656
5.755000E-8	0.002825
5.760000E-8	0.002906
5.765000E-8	0.003034
5.770000E-8	0.003072
5.775000E-8	0.003122
5.780000E-8	0.003150
5.785000E-8	0.003194
5.790000E-8	0.003069
5.795000E-8	0.003056
5.800000E-8	0.002781
5.805000E-8	0.002606
5.810000E-8	0.002378
5.815000E-8	0.002263
5.820000E-8	0.002009
5.825000E-8	0.002056
5.830000E-8	0.001950
5.835000E-8	0.001878
5.840000E-8	0.001991
5.845000E-8	0.002156
5.850000E-8	0.002309
5.855000E-8	0.002422
5.860000E-8	0.002556
5.865000E-8	0.002706
5.870000E-8	0.002831
5.875000E-8	0.002925
5.880000E-8	0.002872
5.885000E-8	0.002975
5.890000E-8	0.002856
5.895000E-8	0.002794
5.900000E-8	0.002706
5.905000E-8	0.002556
5.910000E-8	0.002331
5.915000E-8	0.002231
5.920000E-8	0.002103
5.925000E-8	0.002000
5.930000E-8	0.001975
5.935000E-8	0.002072
5.940000E-8	0.002081
5.945000E-8	0.002341
5.950000E-8	0.002491
5.955000E-8	0.002609
5.960000E-8	0.002684
5.965000E-8	0.002900
5.970000E-8	0.002916
5.975000E-8	0.003047
5.980000E-8	0.002994
5.985000E-8	0.003072
5.990000E-8	0.002972
5.995000E-8	0.002884
6.000000E-8	0.002656
6.005000E-8	0.002553
6.010000E-8	0.002366
6.015000E-8	0.002303
6.020000E-8	0.002237
6.025000E-8	0.002300
6.030000E-8	0.002194
6.035000E-8	0.002437
6.040000E-8	0.002544
6.045000E-8	0.002700
6.050000E-8	0.002900
6.055000E-8	0.003109
6.060000E-8	0.003162
6.065000E-8	0.003203
6.070000E-8	0.003241
6.075000E-8	0.003134
6.080000E-8	0.003056
6.085000E-8	0.003028
6.090000E-8	0.002797
6.095000E-8	0.002666
6.100000E-8	0.002447
6.105000E-8	0.002172
6.110000E-8	0.002041
6.115000E-8	0.001941
6.120000E-8	0.001684
6.125000E-8	0.001769
6.130000E-8	0.001925
6.135000E-8	0.001953
6.140000E-8	0.002094
6.145000E-8	0.002259
6.150000E-8	0.002503
6.155000E-8	0.002656
6.160000E-8	0.002872
6.165000E-8	0.003028
6.170000E-8	0.002966
6.175000E-8	0.002981
6.180000E-8	0.002941
6.185000E-8	0.002816
6.190000E-8	0.002534
6.195000E-8	0.002434
6.200000E-8	0.002122
6.205000E-8	0.001978
6.210000E-8	0.001906
6.215000E-8	0.001744
6.220000E-8	0.001716
6.225000E-8	0.001778
6.230000E-8	0.001966
6.235000E-8	0.002259
6.240000E-8	0.002381
6.245000E-8	0.002516
6.250000E-8	0.002700
6.255000E-8	0.002891
6.260000E-8	0.003047
6.265000E-8	0.003069
6.270000E-8	0.003050
6.275000E-8	0.003056
6.280000E-8	0.003003
6.285000E-8	0.002916
6.290000E-8	0.002641
6.295000E-8	0.002481
6.300000E-8	0.002300
6.305000E-8	0.002175
6.310000E-8	0.002087
6.315000E-8	0.002034
6.320000E-8	0.002084
6.325000E-8	0.002150
6.330000E-8	0.002225
6.335000E-8	0.002428
6.340000E-8	0.002494
6.345000E-8	0.002694
6.350000E-8	0.002813
6.355000E-8	0.002950
6.360000E-8	0.003016
6.365000E-8	0.002984
6.370000E-8	0.002925
6.375000E-8	0.002894
6.380000E-8	0.002969
6.385000E-8	0.002938
6.390000E-8	0.002719
6.395000E-8	0.002659
6.400000E-8	0.002566
6.405000E-8	0.002587
6.410000E-8	0.002578
6.415000E-8	0.002622
6.420000E-8	0.002528
6.425000E-8	0.002631
6.430000E-8	0.002691
6.435000E-8	0.002672
6.440000E-8	0.002694
6.445000E-8	0.002791
6.450000E-8	0.002834
6.455000E-8	0.002831
6.460000E-8	0.002725
6.465000E-8	0.002881
6.470000E-8	0.002756
6.475000E-8	0.002694
6.480000E-8	0.002662
6.485000E-8	0.002653
6.490000E-8	0.002534
6.495000E-8	0.002472
6.500000E-8	0.002494
6.505000E-8	0.002378
6.510000E-8	0.002391
6.515000E-8	0.002394
6.520000E-8	0.002281
6.525000E-8	0.002394
6.530000E-8	0.002456
6.535000E-8	0.002484
6.540000E-8	0.002566
6.545000E-8	0.002644
6.550000E-8	0.002744
6.555000E-8	0.002813
6.560000E-8	0.002688
6.565000E-8	0.002778
6.570000E-8	0.002753
6.575000E-8	0.002731
6.580000E-8	0.002613
6.585000E-8	0.002478
6.590000E-8	0.002356
6.595000E-8	0.002275
6.600000E-8	0.002244
6.605000E-8	0.002303
6.610000E-8	0.002266
6.615000E-8	0.002316
6.620000E-8	0.002313
6.625000E-8	0.002228
6.630000E-8	0.002237
6.635000E-8	0.002388
6.640000E-8	0.002384
6.645000E-8	0.002563
6.650000E-8	0.002675
6.655000E-8	0.002713
6.660000E-8	0.002675
6.665000E-8	0.002616
6.670000E-8	0.002503
6.675000E-8	0.002506
6.680000E-8	0.002350
6.685000E-8	0.002269
6.690000E-8	0.001991
6.695000E-8	0.002016
6.700000E-8	0.001988
6.705000E-8	0.002044
6.710000E-8	0.002012
6.715000E-8	0.002063
6.720000E-8	0.002063
6.725000E-8	0.002256
6.730000E-8	0.002381
6.735000E-8	0.002494
6.740000E-8	0.002584
6.745000E-8	0.002706
6.750000E-8	0.002725
6.755000E-8	0.002847
6.760000E-8	0.002772
6.765000E-8	0.002781
6.770000E-8	0.002659
6.775000E-8	0.002544
6.780000E-8	0.002400
6.785000E-8	0.002209
6.790000E-8	0.002044
6.795000E-8	0.001919
6.800000E-8	0.001753
6.805000E-8	0.001728
6.810000E-8	0.001847
6.815000E-8	0.001803
6.820000E-8	0.001934
6.825000E-8	0.002134
6.830000E-8	0.002272
6.835000E-8	0.002434
6.840000E-8	0.002616
6.845000E-8	0.002750
6.850000E-8	0.002903
6.855000E-8	0.003072
6.860000E-8	0.003150
6.865000E-8	0.003075
6.870000E-8	0.002997
6.875000E-8	0.002800
6.880000E-8	0.002544
6.885000E-8	0.002466
6.890000E-8	0.002306
6.895000E-8	0.002125
6.900000E-8	0.002038
6.905000E-8	0.002072
6.910000E-8	0.002087
6.915000E-8	0.002313
6.920000E-8	0.002319
6.925000E-8	0.002484
6.930000E-8	0.002675
6.935000E-8	0.002897
6.940000E-8	0.002809
6.945000E-8	0.002809
6.950000E-8	0.002744
6.955000E-8	0.002722
6.960000E-8	0.002553
6.965000E-8	0.002453
6.970000E-8	0.002378
6.975000E-8	0.002303
6.980000E-8	0.002166
6.985000E-8	0.002128
6.990000E-8	0.002072
6.995000E-8	0.002147
7.000000E-8	0.002263
7.005000E-8	0.002331
7.010000E-8	0.002406
7.015000E-8	0.002512
7.020000E-8	0.002488
7.025000E-8	0.002606
7.030000E-8	0.002594
7.035000E-8	0.002481
7.040000E-8	0.002463
7.045000E-8	0.002497
7.050000E-8	0.002309
7.055000E-8	0.002237
7.060000E-8	0.002225
7.065000E-8	0.002194
7.070000E-8	0.002106
7.075000E-8	0.002159
7.080000E-8	0.002178
7.085000E-8	0.002181
7.090000E-8	0.002103
7.095000E-8	0.002269
7.100000E-8	0.002353
7.105000E-8	0.002466
7.110000E-8	0.002525
7.115000E-8	0.002584
7.120000E-8	0.002634
7.125000E-8	0.002791
7.130000E-8	0.002744
7.135000E-8	0.002756
7.140000E-8	0.002675
7.145000E-8	0.002650
7.150000E-8	0.002609
7.155000E-8	0.002481
7.160000E-8	0.002200
7.165000E-8	0.002200
7.170000E-8	0.002087
7.175000E-8	0.002063
7.180000E-8	0.001944
7.185000E-8	0.001978
7.190000E-8	0.001947
7.195000E-8	0.002003
7.200000E-8	0.002028
7.205000E-8	0.002191
7.210000E-8	0.002247
7.215000E-8	0.002275
7.220000E-8	0.002375
7.225000E-8	0.002547
7.230000E-8	0.002534
7.235000E-8	0.002556
7.240000E-8	0.002506
7.245000E-8	0.002625
7.250000E-8	0.002631
7.255000E-8	0.002581
7.260000E-8	0.002450
7.265000E-8	0.002406
7.270000E-8	0.002341
7.275000E-8	0.002109
7.280000E-8	0.002000
7.285000E-8	0.002059
7.290000E-8	0.002134
7.295000E-8	0.002131
7.300000E-8	0.002209
7.305000E-8	0.002278
7.310000E-8	0.002403
7.315000E-8	0.002553
7.320000E-8	0.002644
7.325000E-8	0.002719
7.330000E-8	0.002731
7.335000E-8	0.002778
7.340000E-8	0.002691
7.345000E-8	0.002622
7.350000E-8	0.002453
7.355000E-8	0.002394
7.360000E-8	0.002203
7.365000E-8	0.002188
7.370000E-8	0.002169
7.375000E-8	0.002162
7.380000E-8	0.002106
7.385000E-8	0.002263
7.390000E-8	0.002206
7.395000E-8	0.002184
7.400000E-8	0.002178
7.405000E-8	0.002359
7.410000E-8	0.002453
7.415000E-8	0.002609
7.420000E-8	0.002650
7.425000E-8	0.002784
7.430000E-8	0.002909
7.435000E-8	0.002878
7.440000E-8	0.002909
7.445000E-8	0.002938
7.450000E-8	0.002766
7.455000E-8	0.002772
7.460000E-8	0.002656
7.465000E-8	0.002644
7.470000E-8	0.002463
7.475000E-8	0.002494
7.480000E-8	0.002466
7.485000E-8	0.002450
7.490000E-8	0.002481
7.495000E-8	0.002500
7.500000E-8	0.002541
7.505000E-8	0.002681
7.510000E-8	0.002744
7.515000E-8	0.002734
7.520000E-8	0.002781
7.525000E-8	0.002897
7.530000E-8	0.002788
7.535000E-8	0.002813
7.540000E-8	0.002603
7.545000E-8	0.002528
7.550000E-8	0.002491
7.555000E-8	0.002622
7.560000E-8	0.002503
7.565000E-8	0.002541
7.570000E-8	0.002488
7.575000E-8	0.002544
7.580000E-8	0.002528
7.585000E-8	0.002622
7.590000E-8	0.002591
7.595000E-8	0.002619
7.600000E-8	0.002569
7.605000E-8	0.002656
7.610000E-8	0.002725
7.615000E-8	0.002750
7.620000E-8	0.002650
7.625000E-8	0.002694
7.630000E-8	0.002650
7.635000E-8	0.002647
7.640000E-8	0.002459
7.645000E-8	0.002406
7.650000E-8	0.002447
7.655000E-8	0.002419
7.660000E-8	0.002334
7.665000E-8	0.002441
7.670000E-8	0.002297
7.675000E-8	0.002259
7.680000E-8	0.002306
7.685000E-8	0.002394
7.690000E-8	0.002397
7.695000E-8	0.002494
7.700000E-8	0.002484
7.705000E-8	0.002544
7.710000E-8	0.002750
7.715000E-8	0.002737
7.720000E-8	0.002659
7.725000E-8	0.002894
7.730000E-8	0.002891
7.735000E-8	0.002803
7.740000E-8	0.002644
7.745000E-8	0.002653
7.750000E-8	0.002500
7.755000E-8	0.002437
7.760000E-8	0.002306
7.765000E-8	0.002428
7.770000E-8	0.002384
7.775000E-8	0.002322
7.780000E-8	0.002469
7.785000E-8	0.002613
7.790000E-8	0.002697
7.795000E-8	0.002875
7.800000E-8	0.002881
7.805000E-8	0.002991
7.810000E-8	0.002981
7.815000E-8	0.003087
7.820000E-8	0.002900
7.825000E-8	0.002875
7.830000E-8	0.002734
7.835000E-8	0.002750
7.840000E-8	0.002706
7.845000E-8	0.002575
7.850000E-8	0.002512
7.855000E-8	0.002563
7.860000E-8	0.002450
7.865000E-8	0.002409
7.870000E-8	0.002422
7.875000E-8	0.002397
7.880000E-8	0.002353
7.885000E-8	0.002391
7.890000E-8	0.002437
7.895000E-8	0.002431
7.900000E-8	0.002378
7.905000E-8	0.002522
7.910000E-8	0.002597
7.915000E-8	0.002628
7.920000E-8	0.002662
7.925000E-8	0.002725
7.930000E-8	0.002709
7.935000E-8	0.002750
7.940000E-8	0.002647
7.945000E-8	0.002619
7.950000E-8	0.002431
7.955000E-8	0.002334
7.960000E-8	0.002247
7.965000E-8	0.002209
7.970000E-8	0.002147
7.975000E-8	0.002078
7.980000E-8	0.002056
7.985000E-8	0.002159
7.990000E-8	0.002178
7.995000E-8	0.002325
8.000000E-8	0.002506
8.005000E-8	0.002569
8.010000E-8	0.002697
8.015000E-8	0.002656
8.020000E-8	0.002650
8.025000E-8	0.002772
8.030000E-8	0.002709
8.035000E-8	0.002641
8.040000E-8	0.002519
8.045000E-8	0.002416
8.050000E-8	0.002322
8.055000E-8	0.002256
8.060000E-8	0.002250
8.065000E-8	0.002122
8.070000E-8	0.002166
8.075000E-8	0.002213
8.080000E-8	0.002203
8.085000E-8	0.002447
8.090000E-8	0.002538
8.095000E-8	0.002587
8.100000E-8	0.002644
8.105000E-8	0.002656
8.110000E-8	0.002638
8.115000E-8	0.002728
8.120000E-8	0.002650
8.125000E-8	0.002681
8.130000E-8	0.002609
8.135000E-8	0.002591
8.140000E-8	0.002509
8.145000E-8	0.002484
8.150000E-8	0.002444
8.155000E-8	0.002375
8.160000E-8	0.002353
8.165000E-8	0.002369
8.170000E-8	0.002378
8.175000E-8	0.002322
8.180000E-8	0.002331
8.185000E-8	0.002341
8.190000E-8	0.002428
8.195000E-8	0.002538
8.200000E-8	0.002563
8.205000E-8	0.002631
8.210000E-8	0.002659
8.215000E-8	0.002662
8.220000E-8	0.002581
8.225000E-8	0.002606
8.230000E-8	0.002356
8.235000E-8	0.002237
8.240000E-8	0.002153
8.245000E-8	0.002169
8.250000E-8	0.002125
8.255000E-8	0.002194
8.260000E-8	0.002012
8.265000E-8	0.002097
8.270000E-8	0.002113
8.275000E-8	0.002181
8.280000E-8	0.002178
8.285000E-8	0.002234
8.290000E-8	0.002184
8.295000E-8	0.002203
8.300000E-8	0.002147
8.305000E-8	0.002178
8.310000E-8	0.002294
8.315000E-8	0.002472
8.320000E-8	0.002600
8.325000E-8	0.002816
8.330000E-8	0.002863
8.335000E-8	0.002881
8.340000E-8	0.002894
8.345000E-8	0.002891
8.350000E-8	0.002844
8.355000E-8	0.002784
8.360000E-8	0.002691
8.365000E-8	0.002647
8.370000E-8	0.002528
8.375000E-8	0.002456
8.380000E-8	0.002428
8.385000E-8	0.002431
8.390000E-8	0.002297
8.395000E-8	0.002313
8.400000E-8	0.002369
8.405000E-8	0.002353
8.410000E-8	0.002416
8.415000E-8	0.002359
8.420000E-8	0.002363
8.425000E-8	0.002416
8.430000E-8	0.002391
8.435000E-8	0.002425
8.440000E-8	0.002406
8.445000E-8	0.002503
8.450000E-8	0.002491
8.455000E-8	0.002441
8.460000E-8	0.002394
8.465000E-8	0.002472
8.470000E-8	0.002422
8.475000E-8	0.002512
8.480000E-8	0.002456
8.485000E-8	0.002466
8.490000E-8	0.002497
8.495000E-8	0.002697
8.500000E-8	0.002603
8.505000E-8	0.002675
8.510000E-8	0.002675
8.515000E-8	0.002666
8.520000E-8	0.002644
8.525000E-8	0.002678
8.530000E-8	0.002538
8.535000E-8	0.002516
8.540000E-8	0.002413
8.545000E-8	0.002434
8.550000E-8	0.002334
8.555000E-8	0.002409
8.560000E-8	0.002162
8.565000E-8	0.002253
8.570000E-8	0.002216
8.575000E-8	0.002347
8.580000E-8	0.002372
8.585000E-8	0.002441
8.590000E-8	0.002550
8.595000E-8	0.002688
8.600000E-8	0.002778
8.605000E-8	0.003000
8.610000E-8	0.002975
8.615000E-8	0.002928
8.620000E-8	0.002841
8.625000E-8	0.002891
8.630000E-8	0.002691
8.635000E-8	0.002656
8.640000E-8	0.002509
8.645000E-8	0.002534
8.650000E-8	0.002466
8.655000E-8	0.002447
8.660000E-8	0.002469
8.665000E-8	0.002422
8.670000E-8	0.002450
8.675000E-8	0.002456
8.680000E-8	0.002488
8.685000E-8	0.002525
8.690000E-8	0.002528
8.695000E-8	0.002531
8.700000E-8	0.002444
8.705000E-8	0.002528
8.710000E-8	0.002384
8.715000E-8	0.002391
8.720000E-8	0.002381
8.725000E-8	0.002406
8.730000E-8	0.002231
8.735000E-8	0.002216
8.740000E-8	0.002191
8.745000E-8	0.002184
8.750000E-8	0.002250
8.755000E-8	0.002144
8.760000E-8	0.002172
8.765000E-8	0.002338
8.770000E-8	0.002375
8.775000E-8	0.002313
8.780000E-8	0.002338
8.785000E-8	0.002494
8.790000E-8	0.002456
8.795000E-8	0.002450
8.800000E-8	0.002534
8.805000E-8	0.002628
8.810000E-8	0.002547
8.815000E-8	0.002666
8.820000E-8	0.002622
8.825000E-8	0.002613
8.830000E-8	0.002522
8.835000E-8	0.002547
8.840000E-8	0.002403
8.845000E-8	0.002372
8.850000E-8	0.002369
8.855000E-8	0.002325
8.860000E-8	0.002241
8.865000E-8	0.002278
8.870000E-8	0.002297
8.875000E-8	0.002397
8.880000E-8	0.002378
8.885000E-8	0.002584
8.890000E-8	0.002584
8.895000E-8	0.002662
8.900000E-8	0.002681
8.905000E-8	0.002716
8.910000E-8	0.002737
8.915000E-8	0.002813
8.920000E-8	0.002750
8.925000E-8	0.002688
8.930000E-8	0.002634
8.935000E-8	0.002544
8.940000E-8	0.002409
8.945000E-8	0.002428
8.950000E-8	0.002431
8.955000E-8	0.002413
8.960000E-8	0.002237
8.965000E-8	0.002237
8.970000E-8	0.002313
8.975000E-8	0.002391
8.980000E-8	0.002306
8.985000E-8	0.002394
8.990000E-8	0.002403
8.995000E-8	0.002453
9.000000E-8	0.002437
9.005000E-8	0.002484
9.010000E-8	0.002463
9.015000E-8	0.002478
9.020000E-8	0.002428
9.025000E-8	0.002319
9.030000E-8	0.002378
9.035000E-8	0.002366
9.040000E-8	0.002366
9.045000E-8	0.002394
9.050000E-8	0.002378
9.055000E-8	0.002459
9.060000E-8	0.002369
9.065000E-8	0.002400
9.070000E-8	0.002297
9.075000E-8	0.002416
9.080000E-8	0.002244
9.085000E-8	0.002322
9.090000E-8	0.002359
9.095000E-8	0.002366
9.100000E-8	0.002216
9.105000E-8	0.002197
9.110000E-8	0.002191
9.115000E-8	0.002175
9.120000E-8	0.002178
9.125000E-8	0.002256
9.130000E-8	0.002278
9.135000E-8	0.002297
9.140000E-8	0.002278
9.145000E-8	0.002294
9.150000E-8	0.002253
9.155000E-8	0.002350
9.160000E-8	0.002428
9.165000E-8	0.002391
9.170000E-8	0.002359
9.175000E-8	0.002488
9.180000E-8	0.002431
9.185000E-8	0.002444
9.190000E-8	0.002419
9.195000E-8	0.002456
9.200000E-8	0.002528
9.205000E-8	0.002544
9.210000E-8	0.002519
9.215000E-8	0.002597
9.220000E-8	0.002600
9.225000E-8	0.002622
9.230000E-8	0.002550
9.235000E-8	0.002547
9.240000E-8	0.002469
9.245000E-8	0.002369
9.250000E-8	0.002403
9.255000E-8	0.002384
9.260000E-8	0.002419
9.265000E-8	0.002381
9.270000E-8	0.002406
9.275000E-8	0.002391
9.280000E-8	0.002503
9.285000E-8	0.002619
9.290000E-8	0.002541
9.295000E-8	0.002494
9.300000E-8	0.002334
9.305000E-8	0.002256
9.310000E-8	0.002250
9.315000E-8	0.002200
9.320000E-8	0.002153
9.325000E-8	0.002259
9.330000E-8	0.002131
9.335000E-8	0.002178
9.340000E-8	0.002241
9.345000E-8	0.002228
9.350000E-8	0.002256
9.355000E-8	0.002319
9.360000E-8	0.002237
9.365000E-8	0.002491
9.370000E-8	0.002463
9.375000E-8	0.002444
9.380000E-8	0.002575
9.385000E-8	0.002638
9.390000E-8	0.002631
9.395000E-8	0.002628
9.400000E-8	0.002575
9.405000E-8	0.002647
9.410000E-8	0.002647
9.415000E-8	0.002647
9.420000E-8	0.002559
9.425000E-8	0.002528
9.430000E-8	0.002459
9.435000E-8	0.002506
9.440000E-8	0.002444
9.445000E-8	0.002369
9.450000E-8	0.002453
9.455000E-8	0.002394
9.460000E-8	0.002428
9.465000E-8	0.002516
9.470000E-8	0.002503
9.475000E-8	0.002591
9.480000E-8	0.002478
9.485000E-8	0.002594
9.490000E-8	0.002647
9.495000E-8	0.002650
9.500000E-8	0.002525
9.505000E-8	0.002516
9.510000E-8	0.002397
9.515000E-8	0.002553
9.520000E-8	0.002447
9.525000E-8	0.002541
9.530000E-8	0.002466
9.535000E-8	0.002488
9.540000E-8	0.002444
9.545000E-8	0.002538
9.550000E-8	0.002587
9.555000E-8	0.002616
9.560000E-8	0.002591
9.565000E-8	0.002697
9.570000E-8	0.002672
9.575000E-8	0.002650
9.580000E-8	0.002625
9.585000E-8	0.002616
9.590000E-8	0.002600
9.595000E-8	0.002516
9.600000E-8	0.002413
9.605000E-8	0.002363
9.610000E-8	0.002347
9.615000E-8	0.002428
9.620000E-8	0.002437
9.625000E-8	0.002416
9.630000E-8	0.002569
9.635000E-8	0.002691
9.640000E-8	0.002744
9.645000E-8	0.002891
9.650000E-8	0.002878
9.655000E-8	0.002772
9.660000E-8	0.002853
9.665000E-8	0.002831
9.670000E-8	0.002747
9.675000E-8	0.002666
9.680000E-8	0.002581
9.685000E-8	0.002472
9.690000E-8	0.002428
9.695000E-8	0.002453
9.700000E-8	0.002325
9.705000E-8	0.002250
9.710000E-8	0.002181
9.715000E-8	0.002259
9.720000E-8	0.002087
9.725000E-8	0.002047
9.730000E-8	0.002131
9.735000E-8	0.002125
9.740000E-8	0.002128
9.745000E-8	0.002306
9.750000E-8	0.002322
9.755000E-8	0.002569
9.760000E-8	0.002653
9.765000E-8	0.002744
9.770000E-8	0.002659
9.775000E-8	0.002628
9.780000E-8	0.002581
9.785000E-8	0.002566
9.790000E-8	0.002466
9.795000E-8	0.002350
9.800000E-8	0.002269
9.805000E-8	0.002313
9.810000E-8	0.002188
9.815000E-8	0.002275
9.820000E-8	0.002259
9.825000E-8	0.002309
9.830000E-8	0.002328
9.835000E-8	0.002397
9.840000E-8	0.002456
9.845000E-8	0.002584
9.850000E-8	0.002531
9.855000E-8	0.002616
9.860000E-8	0.002684
9.865000E-8	0.002719
9.870000E-8	0.002672
9.875000E-8	0.002697
9.880000E-8	0.002631
9.885000E-8	0.002709
9.890000E-8	0.002616
9.895000E-8	0.002531
9.900000E-8	0.002428
9.905000E-8	0.002403
9.910000E-8	0.002300
9.915000E-8	0.002313
9.920000E-8	0.002153
9.925000E-8	0.002244
9.930000E-8	0.002231
9.935000E-8	0.002391
9.940000E-8	0.002341
9.945000E-8	0.002322
9.950000E-8	0.002525
9.955000E-8	0.002669
9.960000E-8	0.002659
9.965000E-8	0.002763
9.970000E-8	0.002737
9.975000E-8	0.002753
9.980000E-8	0.002656
9.985000E-8	0.002678
9.990000E-8	0.002547
9.995000E-8	0.002519
