LabVIEW Measurement	
Writer_Version	2
Reader_Version	2
Separator	Tab
Decimal_Separator	.
Multi_Headings	No
X_Columns	Multi
Time_Pref	Relative
Operator	TG lab
Date	2015/03/06
Time	16:27:13.1953577995300292969
***End_of_Header***	
	
Channels	1	
Samples	2000	
Date	1903/12/31	
Time	19:00:00	
X_Dimension	Time	
X0	0.0000000000000000E+0	
Delta_X	5.000000E-11	
***End_of_Header***		
X_Value	Untitled	Comment
0.000000	0.002219
5.000000E-11	0.002250
1.000000E-10	0.002206
1.500000E-10	0.002225
2.000000E-10	0.002234
2.500000E-10	0.002281
3.000000E-10	0.002284
3.500000E-10	0.002241
4.000000E-10	0.002181
4.500000E-10	0.002281
5.000000E-10	0.002375
5.500000E-10	0.002347
6.000000E-10	0.002378
6.500000E-10	0.002434
7.000000E-10	0.002437
7.500000E-10	0.002466
8.000000E-10	0.002509
8.500000E-10	0.002556
9.000000E-10	0.002444
9.500000E-10	0.002416
1.000000E-9	0.002409
1.050000E-9	0.002409
1.100000E-9	0.002316
1.150000E-9	0.002269
1.200000E-9	0.002234
1.250000E-9	0.002241
1.300000E-9	0.002244
1.350000E-9	0.002250
1.400000E-9	0.002150
1.450000E-9	0.002084
1.500000E-9	0.002128
1.550000E-9	0.002150
1.600000E-9	0.002116
1.650000E-9	0.002078
1.700000E-9	0.001984
1.750000E-9	0.001928
1.800000E-9	0.001922
1.850000E-9	0.001928
1.900000E-9	0.001969
1.950000E-9	0.002059
2.000000E-9	0.002075
2.050000E-9	0.002050
2.100000E-9	0.002097
2.150000E-9	0.002237
2.200000E-9	0.002206
2.250000E-9	0.002203
2.300000E-9	0.002094
2.350000E-9	0.002216
2.400000E-9	0.002278
2.450000E-9	0.002188
2.500000E-9	0.002094
2.550000E-9	0.002012
2.600000E-9	0.001991
2.650000E-9	0.002006
2.700000E-9	0.002003
2.750000E-9	0.002156
2.800000E-9	0.002153
2.850000E-9	0.002044
2.900000E-9	0.002134
2.950000E-9	0.002184
3.000000E-9	0.002175
3.050000E-9	0.002228
3.100000E-9	0.002275
3.150000E-9	0.002338
3.200000E-9	0.002216
3.250000E-9	0.002278
3.300000E-9	0.002334
3.350000E-9	0.002266
3.400000E-9	0.002125
3.450000E-9	0.002113
3.500000E-9	0.002000
3.550000E-9	0.002166
3.600000E-9	0.002175
3.650000E-9	0.002275
3.700000E-9	0.002347
3.750000E-9	0.002447
3.800000E-9	0.002488
3.850000E-9	0.002541
3.900000E-9	0.002494
3.950000E-9	0.002656
4.000000E-9	0.002584
4.050000E-9	0.002503
4.100000E-9	0.002450
4.150000E-9	0.002416
4.200000E-9	0.002481
4.250000E-9	0.002484
4.300000E-9	0.002525
4.350000E-9	0.002534
4.400000E-9	0.002488
4.450000E-9	0.002566
4.500000E-9	0.002600
4.550000E-9	0.002703
4.600000E-9	0.002691
4.650000E-9	0.002797
4.700000E-9	0.002772
4.750000E-9	0.002803
4.800000E-9	0.002863
4.850000E-9	0.002863
4.900000E-9	0.002916
4.950000E-9	0.002819
5.000000E-9	0.002875
5.050000E-9	0.002925
5.100000E-9	0.002888
5.150000E-9	0.002822
5.200000E-9	0.002878
5.250000E-9	0.002947
5.300000E-9	0.002981
5.350000E-9	0.002938
5.400000E-9	0.002866
5.450000E-9	0.002816
5.500000E-9	0.002625
5.550000E-9	0.002672
5.600000E-9	0.002625
5.650000E-9	0.002678
5.700000E-9	0.002653
5.750000E-9	0.002669
5.800000E-9	0.002616
5.850000E-9	0.002694
5.900000E-9	0.002644
5.950000E-9	0.002659
6.000000E-9	0.002634
6.050000E-9	0.002719
6.100000E-9	0.002675
6.150000E-9	0.002747
6.200000E-9	0.002713
6.250000E-9	0.002931
6.300000E-9	0.003041
6.350000E-9	0.003078
6.400000E-9	0.003072
6.450000E-9	0.003259
6.500000E-9	0.003350
6.550000E-9	0.003434
6.600000E-9	0.003459
6.650000E-9	0.003516
6.700000E-9	0.003475
6.750000E-9	0.003497
6.800000E-9	0.003609
6.850000E-9	0.003634
6.900000E-9	0.003788
6.950000E-9	0.004041
7.000000E-9	0.004125
7.050000E-9	0.004397
7.100000E-9	0.004644
7.150000E-9	0.004978
7.200000E-9	0.005378
7.250000E-9	0.005772
7.300000E-9	0.006175
7.350000E-9	0.006694
7.400000E-9	0.007372
7.450000E-9	0.008119
7.500000E-9	0.008916
7.550000E-9	0.010066
7.600000E-9	0.011219
7.650000E-9	0.012388
7.700000E-9	0.013475
7.750000E-9	0.014778
7.800000E-9	0.015859
7.850000E-9	0.016969
7.900000E-9	0.017875
7.950000E-9	0.018763
8.000000E-9	0.019681
8.050000E-9	0.020684
8.100000E-9	0.021763
8.150000E-9	0.022975
8.200000E-9	0.024131
8.250000E-9	0.025519
8.300000E-9	0.026691
8.350000E-9	0.027738
8.400000E-9	0.028597
8.450000E-9	0.029150
8.500000E-9	0.029281
8.550000E-9	0.029013
8.600000E-9	0.028169
8.650000E-9	0.027097
8.700000E-9	0.025566
8.750000E-9	0.023872
8.800000E-9	0.022047
8.850000E-9	0.020234
8.900000E-9	0.018559
8.950000E-9	0.017325
9.000000E-9	0.016391
9.050000E-9	0.015809
9.100000E-9	0.015669
9.150000E-9	0.015884
9.200000E-9	0.016387
9.250000E-9	0.016909
9.300000E-9	0.017484
9.350000E-9	0.018166
9.400000E-9	0.018419
9.450000E-9	0.018522
9.500000E-9	0.018259
9.550000E-9	0.017703
9.600000E-9	0.016950
9.650000E-9	0.015803
9.700000E-9	0.014575
9.750000E-9	0.013437
9.800000E-9	0.012278
9.850000E-9	0.011238
9.900000E-9	0.010241
9.950000E-9	0.009600
1.000000E-8	0.009188
1.005000E-8	0.009134
1.010000E-8	0.009234
1.015000E-8	0.009791
1.020000E-8	0.010359
1.025000E-8	0.011047
1.030000E-8	0.011597
1.035000E-8	0.012216
1.040000E-8	0.012534
1.045000E-8	0.012641
1.050000E-8	0.012503
1.055000E-8	0.012138
1.060000E-8	0.011356
1.065000E-8	0.010556
1.070000E-8	0.009588
1.075000E-8	0.008678
1.080000E-8	0.007794
1.085000E-8	0.007047
1.090000E-8	0.006344
1.095000E-8	0.005916
1.100000E-8	0.005806
1.105000E-8	0.005947
1.110000E-8	0.006112
1.115000E-8	0.006581
1.120000E-8	0.007025
1.125000E-8	0.007572
1.130000E-8	0.007991
1.135000E-8	0.008438
1.140000E-8	0.008825
1.145000E-8	0.008950
1.150000E-8	0.008772
1.155000E-8	0.008544
1.160000E-8	0.007966
1.165000E-8	0.007325
1.170000E-8	0.006506
1.175000E-8	0.005728
1.180000E-8	0.005069
1.185000E-8	0.004375
1.190000E-8	0.003847
1.195000E-8	0.003550
1.200000E-8	0.003494
1.205000E-8	0.003706
1.210000E-8	0.003825
1.215000E-8	0.004356
1.220000E-8	0.004859
1.225000E-8	0.005353
1.230000E-8	0.005822
1.235000E-8	0.006419
1.240000E-8	0.006694
1.245000E-8	0.006797
1.250000E-8	0.006803
1.255000E-8	0.006531
1.260000E-8	0.006031
1.265000E-8	0.005578
1.270000E-8	0.004922
1.275000E-8	0.004209
1.280000E-8	0.003522
1.285000E-8	0.002966
1.290000E-8	0.002528
1.295000E-8	0.002256
1.300000E-8	0.002162
1.305000E-8	0.002309
1.310000E-8	0.002719
1.315000E-8	0.003181
1.320000E-8	0.003797
1.325000E-8	0.004491
1.330000E-8	0.004981
1.335000E-8	0.005641
1.340000E-8	0.006081
1.345000E-8	0.006281
1.350000E-8	0.006034
1.355000E-8	0.005841
1.360000E-8	0.005381
1.365000E-8	0.004866
1.370000E-8	0.004063
1.375000E-8	0.003338
1.380000E-8	0.002678
1.385000E-8	0.002025
1.390000E-8	0.001747
1.395000E-8	0.001494
1.400000E-8	0.001366
1.405000E-8	0.001656
1.410000E-8	0.002097
1.415000E-8	0.002766
1.420000E-8	0.003400
1.425000E-8	0.004181
1.430000E-8	0.004644
1.435000E-8	0.005153
1.440000E-8	0.005413
1.445000E-8	0.005547
1.450000E-8	0.005409
1.455000E-8	0.005003
1.460000E-8	0.004481
1.465000E-8	0.003750
1.470000E-8	0.002950
1.475000E-8	0.002331
1.480000E-8	0.001644
1.485000E-8	0.001213
1.490000E-8	0.000878
1.495000E-8	0.000794
1.500000E-8	0.000928
1.505000E-8	0.001269
1.510000E-8	0.001897
1.515000E-8	0.002525
1.520000E-8	0.003172
1.525000E-8	0.003822
1.530000E-8	0.004416
1.535000E-8	0.004775
1.540000E-8	0.004909
1.545000E-8	0.004856
1.550000E-8	0.004619
1.555000E-8	0.004341
1.560000E-8	0.003684
1.565000E-8	0.003109
1.570000E-8	0.002322
1.575000E-8	0.001844
1.580000E-8	0.001331
1.585000E-8	0.001041
1.590000E-8	0.000916
1.595000E-8	0.001031
1.600000E-8	0.001122
1.605000E-8	0.001687
1.610000E-8	0.002244
1.615000E-8	0.002947
1.620000E-8	0.003516
1.625000E-8	0.004225
1.630000E-8	0.004734
1.635000E-8	0.005047
1.640000E-8	0.005081
1.645000E-8	0.004950
1.650000E-8	0.004550
1.655000E-8	0.003984
1.660000E-8	0.003309
1.665000E-8	0.002538
1.670000E-8	0.001859
1.675000E-8	0.001244
1.680000E-8	0.000788
1.685000E-8	0.000500
1.690000E-8	0.000516
1.695000E-8	0.000759
1.700000E-8	0.001247
1.705000E-8	0.001881
1.710000E-8	0.002600
1.715000E-8	0.003447
1.720000E-8	0.004069
1.725000E-8	0.004678
1.730000E-8	0.005066
1.735000E-8	0.005181
1.740000E-8	0.005031
1.745000E-8	0.004628
1.750000E-8	0.004059
1.755000E-8	0.003466
1.760000E-8	0.002509
1.765000E-8	0.001747
1.770000E-8	0.000975
1.775000E-8	0.000431
1.780000E-8	9.375000E-5
1.785000E-8	0.000103
1.790000E-8	0.000188
1.795000E-8	0.000606
1.800000E-8	0.001184
1.805000E-8	0.001969
1.810000E-8	0.002694
1.815000E-8	0.003416
1.820000E-8	0.003844
1.825000E-8	0.004331
1.830000E-8	0.004588
1.835000E-8	0.004472
1.840000E-8	0.004200
1.845000E-8	0.003759
1.850000E-8	0.003166
1.855000E-8	0.002597
1.860000E-8	0.001953
1.865000E-8	0.001425
1.870000E-8	0.000850
1.875000E-8	0.000506
1.880000E-8	0.000403
1.885000E-8	0.000525
1.890000E-8	0.000847
1.895000E-8	0.001244
1.900000E-8	0.001806
1.905000E-8	0.002500
1.910000E-8	0.003097
1.915000E-8	0.003706
1.920000E-8	0.004109
1.925000E-8	0.004359
1.930000E-8	0.004488
1.935000E-8	0.004413
1.940000E-8	0.004122
1.945000E-8	0.003650
1.950000E-8	0.003050
1.955000E-8	0.002484
1.960000E-8	0.001950
1.965000E-8	0.001400
1.970000E-8	0.001100
1.975000E-8	0.000969
1.980000E-8	0.000806
1.985000E-8	0.001034
1.990000E-8	0.001344
1.995000E-8	0.001650
2.000000E-8	0.002241
2.005000E-8	0.002741
2.010000E-8	0.003219
2.015000E-8	0.003681
2.020000E-8	0.004075
2.025000E-8	0.004419
2.030000E-8	0.004375
2.035000E-8	0.004269
2.040000E-8	0.003962
2.045000E-8	0.003559
2.050000E-8	0.002872
2.055000E-8	0.002281
2.060000E-8	0.001684
2.065000E-8	0.001088
2.070000E-8	0.000638
2.075000E-8	0.000350
2.080000E-8	0.000353
2.085000E-8	0.000503
2.090000E-8	0.000859
2.095000E-8	0.001256
2.100000E-8	0.001719
2.105000E-8	0.002416
2.110000E-8	0.002978
2.115000E-8	0.003644
2.120000E-8	0.003956
2.125000E-8	0.004175
2.130000E-8	0.004175
2.135000E-8	0.003984
2.140000E-8	0.003613
2.145000E-8	0.003122
2.150000E-8	0.002531
2.155000E-8	0.001959
2.160000E-8	0.001453
2.165000E-8	0.001012
2.170000E-8	0.000650
2.175000E-8	0.000453
2.180000E-8	0.000400
2.185000E-8	0.000734
2.190000E-8	0.000956
2.195000E-8	0.001484
2.200000E-8	0.002050
2.205000E-8	0.002613
2.210000E-8	0.003162
2.215000E-8	0.003697
2.220000E-8	0.004078
2.225000E-8	0.004181
2.230000E-8	0.004141
2.235000E-8	0.003953
2.240000E-8	0.003438
2.245000E-8	0.002956
2.250000E-8	0.002325
2.255000E-8	0.001763
2.260000E-8	0.001109
2.265000E-8	0.000753
2.270000E-8	0.000494
2.275000E-8	0.000416
2.280000E-8	0.000622
2.285000E-8	0.001044
2.290000E-8	0.001466
2.295000E-8	0.002069
2.300000E-8	0.002734
2.305000E-8	0.003394
2.310000E-8	0.003872
2.315000E-8	0.004275
2.320000E-8	0.004328
2.325000E-8	0.004322
2.330000E-8	0.004103
2.335000E-8	0.003678
2.340000E-8	0.003166
2.345000E-8	0.002500
2.350000E-8	0.001816
2.355000E-8	0.001159
2.360000E-8	0.000653
2.365000E-8	0.000259
2.370000E-8	0.000113
2.375000E-8	0.000116
2.380000E-8	0.000331
2.385000E-8	0.000747
2.390000E-8	0.001272
2.395000E-8	0.002059
2.400000E-8	0.002641
2.405000E-8	0.003316
2.410000E-8	0.003728
2.415000E-8	0.004081
2.420000E-8	0.003988
2.425000E-8	0.003931
2.430000E-8	0.003578
2.435000E-8	0.003044
2.440000E-8	0.002475
2.445000E-8	0.001888
2.450000E-8	0.001256
2.455000E-8	0.000753
2.460000E-8	0.000434
2.465000E-8	0.000225
2.470000E-8	0.000272
2.475000E-8	0.000606
2.480000E-8	0.000981
2.485000E-8	0.001538
2.490000E-8	0.002119
2.495000E-8	0.002753
2.500000E-8	0.003291
2.505000E-8	0.003719
2.510000E-8	0.004009
2.515000E-8	0.004141
2.520000E-8	0.003925
2.525000E-8	0.003587
2.530000E-8	0.003228
2.535000E-8	0.002609
2.540000E-8	0.002109
2.545000E-8	0.001641
2.550000E-8	0.001172
2.555000E-8	0.000847
2.560000E-8	0.000741
2.565000E-8	0.000725
2.570000E-8	0.001019
2.575000E-8	0.001362
2.580000E-8	0.001875
2.585000E-8	0.002409
2.590000E-8	0.002850
2.595000E-8	0.003375
2.600000E-8	0.003813
2.605000E-8	0.004194
2.610000E-8	0.004278
2.615000E-8	0.004087
2.620000E-8	0.003894
2.625000E-8	0.003469
2.630000E-8	0.003022
2.635000E-8	0.002469
2.640000E-8	0.001825
2.645000E-8	0.001297
2.650000E-8	0.000859
2.655000E-8	0.000563
2.660000E-8	0.000416
2.665000E-8	0.000412
2.670000E-8	0.000719
2.675000E-8	0.000991
2.680000E-8	0.001463
2.685000E-8	0.002109
2.690000E-8	0.002662
2.695000E-8	0.003188
2.700000E-8	0.003572
2.705000E-8	0.003794
2.710000E-8	0.003838
2.715000E-8	0.003825
2.720000E-8	0.003597
2.725000E-8	0.003188
2.730000E-8	0.002631
2.735000E-8	0.002122
2.740000E-8	0.001453
2.745000E-8	0.001112
2.750000E-8	0.000734
2.755000E-8	0.000469
2.760000E-8	0.000563
2.765000E-8	0.000834
2.770000E-8	0.001081
2.775000E-8	0.001522
2.780000E-8	0.001925
2.785000E-8	0.002413
2.790000E-8	0.002881
2.795000E-8	0.003222
2.800000E-8	0.003394
2.805000E-8	0.003572
2.810000E-8	0.003491
2.815000E-8	0.003422
2.820000E-8	0.003087
2.825000E-8	0.002678
2.830000E-8	0.002184
2.835000E-8	0.001794
2.840000E-8	0.001362
2.845000E-8	0.001116
2.850000E-8	0.000834
2.855000E-8	0.000688
2.860000E-8	0.000750
2.865000E-8	0.000872
2.870000E-8	0.001091
2.875000E-8	0.001534
2.880000E-8	0.002025
2.885000E-8	0.002494
2.890000E-8	0.003019
2.895000E-8	0.003403
2.900000E-8	0.003553
2.905000E-8	0.003678
2.910000E-8	0.003556
2.915000E-8	0.003322
2.920000E-8	0.002975
2.925000E-8	0.002419
2.930000E-8	0.001937
2.935000E-8	0.001538
2.940000E-8	0.001009
2.945000E-8	0.000669
2.950000E-8	0.000294
2.955000E-8	0.000256
2.960000E-8	0.000447
2.965000E-8	0.000722
2.970000E-8	0.001075
2.975000E-8	0.001663
2.980000E-8	0.002166
2.985000E-8	0.002688
2.990000E-8	0.003203
2.995000E-8	0.003478
3.000000E-8	0.003625
3.005000E-8	0.003806
3.010000E-8	0.003603
3.015000E-8	0.003166
3.020000E-8	0.002694
3.025000E-8	0.002253
3.030000E-8	0.001697
3.035000E-8	0.001256
3.040000E-8	0.000725
3.045000E-8	0.000578
3.050000E-8	0.000516
3.055000E-8	0.000575
3.060000E-8	0.000819
3.065000E-8	0.001178
3.070000E-8	0.001597
3.075000E-8	0.002075
3.080000E-8	0.002603
3.085000E-8	0.003122
3.090000E-8	0.003438
3.095000E-8	0.003731
3.100000E-8	0.003866
3.105000E-8	0.003809
3.110000E-8	0.003434
3.115000E-8	0.003184
3.120000E-8	0.002725
3.125000E-8	0.002334
3.130000E-8	0.001875
3.135000E-8	0.001475
3.140000E-8	0.001038
3.145000E-8	0.000769
3.150000E-8	0.000728
3.155000E-8	0.000869
3.160000E-8	0.001291
3.165000E-8	0.001700
3.170000E-8	0.002209
3.175000E-8	0.002797
3.180000E-8	0.003225
3.185000E-8	0.003716
3.190000E-8	0.003894
3.195000E-8	0.004094
3.200000E-8	0.004038
3.205000E-8	0.003884
3.210000E-8	0.003484
3.215000E-8	0.003119
3.220000E-8	0.002506
3.225000E-8	0.002022
3.230000E-8	0.001619
3.235000E-8	0.001144
3.240000E-8	0.000791
3.245000E-8	0.000722
3.250000E-8	0.000716
3.255000E-8	0.001041
3.260000E-8	0.001350
3.265000E-8	0.001700
3.270000E-8	0.002094
3.275000E-8	0.002484
3.280000E-8	0.002838
3.285000E-8	0.003172
3.290000E-8	0.003366
3.295000E-8	0.003331
3.300000E-8	0.003178
3.305000E-8	0.003025
3.310000E-8	0.002578
3.315000E-8	0.002178
3.320000E-8	0.001738
3.325000E-8	0.001313
3.330000E-8	0.000894
3.335000E-8	0.000603
3.340000E-8	0.000484
3.345000E-8	0.000534
3.350000E-8	0.000719
3.355000E-8	0.001012
3.360000E-8	0.001419
3.365000E-8	0.001941
3.370000E-8	0.002381
3.375000E-8	0.002825
3.380000E-8	0.003263
3.385000E-8	0.003459
3.390000E-8	0.003475
3.395000E-8	0.003563
3.400000E-8	0.003434
3.405000E-8	0.003206
3.410000E-8	0.002741
3.415000E-8	0.002375
3.420000E-8	0.002031
3.425000E-8	0.001534
3.430000E-8	0.001225
3.435000E-8	0.001019
3.440000E-8	0.000903
3.445000E-8	0.001016
3.450000E-8	0.001178
3.455000E-8	0.001531
3.460000E-8	0.001853
3.465000E-8	0.002225
3.470000E-8	0.002647
3.475000E-8	0.003063
3.480000E-8	0.003250
3.485000E-8	0.003603
3.490000E-8	0.003628
3.495000E-8	0.003453
3.500000E-8	0.003269
3.505000E-8	0.002919
3.510000E-8	0.002234
3.515000E-8	0.001925
3.520000E-8	0.001478
3.525000E-8	0.001206
3.530000E-8	0.000934
3.535000E-8	0.000753
3.540000E-8	0.000788
3.545000E-8	0.000947
3.550000E-8	0.001191
3.555000E-8	0.001616
3.560000E-8	0.002031
3.565000E-8	0.002397
3.570000E-8	0.002734
3.575000E-8	0.003063
3.580000E-8	0.003294
3.585000E-8	0.003444
3.590000E-8	0.003394
3.595000E-8	0.003206
3.600000E-8	0.002909
3.605000E-8	0.002491
3.610000E-8	0.002131
3.615000E-8	0.001719
3.620000E-8	0.001372
3.625000E-8	0.001063
3.630000E-8	0.000900
3.635000E-8	0.000950
3.640000E-8	0.001016
3.645000E-8	0.001281
3.650000E-8	0.001575
3.655000E-8	0.001919
3.660000E-8	0.002347
3.665000E-8	0.002622
3.670000E-8	0.002853
3.675000E-8	0.003150
3.680000E-8	0.003138
3.685000E-8	0.003366
3.690000E-8	0.003209
3.695000E-8	0.002947
3.700000E-8	0.002659
3.705000E-8	0.002172
3.710000E-8	0.001781
3.715000E-8	0.001419
3.720000E-8	0.000975
3.725000E-8	0.000803
3.730000E-8	0.000763
3.735000E-8	0.000803
3.740000E-8	0.000838
3.745000E-8	0.001178
3.750000E-8	0.001534
3.755000E-8	0.001913
3.760000E-8	0.002144
3.765000E-8	0.002541
3.770000E-8	0.002813
3.775000E-8	0.003097
3.780000E-8	0.003119
3.785000E-8	0.003072
3.790000E-8	0.002894
3.795000E-8	0.002737
3.800000E-8	0.002353
3.805000E-8	0.001984
3.810000E-8	0.001731
3.815000E-8	0.001397
3.820000E-8	0.001059
3.825000E-8	0.000934
3.830000E-8	0.000888
3.835000E-8	0.001009
3.840000E-8	0.001141
3.845000E-8	0.001506
3.850000E-8	0.001863
3.855000E-8	0.002225
3.860000E-8	0.002506
3.865000E-8	0.002953
3.870000E-8	0.003122
3.875000E-8	0.003344
3.880000E-8	0.003338
3.885000E-8	0.003278
3.890000E-8	0.003047
3.895000E-8	0.002775
3.900000E-8	0.002491
3.905000E-8	0.002184
3.910000E-8	0.001791
3.915000E-8	0.001519
3.920000E-8	0.001291
3.925000E-8	0.001147
3.930000E-8	0.001100
3.935000E-8	0.001219
3.940000E-8	0.001338
3.945000E-8	0.001581
3.950000E-8	0.001875
3.955000E-8	0.002231
3.960000E-8	0.002469
3.965000E-8	0.002731
3.970000E-8	0.002931
3.975000E-8	0.003016
3.980000E-8	0.003028
3.985000E-8	0.002969
3.990000E-8	0.002681
3.995000E-8	0.002422
4.000000E-8	0.002016
4.005000E-8	0.001691
4.010000E-8	0.001331
4.015000E-8	0.001228
4.020000E-8	0.001059
4.025000E-8	0.001125
4.030000E-8	0.001238
4.035000E-8	0.001516
4.040000E-8	0.001759
4.045000E-8	0.002219
4.050000E-8	0.002597
4.055000E-8	0.003006
4.060000E-8	0.003241
4.065000E-8	0.003413
4.070000E-8	0.003453
4.075000E-8	0.003384
4.080000E-8	0.003241
4.085000E-8	0.003000
4.090000E-8	0.002678
4.095000E-8	0.002322
4.100000E-8	0.001913
4.105000E-8	0.001594
4.110000E-8	0.001247
4.115000E-8	0.001206
4.120000E-8	0.001153
4.125000E-8	0.001097
4.130000E-8	0.001216
4.135000E-8	0.001397
4.140000E-8	0.001672
4.145000E-8	0.001981
4.150000E-8	0.002334
4.155000E-8	0.002575
4.160000E-8	0.002794
4.165000E-8	0.003028
4.170000E-8	0.003056
4.175000E-8	0.003087
4.180000E-8	0.002997
4.185000E-8	0.002906
4.190000E-8	0.002619
4.195000E-8	0.002334
4.200000E-8	0.001947
4.205000E-8	0.001691
4.210000E-8	0.001375
4.215000E-8	0.001178
4.220000E-8	0.001078
4.225000E-8	0.001119
4.230000E-8	0.001200
4.235000E-8	0.001572
4.240000E-8	0.001866
4.245000E-8	0.002222
4.250000E-8	0.002541
4.255000E-8	0.002881
4.260000E-8	0.003059
4.265000E-8	0.003084
4.270000E-8	0.003075
4.275000E-8	0.003072
4.280000E-8	0.002863
4.285000E-8	0.002534
4.290000E-8	0.002178
4.295000E-8	0.001984
4.300000E-8	0.001722
4.305000E-8	0.001572
4.310000E-8	0.001316
4.315000E-8	0.001241
4.320000E-8	0.001272
4.325000E-8	0.001481
4.330000E-8	0.001644
4.335000E-8	0.001900
4.340000E-8	0.002138
4.345000E-8	0.002431
4.350000E-8	0.002809
4.355000E-8	0.003012
4.360000E-8	0.003138
4.365000E-8	0.003153
4.370000E-8	0.003166
4.375000E-8	0.003009
4.380000E-8	0.002797
4.385000E-8	0.002584
4.390000E-8	0.002181
4.395000E-8	0.001941
4.400000E-8	0.001741
4.405000E-8	0.001588
4.410000E-8	0.001359
4.415000E-8	0.001291
4.420000E-8	0.001278
4.425000E-8	0.001437
4.430000E-8	0.001694
4.435000E-8	0.001859
4.440000E-8	0.002019
4.445000E-8	0.002437
4.450000E-8	0.002572
4.455000E-8	0.002872
4.460000E-8	0.003031
4.465000E-8	0.003078
4.470000E-8	0.002991
4.475000E-8	0.002797
4.480000E-8	0.002650
4.485000E-8	0.002450
4.490000E-8	0.002159
4.495000E-8	0.001959
4.500000E-8	0.001716
4.505000E-8	0.001584
4.510000E-8	0.001350
4.515000E-8	0.001450
4.520000E-8	0.001416
4.525000E-8	0.001569
4.530000E-8	0.001816
4.535000E-8	0.002050
4.540000E-8	0.002247
4.545000E-8	0.002422
4.550000E-8	0.002516
4.555000E-8	0.002581
4.560000E-8	0.002631
4.565000E-8	0.002709
4.570000E-8	0.002534
4.575000E-8	0.002328
4.580000E-8	0.002225
4.585000E-8	0.002009
4.590000E-8	0.001756
4.595000E-8	0.001600
4.600000E-8	0.001437
4.605000E-8	0.001406
4.610000E-8	0.001372
4.615000E-8	0.001584
4.620000E-8	0.001628
4.625000E-8	0.001803
4.630000E-8	0.002053
4.635000E-8	0.002275
4.640000E-8	0.002453
4.645000E-8	0.002656
4.650000E-8	0.002775
4.655000E-8	0.002903
4.660000E-8	0.002806
4.665000E-8	0.002706
4.670000E-8	0.002547
4.675000E-8	0.002394
4.680000E-8	0.002113
4.685000E-8	0.001941
4.690000E-8	0.001675
4.695000E-8	0.001491
4.700000E-8	0.001284
4.705000E-8	0.001181
4.710000E-8	0.001187
4.715000E-8	0.001372
4.720000E-8	0.001566
4.725000E-8	0.001888
4.730000E-8	0.002266
4.735000E-8	0.002550
4.740000E-8	0.002697
4.745000E-8	0.002850
4.750000E-8	0.002831
4.755000E-8	0.002941
4.760000E-8	0.002853
4.765000E-8	0.002678
4.770000E-8	0.002422
4.775000E-8	0.002256
4.780000E-8	0.001941
4.785000E-8	0.001772
4.790000E-8	0.001519
4.795000E-8	0.001375
4.800000E-8	0.001322
4.805000E-8	0.001266
4.810000E-8	0.001316
4.815000E-8	0.001556
4.820000E-8	0.001603
4.825000E-8	0.001831
4.830000E-8	0.002028
4.835000E-8	0.002291
4.840000E-8	0.002416
4.845000E-8	0.002528
4.850000E-8	0.002563
4.855000E-8	0.002534
4.860000E-8	0.002522
4.865000E-8	0.002528
4.870000E-8	0.002338
4.875000E-8	0.002156
4.880000E-8	0.001847
4.885000E-8	0.001809
4.890000E-8	0.001606
4.895000E-8	0.001528
4.900000E-8	0.001409
4.905000E-8	0.001428
4.910000E-8	0.001463
4.915000E-8	0.001612
4.920000E-8	0.001728
4.925000E-8	0.001916
4.930000E-8	0.002113
4.935000E-8	0.002356
4.940000E-8	0.002400
4.945000E-8	0.002613
4.950000E-8	0.002709
4.955000E-8	0.002691
4.960000E-8	0.002713
4.965000E-8	0.002675
4.970000E-8	0.002550
4.975000E-8	0.002338
4.980000E-8	0.002162
4.985000E-8	0.002069
4.990000E-8	0.001909
4.995000E-8	0.001822
5.000000E-8	0.001816
5.005000E-8	0.001884
5.010000E-8	0.001913
5.015000E-8	0.001972
5.020000E-8	0.002213
5.025000E-8	0.002434
5.030000E-8	0.002556
5.035000E-8	0.002650
5.040000E-8	0.002753
5.045000E-8	0.002828
5.050000E-8	0.002850
5.055000E-8	0.002766
5.060000E-8	0.002606
5.065000E-8	0.002403
5.070000E-8	0.002106
5.075000E-8	0.001944
5.080000E-8	0.001591
5.085000E-8	0.001550
5.090000E-8	0.001441
5.095000E-8	0.001403
5.100000E-8	0.001441
5.105000E-8	0.001553
5.110000E-8	0.001681
5.115000E-8	0.001997
5.120000E-8	0.002213
5.125000E-8	0.002553
5.130000E-8	0.002700
5.135000E-8	0.002903
5.140000E-8	0.002956
5.145000E-8	0.003028
5.150000E-8	0.002947
5.155000E-8	0.002731
5.160000E-8	0.002469
5.165000E-8	0.002341
5.170000E-8	0.001956
5.175000E-8	0.001831
5.180000E-8	0.001591
5.185000E-8	0.001534
5.190000E-8	0.001500
5.195000E-8	0.001484
5.200000E-8	0.001450
5.205000E-8	0.001694
5.210000E-8	0.001788
5.215000E-8	0.001897
5.220000E-8	0.001978
5.225000E-8	0.002244
5.230000E-8	0.002316
5.235000E-8	0.002525
5.240000E-8	0.002609
5.245000E-8	0.002675
5.250000E-8	0.002559
5.255000E-8	0.002519
5.260000E-8	0.002363
5.265000E-8	0.002219
5.270000E-8	0.002009
5.275000E-8	0.001822
5.280000E-8	0.001722
5.285000E-8	0.001588
5.290000E-8	0.001437
5.295000E-8	0.001441
5.300000E-8	0.001444
5.305000E-8	0.001566
5.310000E-8	0.001759
5.315000E-8	0.001966
5.320000E-8	0.002022
5.325000E-8	0.002331
5.330000E-8	0.002491
5.335000E-8	0.002581
5.340000E-8	0.002713
5.345000E-8	0.002737
5.350000E-8	0.002594
5.355000E-8	0.002506
5.360000E-8	0.002300
5.365000E-8	0.002156
5.370000E-8	0.001922
5.375000E-8	0.001747
5.380000E-8	0.001631
5.385000E-8	0.001556
5.390000E-8	0.001509
5.395000E-8	0.001559
5.400000E-8	0.001672
5.405000E-8	0.001884
5.410000E-8	0.001988
5.415000E-8	0.002278
5.420000E-8	0.002503
5.425000E-8	0.002784
5.430000E-8	0.002856
5.435000E-8	0.002984
5.440000E-8	0.002916
5.445000E-8	0.002938
5.450000E-8	0.002759
5.455000E-8	0.002506
5.460000E-8	0.002231
5.465000E-8	0.002012
5.470000E-8	0.001788
5.475000E-8	0.001606
5.480000E-8	0.001494
5.485000E-8	0.001513
5.490000E-8	0.001600
5.495000E-8	0.001784
5.500000E-8	0.001947
5.505000E-8	0.002138
5.510000E-8	0.002250
5.515000E-8	0.002497
5.520000E-8	0.002628
5.525000E-8	0.002669
5.530000E-8	0.002772
5.535000E-8	0.002709
5.540000E-8	0.002784
5.545000E-8	0.002581
5.550000E-8	0.002450
5.555000E-8	0.002259
5.560000E-8	0.002047
5.565000E-8	0.001928
5.570000E-8	0.001806
5.575000E-8	0.001734
5.580000E-8	0.001603
5.585000E-8	0.001522
5.590000E-8	0.001484
5.595000E-8	0.001606
5.600000E-8	0.001572
5.605000E-8	0.001719
5.610000E-8	0.001988
5.615000E-8	0.002100
5.620000E-8	0.002162
5.625000E-8	0.002281
5.630000E-8	0.002316
5.635000E-8	0.002356
5.640000E-8	0.002413
5.645000E-8	0.002338
5.650000E-8	0.002194
5.655000E-8	0.002066
5.660000E-8	0.001900
5.665000E-8	0.001684
5.670000E-8	0.001494
5.675000E-8	0.001334
5.680000E-8	0.001263
5.685000E-8	0.001316
5.690000E-8	0.001294
5.695000E-8	0.001478
5.700000E-8	0.001669
5.705000E-8	0.001878
5.710000E-8	0.002116
5.715000E-8	0.002316
5.720000E-8	0.002550
5.725000E-8	0.002813
5.730000E-8	0.002934
5.735000E-8	0.002956
5.740000E-8	0.002834
5.745000E-8	0.002788
5.750000E-8	0.002616
5.755000E-8	0.002381
5.760000E-8	0.002081
5.765000E-8	0.001888
5.770000E-8	0.001591
5.775000E-8	0.001538
5.780000E-8	0.001466
5.785000E-8	0.001591
5.790000E-8	0.001700
5.795000E-8	0.001722
5.800000E-8	0.001891
5.805000E-8	0.002103
5.810000E-8	0.002275
5.815000E-8	0.002469
5.820000E-8	0.002547
5.825000E-8	0.002725
5.830000E-8	0.002756
5.835000E-8	0.002647
5.840000E-8	0.002594
5.845000E-8	0.002525
5.850000E-8	0.002338
5.855000E-8	0.002175
5.860000E-8	0.002028
5.865000E-8	0.001894
5.870000E-8	0.001766
5.875000E-8	0.001775
5.880000E-8	0.001778
5.885000E-8	0.001819
5.890000E-8	0.001709
5.895000E-8	0.001853
5.900000E-8	0.001997
5.905000E-8	0.002059
5.910000E-8	0.002119
5.915000E-8	0.002184
5.920000E-8	0.002275
5.925000E-8	0.002153
5.930000E-8	0.002025
5.935000E-8	0.002006
5.940000E-8	0.001925
5.945000E-8	0.001909
5.950000E-8	0.001809
5.955000E-8	0.001791
5.960000E-8	0.001744
5.965000E-8	0.001747
5.970000E-8	0.001800
5.975000E-8	0.001781
5.980000E-8	0.001841
5.985000E-8	0.001916
5.990000E-8	0.001975
5.995000E-8	0.002050
6.000000E-8	0.002056
6.005000E-8	0.002116
6.010000E-8	0.002213
6.015000E-8	0.002281
6.020000E-8	0.002253
6.025000E-8	0.002169
6.030000E-8	0.002144
6.035000E-8	0.002209
6.040000E-8	0.002147
6.045000E-8	0.002119
6.050000E-8	0.001947
6.055000E-8	0.001931
6.060000E-8	0.001931
6.065000E-8	0.002003
6.070000E-8	0.001806
6.075000E-8	0.001881
6.080000E-8	0.001950
6.085000E-8	0.002034
6.090000E-8	0.002128
6.095000E-8	0.002169
6.100000E-8	0.002353
6.105000E-8	0.002534
6.110000E-8	0.002619
6.115000E-8	0.002681
6.120000E-8	0.002694
6.125000E-8	0.002741
6.130000E-8	0.002675
6.135000E-8	0.002553
6.140000E-8	0.002416
6.145000E-8	0.002331
6.150000E-8	0.002159
6.155000E-8	0.002147
6.160000E-8	0.001959
6.165000E-8	0.001878
6.170000E-8	0.001875
6.175000E-8	0.002047
6.180000E-8	0.002056
6.185000E-8	0.002053
6.190000E-8	0.002253
6.195000E-8	0.002353
6.200000E-8	0.002391
6.205000E-8	0.002525
6.210000E-8	0.002522
6.215000E-8	0.002525
6.220000E-8	0.002444
6.225000E-8	0.002400
6.230000E-8	0.002231
6.235000E-8	0.002191
6.240000E-8	0.002087
6.245000E-8	0.002106
6.250000E-8	0.001891
6.255000E-8	0.001800
6.260000E-8	0.001759
6.265000E-8	0.001800
6.270000E-8	0.001903
6.275000E-8	0.001972
6.280000E-8	0.002087
6.285000E-8	0.002331
6.290000E-8	0.002509
6.295000E-8	0.002706
6.300000E-8	0.002822
6.305000E-8	0.002900
6.310000E-8	0.002959
6.315000E-8	0.002888
6.320000E-8	0.002822
6.325000E-8	0.002688
6.330000E-8	0.002541
6.335000E-8	0.002422
6.340000E-8	0.002269
6.345000E-8	0.002200
6.350000E-8	0.002006
6.355000E-8	0.001841
6.360000E-8	0.001947
6.365000E-8	0.002009
6.370000E-8	0.001972
6.375000E-8	0.002228
6.380000E-8	0.002188
6.385000E-8	0.002397
6.390000E-8	0.002531
6.395000E-8	0.002600
6.400000E-8	0.002716
6.405000E-8	0.002741
6.410000E-8	0.002678
6.415000E-8	0.002600
6.420000E-8	0.002453
6.425000E-8	0.002431
6.430000E-8	0.002225
6.435000E-8	0.002053
6.440000E-8	0.001875
6.445000E-8	0.001722
6.450000E-8	0.001612
6.455000E-8	0.001559
6.460000E-8	0.001569
6.465000E-8	0.001672
6.470000E-8	0.001803
6.475000E-8	0.001888
6.480000E-8	0.001963
6.485000E-8	0.002253
6.490000E-8	0.002400
6.495000E-8	0.002525
6.500000E-8	0.002594
6.505000E-8	0.002613
6.510000E-8	0.002516
6.515000E-8	0.002478
6.520000E-8	0.002481
6.525000E-8	0.002406
6.530000E-8	0.002244
6.535000E-8	0.002144
6.540000E-8	0.002069
6.545000E-8	0.001878
6.550000E-8	0.001897
6.555000E-8	0.001816
6.560000E-8	0.001844
6.565000E-8	0.001900
6.570000E-8	0.001841
6.575000E-8	0.001941
6.580000E-8	0.002138
6.585000E-8	0.002222
6.590000E-8	0.002325
6.595000E-8	0.002409
6.600000E-8	0.002463
6.605000E-8	0.002634
6.610000E-8	0.002516
6.615000E-8	0.002472
6.620000E-8	0.002347
6.625000E-8	0.002297
6.630000E-8	0.002281
6.635000E-8	0.002237
6.640000E-8	0.002109
6.645000E-8	0.002044
6.650000E-8	0.001978
6.655000E-8	0.002072
6.660000E-8	0.002056
6.665000E-8	0.002116
6.670000E-8	0.002169
6.675000E-8	0.002259
6.680000E-8	0.002347
6.685000E-8	0.002409
6.690000E-8	0.002422
6.695000E-8	0.002544
6.700000E-8	0.002397
6.705000E-8	0.002334
6.710000E-8	0.002181
6.715000E-8	0.002206
6.720000E-8	0.002191
6.725000E-8	0.002272
6.730000E-8	0.002034
6.735000E-8	0.001981
6.740000E-8	0.002003
6.745000E-8	0.002072
6.750000E-8	0.002128
6.755000E-8	0.002106
6.760000E-8	0.002166
6.765000E-8	0.002250
6.770000E-8	0.002175
6.775000E-8	0.002244
6.780000E-8	0.002169
6.785000E-8	0.002194
6.790000E-8	0.002119
6.795000E-8	0.002200
6.800000E-8	0.002156
6.805000E-8	0.002169
6.810000E-8	0.002156
6.815000E-8	0.002203
6.820000E-8	0.002228
6.825000E-8	0.002178
6.830000E-8	0.002109
6.835000E-8	0.002084
6.840000E-8	0.002016
6.845000E-8	0.002034
6.850000E-8	0.002003
6.855000E-8	0.001997
6.860000E-8	0.002022
6.865000E-8	0.002084
6.870000E-8	0.002116
6.875000E-8	0.002269
6.880000E-8	0.002356
6.885000E-8	0.002484
6.890000E-8	0.002509
6.895000E-8	0.002672
6.900000E-8	0.002650
6.905000E-8	0.002578
6.910000E-8	0.002475
6.915000E-8	0.002491
6.920000E-8	0.002206
6.925000E-8	0.002156
6.930000E-8	0.002012
6.935000E-8	0.001928
6.940000E-8	0.001897
6.945000E-8	0.001822
6.950000E-8	0.001741
6.955000E-8	0.001934
6.960000E-8	0.002038
6.965000E-8	0.002116
6.970000E-8	0.002256
6.975000E-8	0.002319
6.980000E-8	0.002413
6.985000E-8	0.002447
6.990000E-8	0.002459
6.995000E-8	0.002447
7.000000E-8	0.002459
7.005000E-8	0.002484
7.010000E-8	0.002278
7.015000E-8	0.002131
7.020000E-8	0.001972
7.025000E-8	0.001816
7.030000E-8	0.001766
7.035000E-8	0.001809
7.040000E-8	0.001831
7.045000E-8	0.001919
7.050000E-8	0.001847
7.055000E-8	0.002028
7.060000E-8	0.002019
7.065000E-8	0.002072
7.070000E-8	0.002147
7.075000E-8	0.002159
7.080000E-8	0.002175
7.085000E-8	0.002194
7.090000E-8	0.002134
7.095000E-8	0.002175
7.100000E-8	0.002253
7.105000E-8	0.002275
7.110000E-8	0.002266
7.115000E-8	0.002241
7.120000E-8	0.002081
7.125000E-8	0.002134
7.130000E-8	0.001934
7.135000E-8	0.001928
7.140000E-8	0.001925
7.145000E-8	0.001906
7.150000E-8	0.001894
7.155000E-8	0.001984
7.160000E-8	0.001972
7.165000E-8	0.002122
7.170000E-8	0.002206
7.175000E-8	0.002325
7.180000E-8	0.002413
7.185000E-8	0.002525
7.190000E-8	0.002587
7.195000E-8	0.002644
7.200000E-8	0.002600
7.205000E-8	0.002597
7.210000E-8	0.002519
7.215000E-8	0.002538
7.220000E-8	0.002350
7.225000E-8	0.002297
7.230000E-8	0.002241
7.235000E-8	0.002256
7.240000E-8	0.002138
7.245000E-8	0.002188
7.250000E-8	0.002253
7.255000E-8	0.002234
7.260000E-8	0.002269
7.265000E-8	0.002384
7.270000E-8	0.002469
7.275000E-8	0.002522
7.280000E-8	0.002556
7.285000E-8	0.002753
7.290000E-8	0.002666
7.295000E-8	0.002700
7.300000E-8	0.002750
7.305000E-8	0.002550
7.310000E-8	0.002441
7.315000E-8	0.002397
7.320000E-8	0.002097
7.325000E-8	0.002003
7.330000E-8	0.001881
7.335000E-8	0.001919
7.340000E-8	0.001916
7.345000E-8	0.001928
7.350000E-8	0.002044
7.355000E-8	0.002144
7.360000E-8	0.002237
7.365000E-8	0.002294
7.370000E-8	0.002441
7.375000E-8	0.002550
7.380000E-8	0.002631
7.385000E-8	0.002528
7.390000E-8	0.002481
7.395000E-8	0.002425
7.400000E-8	0.002300
7.405000E-8	0.002106
7.410000E-8	0.002066
7.415000E-8	0.001944
7.420000E-8	0.001903
7.425000E-8	0.001772
7.430000E-8	0.001675
7.435000E-8	0.001803
7.440000E-8	0.001784
7.445000E-8	0.001953
7.450000E-8	0.002025
7.455000E-8	0.002144
7.460000E-8	0.002197
7.465000E-8	0.002237
7.470000E-8	0.002338
7.475000E-8	0.002369
7.480000E-8	0.002375
7.485000E-8	0.002388
7.490000E-8	0.002338
7.495000E-8	0.002181
7.500000E-8	0.002081
7.505000E-8	0.002144
7.510000E-8	0.002094
7.515000E-8	0.002116
7.520000E-8	0.002106
7.525000E-8	0.002125
7.530000E-8	0.002197
7.535000E-8	0.002219
7.540000E-8	0.002269
7.545000E-8	0.002397
7.550000E-8	0.002372
7.555000E-8	0.002391
7.560000E-8	0.002444
7.565000E-8	0.002434
7.570000E-8	0.002450
7.575000E-8	0.002500
7.580000E-8	0.002488
7.585000E-8	0.002525
7.590000E-8	0.002334
7.595000E-8	0.002394
7.600000E-8	0.002216
7.605000E-8	0.002222
7.610000E-8	0.002125
7.615000E-8	0.002047
7.620000E-8	0.001875
7.625000E-8	0.001834
7.630000E-8	0.001916
7.635000E-8	0.001919
7.640000E-8	0.001869
7.645000E-8	0.001906
7.650000E-8	0.002025
7.655000E-8	0.002081
7.660000E-8	0.002106
7.665000E-8	0.002263
7.670000E-8	0.002369
7.675000E-8	0.002488
7.680000E-8	0.002481
7.685000E-8	0.002425
7.690000E-8	0.002437
7.695000E-8	0.002391
7.700000E-8	0.002259
7.705000E-8	0.002263
7.710000E-8	0.002097
7.715000E-8	0.002069
7.720000E-8	0.002100
7.725000E-8	0.002194
7.730000E-8	0.002138
7.735000E-8	0.002288
7.740000E-8	0.002172
7.745000E-8	0.002316
7.750000E-8	0.002319
7.755000E-8	0.002397
7.760000E-8	0.002309
7.765000E-8	0.002247
7.770000E-8	0.002172
7.775000E-8	0.002225
7.780000E-8	0.002178
7.785000E-8	0.002309
7.790000E-8	0.002200
7.795000E-8	0.002209
7.800000E-8	0.002231
7.805000E-8	0.002191
7.810000E-8	0.002087
7.815000E-8	0.002128
7.820000E-8	0.002019
7.825000E-8	0.001972
7.830000E-8	0.002025
7.835000E-8	0.002012
7.840000E-8	0.002056
7.845000E-8	0.002059
7.850000E-8	0.002125
7.855000E-8	0.002184
7.860000E-8	0.002234
7.865000E-8	0.002347
7.870000E-8	0.002472
7.875000E-8	0.002566
7.880000E-8	0.002400
7.885000E-8	0.002338
7.890000E-8	0.002241
7.895000E-8	0.002162
7.900000E-8	0.002087
7.905000E-8	0.001959
7.910000E-8	0.001825
7.915000E-8	0.001937
7.920000E-8	0.001894
7.925000E-8	0.001978
7.930000E-8	0.002116
7.935000E-8	0.002150
7.940000E-8	0.002263
7.945000E-8	0.002231
7.950000E-8	0.002266
7.955000E-8	0.002375
7.960000E-8	0.002300
7.965000E-8	0.002331
7.970000E-8	0.002313
7.975000E-8	0.002328
7.980000E-8	0.002250
7.985000E-8	0.002162
7.990000E-8	0.002028
7.995000E-8	0.002006
8.000000E-8	0.002009
8.005000E-8	0.002012
8.010000E-8	0.002078
8.015000E-8	0.002056
8.020000E-8	0.002216
8.025000E-8	0.002166
8.030000E-8	0.002113
8.035000E-8	0.002166
8.040000E-8	0.002225
8.045000E-8	0.002294
8.050000E-8	0.002250
8.055000E-8	0.002363
8.060000E-8	0.002384
8.065000E-8	0.002397
8.070000E-8	0.002419
8.075000E-8	0.002344
8.080000E-8	0.002441
8.085000E-8	0.002475
8.090000E-8	0.002369
8.095000E-8	0.002297
8.100000E-8	0.002206
8.105000E-8	0.002066
8.110000E-8	0.002053
8.115000E-8	0.001959
8.120000E-8	0.001966
8.125000E-8	0.002006
8.130000E-8	0.002000
8.135000E-8	0.002144
8.140000E-8	0.002147
8.145000E-8	0.002253
8.150000E-8	0.002225
8.155000E-8	0.002281
8.160000E-8	0.002250
8.165000E-8	0.002228
8.170000E-8	0.002222
8.175000E-8	0.002213
8.180000E-8	0.002066
8.185000E-8	0.001991
8.190000E-8	0.001863
8.195000E-8	0.001775
8.200000E-8	0.001700
8.205000E-8	0.001728
8.210000E-8	0.001641
8.215000E-8	0.001834
8.220000E-8	0.001753
8.225000E-8	0.001781
8.230000E-8	0.001888
8.235000E-8	0.002084
8.240000E-8	0.002156
8.245000E-8	0.002231
8.250000E-8	0.002150
8.255000E-8	0.002162
8.260000E-8	0.002237
8.265000E-8	0.002281
8.270000E-8	0.002197
8.275000E-8	0.002219
8.280000E-8	0.002106
8.285000E-8	0.002178
8.290000E-8	0.002141
8.295000E-8	0.002091
8.300000E-8	0.002075
8.305000E-8	0.002025
8.310000E-8	0.002022
8.315000E-8	0.002050
8.320000E-8	0.002169
8.325000E-8	0.002134
8.330000E-8	0.002087
8.335000E-8	0.002241
8.340000E-8	0.002200
8.345000E-8	0.002328
8.350000E-8	0.002472
8.355000E-8	0.002628
8.360000E-8	0.002669
8.365000E-8	0.002681
8.370000E-8	0.002569
8.375000E-8	0.002447
8.380000E-8	0.002394
8.385000E-8	0.002222
8.390000E-8	0.002119
8.395000E-8	0.002053
8.400000E-8	0.001884
8.405000E-8	0.001813
8.410000E-8	0.001672
8.415000E-8	0.001809
8.420000E-8	0.001769
8.425000E-8	0.001766
8.430000E-8	0.001869
8.435000E-8	0.002078
8.440000E-8	0.002044
8.445000E-8	0.002147
8.450000E-8	0.002122
8.455000E-8	0.002309
8.460000E-8	0.002247
8.465000E-8	0.002225
8.470000E-8	0.002138
8.475000E-8	0.002063
8.480000E-8	0.001994
8.485000E-8	0.002000
8.490000E-8	0.001844
8.495000E-8	0.001794
8.500000E-8	0.001797
8.505000E-8	0.001956
8.510000E-8	0.001947
8.515000E-8	0.002019
8.520000E-8	0.001997
8.525000E-8	0.002056
8.530000E-8	0.002091
8.535000E-8	0.002069
8.540000E-8	0.002019
8.545000E-8	0.002175
8.550000E-8	0.002138
8.555000E-8	0.002181
8.560000E-8	0.002191
8.565000E-8	0.002209
8.570000E-8	0.002213
8.575000E-8	0.002266
8.580000E-8	0.002144
8.585000E-8	0.002003
8.590000E-8	0.002019
8.595000E-8	0.001888
8.600000E-8	0.001769
8.605000E-8	0.001859
8.610000E-8	0.001891
8.615000E-8	0.001922
8.620000E-8	0.001866
8.625000E-8	0.001981
8.630000E-8	0.001994
8.635000E-8	0.002181
8.640000E-8	0.002162
8.645000E-8	0.002066
8.650000E-8	0.002091
8.655000E-8	0.002106
8.660000E-8	0.002147
8.665000E-8	0.002078
8.670000E-8	0.002009
8.675000E-8	0.001969
8.680000E-8	0.001994
8.685000E-8	0.002041
8.690000E-8	0.002025
8.695000E-8	0.002034
8.700000E-8	0.001966
8.705000E-8	0.002091
8.710000E-8	0.002006
8.715000E-8	0.002075
8.720000E-8	0.002128
8.725000E-8	0.002166
8.730000E-8	0.002119
8.735000E-8	0.002284
8.740000E-8	0.002294
8.745000E-8	0.002341
8.750000E-8	0.002319
8.755000E-8	0.002303
8.760000E-8	0.002237
8.765000E-8	0.002134
8.770000E-8	0.001869
8.775000E-8	0.001875
8.780000E-8	0.001778
8.785000E-8	0.001709
8.790000E-8	0.001603
8.795000E-8	0.001769
8.800000E-8	0.001678
8.805000E-8	0.001881
8.810000E-8	0.001925
8.815000E-8	0.002016
8.820000E-8	0.001969
8.825000E-8	0.002103
8.830000E-8	0.001959
8.835000E-8	0.001981
8.840000E-8	0.001953
8.845000E-8	0.002016
8.850000E-8	0.001956
8.855000E-8	0.002006
8.860000E-8	0.001956
8.865000E-8	0.001878
8.870000E-8	0.001722
8.875000E-8	0.001813
8.880000E-8	0.001797
8.885000E-8	0.001856
8.890000E-8	0.001834
8.895000E-8	0.001916
8.900000E-8	0.001972
8.905000E-8	0.002053
8.910000E-8	0.002113
8.915000E-8	0.002363
8.920000E-8	0.002313
8.925000E-8	0.002394
8.930000E-8	0.002419
8.935000E-8	0.002484
8.940000E-8	0.002531
8.945000E-8	0.002419
8.950000E-8	0.002350
8.955000E-8	0.002344
8.960000E-8	0.002350
8.965000E-8	0.002119
8.970000E-8	0.001997
8.975000E-8	0.001975
8.980000E-8	0.001928
8.985000E-8	0.001884
8.990000E-8	0.001897
8.995000E-8	0.001913
9.000000E-8	0.002028
9.005000E-8	0.002138
9.010000E-8	0.002116
9.015000E-8	0.002144
9.020000E-8	0.002263
9.025000E-8	0.002191
9.030000E-8	0.002237
9.035000E-8	0.002228
9.040000E-8	0.002169
9.045000E-8	0.002200
9.050000E-8	0.002275
9.055000E-8	0.002294
9.060000E-8	0.002338
9.065000E-8	0.002375
9.070000E-8	0.002275
9.075000E-8	0.002241
9.080000E-8	0.002116
9.085000E-8	0.002066
9.090000E-8	0.001972
9.095000E-8	0.001816
9.100000E-8	0.001775
9.105000E-8	0.001788
9.110000E-8	0.001838
9.115000E-8	0.001934
9.120000E-8	0.002022
9.125000E-8	0.002150
9.130000E-8	0.002228
9.135000E-8	0.002338
9.140000E-8	0.002400
9.145000E-8	0.002478
9.150000E-8	0.002328
9.155000E-8	0.002381
9.160000E-8	0.002191
9.165000E-8	0.002122
9.170000E-8	0.002038
9.175000E-8	0.001950
9.180000E-8	0.001937
9.185000E-8	0.001928
9.190000E-8	0.002009
9.195000E-8	0.002078
9.200000E-8	0.002178
9.205000E-8	0.002150
9.210000E-8	0.002222
9.215000E-8	0.002200
9.220000E-8	0.002244
9.225000E-8	0.002241
9.230000E-8	0.002209
9.235000E-8	0.002144
9.240000E-8	0.002047
9.245000E-8	0.002081
9.250000E-8	0.001956
9.255000E-8	0.002047
9.260000E-8	0.001978
9.265000E-8	0.001947
9.270000E-8	0.001888
9.275000E-8	0.001813
9.280000E-8	0.001813
9.285000E-8	0.001825
9.290000E-8	0.001784
9.295000E-8	0.001800
9.300000E-8	0.001909
9.305000E-8	0.001947
9.310000E-8	0.001969
9.315000E-8	0.002141
9.320000E-8	0.002206
9.325000E-8	0.002159
9.330000E-8	0.002213
9.335000E-8	0.002191
9.340000E-8	0.002244
9.345000E-8	0.002181
9.350000E-8	0.002234
9.355000E-8	0.002222
9.360000E-8	0.002044
9.365000E-8	0.002094
9.370000E-8	0.002072
9.375000E-8	0.002178
9.380000E-8	0.002172
9.385000E-8	0.002259
9.390000E-8	0.002247
9.395000E-8	0.002453
9.400000E-8	0.002394
9.405000E-8	0.002303
9.410000E-8	0.002159
9.415000E-8	0.002153
9.420000E-8	0.002063
9.425000E-8	0.002066
9.430000E-8	0.001944
9.435000E-8	0.001947
9.440000E-8	0.001950
9.445000E-8	0.001931
9.450000E-8	0.001859
9.455000E-8	0.001966
9.460000E-8	0.001966
9.465000E-8	0.001969
9.470000E-8	0.001969
9.475000E-8	0.002038
9.480000E-8	0.002003
9.485000E-8	0.002059
9.490000E-8	0.002147
9.495000E-8	0.002138
9.500000E-8	0.002194
9.505000E-8	0.002222
9.510000E-8	0.002206
9.515000E-8	0.002250
9.520000E-8	0.002200
9.525000E-8	0.002244
9.530000E-8	0.002281
9.535000E-8	0.002356
9.540000E-8	0.002234
9.545000E-8	0.002306
9.550000E-8	0.002194
9.555000E-8	0.002178
9.560000E-8	0.002178
9.565000E-8	0.002184
9.570000E-8	0.002109
9.575000E-8	0.002113
9.580000E-8	0.002097
9.585000E-8	0.002172
9.590000E-8	0.002162
9.595000E-8	0.002081
9.600000E-8	0.002162
9.605000E-8	0.002134
9.610000E-8	0.002134
9.615000E-8	0.002181
9.620000E-8	0.002169
9.625000E-8	0.002209
9.630000E-8	0.002228
9.635000E-8	0.002234
9.640000E-8	0.002156
9.645000E-8	0.002250
9.650000E-8	0.002119
9.655000E-8	0.002272
9.660000E-8	0.002237
9.665000E-8	0.002278
9.670000E-8	0.002313
9.675000E-8	0.002284
9.680000E-8	0.002259
9.685000E-8	0.002247
9.690000E-8	0.002269
9.695000E-8	0.002241
9.700000E-8	0.002234
9.705000E-8	0.002147
9.710000E-8	0.002200
9.715000E-8	0.002184
9.720000E-8	0.002119
9.725000E-8	0.002166
9.730000E-8	0.002200
9.735000E-8	0.002134
9.740000E-8	0.002172
9.745000E-8	0.002250
9.750000E-8	0.002203
9.755000E-8	0.002175
9.760000E-8	0.002213
9.765000E-8	0.002184
9.770000E-8	0.002084
9.775000E-8	0.002081
9.780000E-8	0.002053
9.785000E-8	0.002012
9.790000E-8	0.002141
9.795000E-8	0.002087
9.800000E-8	0.002094
9.805000E-8	0.002147
9.810000E-8	0.002134
9.815000E-8	0.002184
9.820000E-8	0.002250
9.825000E-8	0.002103
9.830000E-8	0.002041
9.835000E-8	0.002053
9.840000E-8	0.001913
9.845000E-8	0.001881
9.850000E-8	0.001816
9.855000E-8	0.001731
9.860000E-8	0.001687
9.865000E-8	0.001738
9.870000E-8	0.001778
9.875000E-8	0.001800
9.880000E-8	0.001794
9.885000E-8	0.001944
9.890000E-8	0.002016
9.895000E-8	0.001981
9.900000E-8	0.002091
9.905000E-8	0.002109
9.910000E-8	0.002147
9.915000E-8	0.002109
9.920000E-8	0.002175
9.925000E-8	0.002084
9.930000E-8	0.002103
9.935000E-8	0.002050
9.940000E-8	0.002097
9.945000E-8	0.002066
9.950000E-8	0.002044
9.955000E-8	0.002175
9.960000E-8	0.002119
9.965000E-8	0.002222
9.970000E-8	0.002181
9.975000E-8	0.002138
9.980000E-8	0.002175
9.985000E-8	0.002178
9.990000E-8	0.002119
9.995000E-8	0.002269
