LabVIEW Measurement	
Writer_Version	2
Reader_Version	2
Separator	Tab
Decimal_Separator	.
Multi_Headings	No
X_Columns	Multi
Time_Pref	Relative
Operator	TG lab
Date	2015/03/06
Time	15:58:16.0429983139038085938
***End_of_Header***	
	
Channels	1	
Samples	2000	
Date	1903/12/31	
Time	19:00:00	
X_Dimension	Time	
X0	0.0000000000000000E+0	
Delta_X	5.000000E-11	
***End_of_Header***		
X_Value	Untitled	Comment
0.000000	0.002566
5.000000E-11	0.002544
1.000000E-10	0.002553
1.500000E-10	0.002600
2.000000E-10	0.002631
2.500000E-10	0.002597
3.000000E-10	0.002675
3.500000E-10	0.002728
4.000000E-10	0.002669
4.500000E-10	0.002641
5.000000E-10	0.002559
5.500000E-10	0.002606
6.000000E-10	0.002519
6.500000E-10	0.002466
7.000000E-10	0.002400
7.500000E-10	0.002269
8.000000E-10	0.002250
8.500000E-10	0.002316
9.000000E-10	0.002363
9.500000E-10	0.002375
1.000000E-9	0.002450
1.050000E-9	0.002553
1.100000E-9	0.002578
1.150000E-9	0.002600
1.200000E-9	0.002744
1.250000E-9	0.002784
1.300000E-9	0.002675
1.350000E-9	0.002844
1.400000E-9	0.002853
1.450000E-9	0.002866
1.500000E-9	0.002894
1.550000E-9	0.002959
1.600000E-9	0.002859
1.650000E-9	0.002878
1.700000E-9	0.002813
1.750000E-9	0.002763
1.800000E-9	0.002716
1.850000E-9	0.002706
1.900000E-9	0.002591
1.950000E-9	0.002597
2.000000E-9	0.002556
2.050000E-9	0.002606
2.100000E-9	0.002647
2.150000E-9	0.002709
2.200000E-9	0.002691
2.250000E-9	0.002947
2.300000E-9	0.002831
2.350000E-9	0.002800
2.400000E-9	0.002703
2.450000E-9	0.002784
2.500000E-9	0.002644
2.550000E-9	0.002644
2.600000E-9	0.002659
2.650000E-9	0.002619
2.700000E-9	0.002688
2.750000E-9	0.002638
2.800000E-9	0.002591
2.850000E-9	0.002556
2.900000E-9	0.002503
2.950000E-9	0.002563
3.000000E-9	0.002597
3.050000E-9	0.002581
3.100000E-9	0.002641
3.150000E-9	0.002613
3.200000E-9	0.002703
3.250000E-9	0.002541
3.300000E-9	0.002525
3.350000E-9	0.002569
3.400000E-9	0.002484
3.450000E-9	0.002547
3.500000E-9	0.002519
3.550000E-9	0.002472
3.600000E-9	0.002512
3.650000E-9	0.002488
3.700000E-9	0.002394
3.750000E-9	0.002363
3.800000E-9	0.002294
3.850000E-9	0.002275
3.900000E-9	0.002241
3.950000E-9	0.002103
4.000000E-9	0.002066
4.050000E-9	0.002109
4.100000E-9	0.002003
4.150000E-9	0.002078
4.200000E-9	0.001950
4.250000E-9	0.002034
4.300000E-9	0.002009
4.350000E-9	0.002131
4.400000E-9	0.002131
4.450000E-9	0.002300
4.500000E-9	0.002253
4.550000E-9	0.002338
4.600000E-9	0.002269
4.650000E-9	0.002294
4.700000E-9	0.002313
4.750000E-9	0.002375
4.800000E-9	0.002306
4.850000E-9	0.002247
4.900000E-9	0.002253
4.950000E-9	0.002319
5.000000E-9	0.002266
5.050000E-9	0.002194
5.100000E-9	0.002084
5.150000E-9	0.002100
5.200000E-9	0.002053
5.250000E-9	0.002000
5.300000E-9	0.001897
5.350000E-9	0.001872
5.400000E-9	0.001841
5.450000E-9	0.001825
5.500000E-9	0.001844
5.550000E-9	0.001950
5.600000E-9	0.002009
5.650000E-9	0.002181
5.700000E-9	0.002125
5.750000E-9	0.002209
5.800000E-9	0.002225
5.850000E-9	0.002381
5.900000E-9	0.002338
5.950000E-9	0.002353
6.000000E-9	0.002334
6.050000E-9	0.002347
6.100000E-9	0.002141
6.150000E-9	0.002147
6.200000E-9	0.002103
6.250000E-9	0.002125
6.300000E-9	0.002122
6.350000E-9	0.001963
6.400000E-9	0.001984
6.450000E-9	0.002022
6.500000E-9	0.002038
6.550000E-9	0.002138
6.600000E-9	0.002147
6.650000E-9	0.002172
6.700000E-9	0.002250
6.750000E-9	0.002347
6.800000E-9	0.002306
6.850000E-9	0.002288
6.900000E-9	0.002388
6.950000E-9	0.002481
7.000000E-9	0.002409
7.050000E-9	0.002425
7.100000E-9	0.002547
7.150000E-9	0.002700
7.200000E-9	0.002847
7.250000E-9	0.002953
7.300000E-9	0.003213
7.350000E-9	0.003391
7.400000E-9	0.003638
7.450000E-9	0.003991
7.500000E-9	0.004303
7.550000E-9	0.004584
7.600000E-9	0.004891
7.650000E-9	0.005138
7.700000E-9	0.005175
7.750000E-9	0.004884
7.800000E-9	0.004225
7.850000E-9	0.003138
7.900000E-9	0.001516
7.950000E-9	-0.000494
8.000000E-9	-0.003200
8.050000E-9	-0.005969
8.100000E-9	-0.009241
8.150000E-9	-0.012522
8.200000E-9	-0.015744
8.250000E-9	-0.018884
8.300000E-9	-0.021744
8.350000E-9	-0.024078
8.400000E-9	-0.025709
8.450000E-9	-0.026788
8.500000E-9	-0.027291
8.550000E-9	-0.027034
8.600000E-9	-0.026397
8.650000E-9	-0.025031
8.700000E-9	-0.023491
8.750000E-9	-0.021594
8.800000E-9	-0.019703
8.850000E-9	-0.017725
8.900000E-9	-0.016097
8.950000E-9	-0.014684
9.000000E-9	-0.013847
9.050000E-9	-0.013222
9.100000E-9	-0.013116
9.150000E-9	-0.013453
9.200000E-9	-0.014097
9.250000E-9	-0.014853
9.300000E-9	-0.015591
9.350000E-9	-0.016238
9.400000E-9	-0.016656
9.450000E-9	-0.016722
9.500000E-9	-0.016700
9.550000E-9	-0.016191
9.600000E-9	-0.015322
9.650000E-9	-0.014088
9.700000E-9	-0.012600
9.750000E-9	-0.011137
9.800000E-9	-0.009600
9.850000E-9	-0.008184
9.900000E-9	-0.007013
9.950000E-9	-0.006034
1.000000E-8	-0.005628
1.005000E-8	-0.005356
1.010000E-8	-0.005753
1.015000E-8	-0.006047
1.020000E-8	-0.006700
1.025000E-8	-0.007481
1.030000E-8	-0.008219
1.035000E-8	-0.009016
1.040000E-8	-0.009503
1.045000E-8	-0.009578
1.050000E-8	-0.009400
1.055000E-8	-0.008847
1.060000E-8	-0.008156
1.065000E-8	-0.007116
1.070000E-8	-0.005906
1.075000E-8	-0.004694
1.080000E-8	-0.003403
1.085000E-8	-0.002316
1.090000E-8	-0.001478
1.095000E-8	-0.000906
1.100000E-8	-0.000778
1.105000E-8	-0.000641
1.110000E-8	-0.001094
1.115000E-8	-0.001653
1.120000E-8	-0.002459
1.125000E-8	-0.003184
1.130000E-8	-0.003863
1.135000E-8	-0.004453
1.140000E-8	-0.004934
1.145000E-8	-0.005081
1.150000E-8	-0.005069
1.155000E-8	-0.004656
1.160000E-8	-0.004084
1.165000E-8	-0.003272
1.170000E-8	-0.002413
1.175000E-8	-0.001472
1.180000E-8	-0.000525
1.185000E-8	0.000319
1.190000E-8	0.000819
1.195000E-8	0.001306
1.200000E-8	0.001341
1.205000E-8	0.001250
1.210000E-8	0.000894
1.215000E-8	0.000341
1.220000E-8	-0.000450
1.225000E-8	-0.001178
1.230000E-8	-0.001922
1.235000E-8	-0.002547
1.240000E-8	-0.002897
1.245000E-8	-0.003125
1.250000E-8	-0.003044
1.255000E-8	-0.002631
1.260000E-8	-0.002259
1.265000E-8	-0.001447
1.270000E-8	-0.000625
1.275000E-8	0.000219
1.280000E-8	0.000991
1.285000E-8	0.001722
1.290000E-8	0.002156
1.295000E-8	0.002419
1.300000E-8	0.002469
1.305000E-8	0.002216
1.310000E-8	0.001747
1.315000E-8	0.001166
1.320000E-8	0.000406
1.325000E-8	-0.000303
1.330000E-8	-0.000997
1.335000E-8	-0.001569
1.340000E-8	-0.001931
1.345000E-8	-0.002169
1.350000E-8	-0.001925
1.355000E-8	-0.001609
1.360000E-8	-0.001016
1.365000E-8	-0.000356
1.370000E-8	0.000578
1.375000E-8	0.001444
1.380000E-8	0.002153
1.385000E-8	0.002863
1.390000E-8	0.003403
1.395000E-8	0.003628
1.400000E-8	0.003506
1.405000E-8	0.003213
1.410000E-8	0.002725
1.415000E-8	0.002134
1.420000E-8	0.001309
1.425000E-8	0.000581
1.430000E-8	-0.000216
1.435000E-8	-0.000725
1.440000E-8	-0.001053
1.445000E-8	-0.001250
1.450000E-8	-0.001103
1.455000E-8	-0.000647
1.460000E-8	-0.000106
1.465000E-8	0.000769
1.470000E-8	0.001403
1.475000E-8	0.002153
1.480000E-8	0.002963
1.485000E-8	0.003619
1.490000E-8	0.003916
1.495000E-8	0.004066
1.500000E-8	0.003825
1.505000E-8	0.003391
1.510000E-8	0.002638
1.515000E-8	0.001778
1.520000E-8	0.000909
1.525000E-8	4.062500E-5
1.530000E-8	-0.000828
1.535000E-8	-0.001300
1.540000E-8	-0.001550
1.545000E-8	-0.001641
1.550000E-8	-0.001253
1.555000E-8	-0.000566
1.560000E-8	0.000256
1.565000E-8	0.001300
1.570000E-8	0.002209
1.575000E-8	0.003166
1.580000E-8	0.003719
1.585000E-8	0.004181
1.590000E-8	0.004378
1.595000E-8	0.004147
1.600000E-8	0.003666
1.605000E-8	0.003019
1.610000E-8	0.002259
1.615000E-8	0.001406
1.620000E-8	0.000547
1.625000E-8	-0.000200
1.630000E-8	-0.000703
1.635000E-8	-0.000900
1.640000E-8	-0.000781
1.645000E-8	-0.000422
1.650000E-8	0.000147
1.655000E-8	0.000881
1.660000E-8	0.001825
1.665000E-8	0.002700
1.670000E-8	0.003581
1.675000E-8	0.004372
1.680000E-8	0.004778
1.685000E-8	0.005016
1.690000E-8	0.004931
1.695000E-8	0.004569
1.700000E-8	0.003984
1.705000E-8	0.003216
1.710000E-8	0.002381
1.715000E-8	0.001509
1.720000E-8	0.000550
1.725000E-8	-0.000100
1.730000E-8	-0.000484
1.735000E-8	-0.000591
1.740000E-8	-0.000484
1.745000E-8	-2.500000E-5
1.750000E-8	0.000700
1.755000E-8	0.001403
1.760000E-8	0.002266
1.765000E-8	0.003244
1.770000E-8	0.003962
1.775000E-8	0.004578
1.780000E-8	0.004959
1.785000E-8	0.005022
1.790000E-8	0.004662
1.795000E-8	0.004106
1.800000E-8	0.003356
1.805000E-8	0.002497
1.810000E-8	0.001422
1.815000E-8	0.000594
1.820000E-8	-0.000134
1.825000E-8	-0.000572
1.830000E-8	-0.000794
1.835000E-8	-0.000616
1.840000E-8	-0.000256
1.845000E-8	0.000353
1.850000E-8	0.001075
1.855000E-8	0.001863
1.860000E-8	0.002725
1.865000E-8	0.003512
1.870000E-8	0.004056
1.875000E-8	0.004475
1.880000E-8	0.004616
1.885000E-8	0.004519
1.890000E-8	0.004119
1.895000E-8	0.003650
1.900000E-8	0.003050
1.905000E-8	0.002338
1.910000E-8	0.001644
1.915000E-8	0.000978
1.920000E-8	0.000450
1.925000E-8	0.000103
1.930000E-8	1.875000E-5
1.935000E-8	0.000106
1.940000E-8	0.000481
1.945000E-8	0.001012
1.950000E-8	0.001822
1.955000E-8	0.002563
1.960000E-8	0.003472
1.965000E-8	0.004181
1.970000E-8	0.004600
1.975000E-8	0.004919
1.980000E-8	0.004947
1.985000E-8	0.004819
1.990000E-8	0.004391
1.995000E-8	0.003781
2.000000E-8	0.002988
2.005000E-8	0.002213
2.010000E-8	0.001366
2.015000E-8	0.000697
2.020000E-8	0.000275
2.025000E-8	6.250000E-5
2.030000E-8	1.875000E-5
2.035000E-8	0.000347
2.040000E-8	0.000825
2.045000E-8	0.001391
2.050000E-8	0.002228
2.055000E-8	0.003006
2.060000E-8	0.003675
2.065000E-8	0.004284
2.070000E-8	0.004662
2.075000E-8	0.004753
2.080000E-8	0.004566
2.085000E-8	0.004356
2.090000E-8	0.003831
2.095000E-8	0.003334
2.100000E-8	0.002587
2.105000E-8	0.001903
2.110000E-8	0.001206
2.115000E-8	0.000513
2.120000E-8	0.000138
2.125000E-8	-7.812500E-5
2.130000E-8	-1.875000E-5
2.135000E-8	0.000188
2.140000E-8	0.000513
2.145000E-8	0.001147
2.150000E-8	0.001891
2.155000E-8	0.002659
2.160000E-8	0.003394
2.165000E-8	0.003938
2.170000E-8	0.004247
2.175000E-8	0.004478
2.180000E-8	0.004428
2.185000E-8	0.004100
2.190000E-8	0.003556
2.195000E-8	0.002919
2.200000E-8	0.002078
2.205000E-8	0.001338
2.210000E-8	0.000594
2.215000E-8	0.000128
2.220000E-8	-0.000200
2.225000E-8	-0.000159
2.230000E-8	7.500000E-5
2.235000E-8	0.000653
2.240000E-8	0.001297
2.245000E-8	0.002150
2.250000E-8	0.002969
2.255000E-8	0.003863
2.260000E-8	0.004622
2.265000E-8	0.005094
2.270000E-8	0.005234
2.275000E-8	0.005291
2.280000E-8	0.004997
2.285000E-8	0.004284
2.290000E-8	0.003506
2.295000E-8	0.002688
2.300000E-8	0.001784
2.305000E-8	0.001084
2.310000E-8	0.000453
2.315000E-8	0.000150
2.320000E-8	1.875000E-5
2.325000E-8	0.000209
2.330000E-8	0.000753
2.335000E-8	0.001491
2.340000E-8	0.002109
2.345000E-8	0.002938
2.350000E-8	0.003631
2.355000E-8	0.004378
2.360000E-8	0.004828
2.365000E-8	0.005081
2.370000E-8	0.004928
2.375000E-8	0.004641
2.380000E-8	0.004134
2.385000E-8	0.003419
2.390000E-8	0.002591
2.395000E-8	0.001819
2.400000E-8	0.000966
2.405000E-8	0.000328
2.410000E-8	-0.000109
2.415000E-8	-0.000172
2.420000E-8	-0.000100
2.425000E-8	0.000284
2.430000E-8	0.000891
2.435000E-8	0.001612
2.440000E-8	0.002500
2.445000E-8	0.003244
2.450000E-8	0.003894
2.455000E-8	0.004509
2.460000E-8	0.004753
2.465000E-8	0.004866
2.470000E-8	0.004728
2.475000E-8	0.004459
2.480000E-8	0.003875
2.485000E-8	0.003231
2.490000E-8	0.002481
2.495000E-8	0.001850
2.500000E-8	0.001294
2.505000E-8	0.000866
2.510000E-8	0.000631
2.515000E-8	0.000522
2.520000E-8	0.000700
2.525000E-8	0.001159
2.530000E-8	0.001759
2.535000E-8	0.002553
2.540000E-8	0.003297
2.545000E-8	0.003984
2.550000E-8	0.004537
2.555000E-8	0.004809
2.560000E-8	0.004934
2.565000E-8	0.004941
2.570000E-8	0.004597
2.575000E-8	0.004069
2.580000E-8	0.003494
2.585000E-8	0.002844
2.590000E-8	0.002162
2.595000E-8	0.001622
2.600000E-8	0.001144
2.605000E-8	0.000903
2.610000E-8	0.000778
2.615000E-8	0.000913
2.620000E-8	0.001300
2.625000E-8	0.001722
2.630000E-8	0.002253
2.635000E-8	0.002891
2.640000E-8	0.003388
2.645000E-8	0.003978
2.650000E-8	0.004306
2.655000E-8	0.004588
2.660000E-8	0.004550
2.665000E-8	0.004441
2.670000E-8	0.004181
2.675000E-8	0.003706
2.680000E-8	0.003094
2.685000E-8	0.002528
2.690000E-8	0.001903
2.695000E-8	0.001475
2.700000E-8	0.000981
2.705000E-8	0.000766
2.710000E-8	0.000572
2.715000E-8	0.000753
2.720000E-8	0.001066
2.725000E-8	0.001578
2.730000E-8	0.002087
2.735000E-8	0.002747
2.740000E-8	0.003284
2.745000E-8	0.003866
2.750000E-8	0.004250
2.755000E-8	0.004403
2.760000E-8	0.004447
2.765000E-8	0.004269
2.770000E-8	0.003888
2.775000E-8	0.003519
2.780000E-8	0.002897
2.785000E-8	0.002397
2.790000E-8	0.001750
2.795000E-8	0.001325
2.800000E-8	0.001066
2.805000E-8	0.000978
2.810000E-8	0.001022
2.815000E-8	0.001234
2.820000E-8	0.001647
2.825000E-8	0.002119
2.830000E-8	0.002641
2.835000E-8	0.003266
2.840000E-8	0.003775
2.845000E-8	0.004213
2.850000E-8	0.004381
2.855000E-8	0.004544
2.860000E-8	0.004359
2.865000E-8	0.004078
2.870000E-8	0.003544
2.875000E-8	0.003159
2.880000E-8	0.002453
2.885000E-8	0.001997
2.890000E-8	0.001394
2.895000E-8	0.001003
2.900000E-8	0.000728
2.905000E-8	0.000684
2.910000E-8	0.000806
2.915000E-8	0.001034
2.920000E-8	0.001516
2.925000E-8	0.002156
2.930000E-8	0.002653
2.935000E-8	0.003141
2.940000E-8	0.003663
2.945000E-8	0.004100
2.950000E-8	0.004219
2.955000E-8	0.004228
2.960000E-8	0.004103
2.965000E-8	0.003700
2.970000E-8	0.003197
2.975000E-8	0.002678
2.980000E-8	0.002091
2.985000E-8	0.001431
2.990000E-8	0.000941
2.995000E-8	0.000484
3.000000E-8	0.000319
3.005000E-8	0.000378
3.010000E-8	0.000684
3.015000E-8	0.001150
3.020000E-8	0.001784
3.025000E-8	0.002484
3.030000E-8	0.003072
3.035000E-8	0.003731
3.040000E-8	0.004184
3.045000E-8	0.004537
3.050000E-8	0.004812
3.055000E-8	0.004644
3.060000E-8	0.004450
3.065000E-8	0.004006
3.070000E-8	0.003419
3.075000E-8	0.002831
3.080000E-8	0.002200
3.085000E-8	0.001663
3.090000E-8	0.001284
3.095000E-8	0.000981
3.100000E-8	0.000838
3.105000E-8	0.001069
3.110000E-8	0.001322
3.115000E-8	0.001803
3.120000E-8	0.002197
3.125000E-8	0.002825
3.130000E-8	0.003356
3.135000E-8	0.003803
3.140000E-8	0.004097
3.145000E-8	0.004425
3.150000E-8	0.004384
3.155000E-8	0.004128
3.160000E-8	0.003741
3.165000E-8	0.003322
3.170000E-8	0.002725
3.175000E-8	0.002162
3.180000E-8	0.001622
3.185000E-8	0.001381
3.190000E-8	0.001106
3.195000E-8	0.000925
3.200000E-8	0.000872
3.205000E-8	0.001075
3.210000E-8	0.001591
3.215000E-8	0.001991
3.220000E-8	0.002534
3.225000E-8	0.003091
3.230000E-8	0.003500
3.235000E-8	0.003906
3.240000E-8	0.004119
3.245000E-8	0.004131
3.250000E-8	0.004163
3.255000E-8	0.003875
3.260000E-8	0.003219
3.265000E-8	0.002775
3.270000E-8	0.002359
3.275000E-8	0.001863
3.280000E-8	0.001522
3.285000E-8	0.001259
3.290000E-8	0.001209
3.295000E-8	0.001281
3.300000E-8	0.001359
3.305000E-8	0.001634
3.310000E-8	0.002162
3.315000E-8	0.002675
3.320000E-8	0.003100
3.325000E-8	0.003478
3.330000E-8	0.003900
3.335000E-8	0.004181
3.340000E-8	0.004194
3.345000E-8	0.004184
3.350000E-8	0.003991
3.355000E-8	0.003684
3.360000E-8	0.003097
3.365000E-8	0.002591
3.370000E-8	0.002141
3.375000E-8	0.001656
3.380000E-8	0.001453
3.385000E-8	0.001112
3.390000E-8	0.000947
3.395000E-8	0.001038
3.400000E-8	0.001253
3.405000E-8	0.001581
3.410000E-8	0.001950
3.415000E-8	0.002547
3.420000E-8	0.002994
3.425000E-8	0.003400
3.430000E-8	0.003750
3.435000E-8	0.004066
3.440000E-8	0.004084
3.445000E-8	0.004097
3.450000E-8	0.003725
3.455000E-8	0.003566
3.460000E-8	0.003075
3.465000E-8	0.002597
3.470000E-8	0.002172
3.475000E-8	0.001741
3.480000E-8	0.001384
3.485000E-8	0.001253
3.490000E-8	0.001134
3.495000E-8	0.001278
3.500000E-8	0.001556
3.505000E-8	0.001963
3.510000E-8	0.002397
3.515000E-8	0.002784
3.520000E-8	0.003138
3.525000E-8	0.003469
3.530000E-8	0.003700
3.535000E-8	0.003800
3.540000E-8	0.003697
3.545000E-8	0.003547
3.550000E-8	0.003353
3.555000E-8	0.003028
3.560000E-8	0.002594
3.565000E-8	0.002200
3.570000E-8	0.001763
3.575000E-8	0.001450
3.580000E-8	0.001209
3.585000E-8	0.001288
3.590000E-8	0.001341
3.595000E-8	0.001497
3.600000E-8	0.001781
3.605000E-8	0.002231
3.610000E-8	0.002744
3.615000E-8	0.003225
3.620000E-8	0.003625
3.625000E-8	0.003975
3.630000E-8	0.004194
3.635000E-8	0.004241
3.640000E-8	0.003994
3.645000E-8	0.003709
3.650000E-8	0.003384
3.655000E-8	0.002928
3.660000E-8	0.002544
3.665000E-8	0.002134
3.670000E-8	0.001609
3.675000E-8	0.001503
3.680000E-8	0.001406
3.685000E-8	0.001466
3.690000E-8	0.001591
3.695000E-8	0.001831
3.700000E-8	0.002256
3.705000E-8	0.002659
3.710000E-8	0.003091
3.715000E-8	0.003519
3.720000E-8	0.003784
3.725000E-8	0.003972
3.730000E-8	0.004022
3.735000E-8	0.003956
3.740000E-8	0.003716
3.745000E-8	0.003313
3.750000E-8	0.002866
3.755000E-8	0.002328
3.760000E-8	0.002019
3.765000E-8	0.001656
3.770000E-8	0.001425
3.775000E-8	0.001187
3.780000E-8	0.001094
3.785000E-8	0.001406
3.790000E-8	0.001538
3.795000E-8	0.001856
3.800000E-8	0.002338
3.805000E-8	0.002772
3.810000E-8	0.003156
3.815000E-8	0.003541
3.820000E-8	0.003750
3.825000E-8	0.003856
3.830000E-8	0.004009
3.835000E-8	0.003859
3.840000E-8	0.003616
3.845000E-8	0.003344
3.850000E-8	0.003000
3.855000E-8	0.002625
3.860000E-8	0.002175
3.865000E-8	0.001956
3.870000E-8	0.001663
3.875000E-8	0.001538
3.880000E-8	0.001447
3.885000E-8	0.001684
3.890000E-8	0.001816
3.895000E-8	0.002259
3.900000E-8	0.002512
3.905000E-8	0.003019
3.910000E-8	0.003409
3.915000E-8	0.003594
3.920000E-8	0.003831
3.925000E-8	0.003944
3.930000E-8	0.003825
3.935000E-8	0.003703
3.940000E-8	0.003288
3.945000E-8	0.002894
3.950000E-8	0.002478
3.955000E-8	0.002134
3.960000E-8	0.001791
3.965000E-8	0.001606
3.970000E-8	0.001544
3.975000E-8	0.001600
3.980000E-8	0.001678
3.985000E-8	0.001988
3.990000E-8	0.002275
3.995000E-8	0.002666
4.000000E-8	0.003059
4.005000E-8	0.003541
4.010000E-8	0.003747
4.015000E-8	0.004056
4.020000E-8	0.004150
4.025000E-8	0.004216
4.030000E-8	0.003994
4.035000E-8	0.003719
4.040000E-8	0.003328
4.045000E-8	0.002941
4.050000E-8	0.002472
4.055000E-8	0.002069
4.060000E-8	0.001741
4.065000E-8	0.001541
4.070000E-8	0.001378
4.075000E-8	0.001509
4.080000E-8	0.001603
4.085000E-8	0.001916
4.090000E-8	0.002200
4.095000E-8	0.002684
4.100000E-8	0.003069
4.105000E-8	0.003375
4.110000E-8	0.003741
4.115000E-8	0.003938
4.120000E-8	0.003925
4.125000E-8	0.003816
4.130000E-8	0.003591
4.135000E-8	0.003328
4.140000E-8	0.002953
4.145000E-8	0.002644
4.150000E-8	0.002213
4.155000E-8	0.001813
4.160000E-8	0.001566
4.165000E-8	0.001441
4.170000E-8	0.001434
4.175000E-8	0.001531
4.180000E-8	0.001663
4.185000E-8	0.002000
4.190000E-8	0.002241
4.195000E-8	0.002722
4.200000E-8	0.003044
4.205000E-8	0.003338
4.210000E-8	0.003538
4.215000E-8	0.003650
4.220000E-8	0.003659
4.225000E-8	0.003566
4.230000E-8	0.003444
4.235000E-8	0.003003
4.240000E-8	0.002659
4.245000E-8	0.002400
4.250000E-8	0.002131
4.255000E-8	0.001819
4.260000E-8	0.001541
4.265000E-8	0.001497
4.270000E-8	0.001538
4.275000E-8	0.001659
4.280000E-8	0.001978
4.285000E-8	0.002206
4.290000E-8	0.002572
4.295000E-8	0.002972
4.300000E-8	0.003259
4.305000E-8	0.003594
4.310000E-8	0.003763
4.315000E-8	0.003778
4.320000E-8	0.003631
4.325000E-8	0.003478
4.330000E-8	0.003256
4.335000E-8	0.002978
4.340000E-8	0.002437
4.345000E-8	0.002144
4.350000E-8	0.001897
4.355000E-8	0.001753
4.360000E-8	0.001494
4.365000E-8	0.001472
4.370000E-8	0.001641
4.375000E-8	0.001828
4.380000E-8	0.002019
4.385000E-8	0.002428
4.390000E-8	0.002741
4.395000E-8	0.003141
4.400000E-8	0.003516
4.405000E-8	0.003800
4.410000E-8	0.003903
4.415000E-8	0.003809
4.420000E-8	0.003772
4.425000E-8	0.003563
4.430000E-8	0.003181
4.435000E-8	0.002975
4.440000E-8	0.002566
4.445000E-8	0.002275
4.450000E-8	0.002072
4.455000E-8	0.001922
4.460000E-8	0.001784
4.465000E-8	0.001875
4.470000E-8	0.001969
4.475000E-8	0.002213
4.480000E-8	0.002328
4.485000E-8	0.002728
4.490000E-8	0.002925
4.495000E-8	0.003213
4.500000E-8	0.003300
4.505000E-8	0.003313
4.510000E-8	0.003194
4.515000E-8	0.003156
4.520000E-8	0.002922
4.525000E-8	0.002831
4.530000E-8	0.002447
4.535000E-8	0.002138
4.540000E-8	0.001828
4.545000E-8	0.001687
4.550000E-8	0.001488
4.555000E-8	0.001372
4.560000E-8	0.001419
4.565000E-8	0.001528
4.570000E-8	0.001703
4.575000E-8	0.001953
4.580000E-8	0.002181
4.585000E-8	0.002672
4.590000E-8	0.003012
4.595000E-8	0.003247
4.600000E-8	0.003497
4.605000E-8	0.003653
4.610000E-8	0.003644
4.615000E-8	0.003581
4.620000E-8	0.003334
4.625000E-8	0.003000
4.630000E-8	0.002638
4.635000E-8	0.002294
4.640000E-8	0.001981
4.645000E-8	0.001625
4.650000E-8	0.001441
4.655000E-8	0.001519
4.660000E-8	0.001575
4.665000E-8	0.001747
4.670000E-8	0.001947
4.675000E-8	0.002231
4.680000E-8	0.002566
4.685000E-8	0.002881
4.690000E-8	0.003094
4.695000E-8	0.003375
4.700000E-8	0.003494
4.705000E-8	0.003553
4.710000E-8	0.003556
4.715000E-8	0.003294
4.720000E-8	0.003125
4.725000E-8	0.002703
4.730000E-8	0.002431
4.735000E-8	0.002116
4.740000E-8	0.001809
4.745000E-8	0.001472
4.750000E-8	0.001381
4.755000E-8	0.001416
4.760000E-8	0.001516
4.765000E-8	0.001800
4.770000E-8	0.002050
4.775000E-8	0.002484
4.780000E-8	0.002850
4.785000E-8	0.003284
4.790000E-8	0.003566
4.795000E-8	0.003819
4.800000E-8	0.003797
4.805000E-8	0.003841
4.810000E-8	0.003666
4.815000E-8	0.003491
4.820000E-8	0.003181
4.825000E-8	0.002756
4.830000E-8	0.002406
4.835000E-8	0.002091
4.840000E-8	0.001788
4.845000E-8	0.001681
4.850000E-8	0.001575
4.855000E-8	0.001738
4.860000E-8	0.001694
4.865000E-8	0.001925
4.870000E-8	0.002172
4.875000E-8	0.002575
4.880000E-8	0.002803
4.885000E-8	0.003100
4.890000E-8	0.003278
4.895000E-8	0.003397
4.900000E-8	0.003378
4.905000E-8	0.003297
4.910000E-8	0.003131
4.915000E-8	0.002997
4.920000E-8	0.002734
4.925000E-8	0.002450
4.930000E-8	0.002166
4.935000E-8	0.001947
4.940000E-8	0.001834
4.945000E-8	0.001669
4.950000E-8	0.001875
4.955000E-8	0.001894
4.960000E-8	0.002031
4.965000E-8	0.002388
4.970000E-8	0.002656
4.975000E-8	0.002953
4.980000E-8	0.003156
4.985000E-8	0.003269
4.990000E-8	0.003419
4.995000E-8	0.003397
5.000000E-8	0.003341
5.005000E-8	0.003162
5.010000E-8	0.002903
5.015000E-8	0.002769
5.020000E-8	0.002459
5.025000E-8	0.002369
5.030000E-8	0.002087
5.035000E-8	0.001872
5.040000E-8	0.001669
5.045000E-8	0.001644
5.050000E-8	0.001666
5.055000E-8	0.001916
5.060000E-8	0.002162
5.065000E-8	0.002397
5.070000E-8	0.002656
5.075000E-8	0.002959
5.080000E-8	0.003231
5.085000E-8	0.003525
5.090000E-8	0.003509
5.095000E-8	0.003613
5.100000E-8	0.003494
5.105000E-8	0.003294
5.110000E-8	0.003116
5.115000E-8	0.002784
5.120000E-8	0.002409
5.125000E-8	0.002059
5.130000E-8	0.001844
5.135000E-8	0.001706
5.140000E-8	0.001634
5.145000E-8	0.001781
5.150000E-8	0.001800
5.155000E-8	0.002056
5.160000E-8	0.002419
5.165000E-8	0.002722
5.170000E-8	0.003019
5.175000E-8	0.003300
5.180000E-8	0.003484
5.185000E-8	0.003616
5.190000E-8	0.003728
5.195000E-8	0.003684
5.200000E-8	0.003519
5.205000E-8	0.003347
5.210000E-8	0.003109
5.215000E-8	0.002744
5.220000E-8	0.002353
5.225000E-8	0.002081
5.230000E-8	0.001856
5.235000E-8	0.001825
5.240000E-8	0.001738
5.245000E-8	0.001866
5.250000E-8	0.001922
5.255000E-8	0.002175
5.260000E-8	0.002428
5.265000E-8	0.002688
5.270000E-8	0.002981
5.275000E-8	0.003275
5.280000E-8	0.003512
5.285000E-8	0.003544
5.290000E-8	0.003519
5.295000E-8	0.003400
5.300000E-8	0.003203
5.305000E-8	0.002994
5.310000E-8	0.002800
5.315000E-8	0.002559
5.320000E-8	0.002225
5.325000E-8	0.002009
5.330000E-8	0.001850
5.335000E-8	0.001831
5.340000E-8	0.001741
5.345000E-8	0.001869
5.350000E-8	0.002041
5.355000E-8	0.002263
5.360000E-8	0.002472
5.365000E-8	0.002700
5.370000E-8	0.002984
5.375000E-8	0.003150
5.380000E-8	0.003119
5.385000E-8	0.003394
5.390000E-8	0.003228
5.395000E-8	0.003209
5.400000E-8	0.002997
5.405000E-8	0.002753
5.410000E-8	0.002509
5.415000E-8	0.002256
5.420000E-8	0.002000
5.425000E-8	0.001928
5.430000E-8	0.001881
5.435000E-8	0.001863
5.440000E-8	0.001941
5.445000E-8	0.002122
5.450000E-8	0.002338
5.455000E-8	0.002606
5.460000E-8	0.002959
5.465000E-8	0.003175
5.470000E-8	0.003278
5.475000E-8	0.003284
5.480000E-8	0.003441
5.485000E-8	0.003359
5.490000E-8	0.003162
5.495000E-8	0.003084
5.500000E-8	0.002731
5.505000E-8	0.002550
5.510000E-8	0.002406
5.515000E-8	0.002247
5.520000E-8	0.002047
5.525000E-8	0.001937
5.530000E-8	0.001906
5.535000E-8	0.001975
5.540000E-8	0.001978
5.545000E-8	0.002141
5.550000E-8	0.002406
5.555000E-8	0.002566
5.560000E-8	0.002769
5.565000E-8	0.002934
5.570000E-8	0.003009
5.575000E-8	0.003172
5.580000E-8	0.003144
5.585000E-8	0.003106
5.590000E-8	0.003063
5.595000E-8	0.002922
5.600000E-8	0.002688
5.605000E-8	0.002547
5.610000E-8	0.002375
5.615000E-8	0.002172
5.620000E-8	0.001984
5.625000E-8	0.001784
5.630000E-8	0.001828
5.635000E-8	0.001909
5.640000E-8	0.002028
5.645000E-8	0.002191
5.650000E-8	0.002384
5.655000E-8	0.002566
5.660000E-8	0.002713
5.665000E-8	0.002928
5.670000E-8	0.002972
5.675000E-8	0.002925
5.680000E-8	0.002888
5.685000E-8	0.002853
5.690000E-8	0.002766
5.695000E-8	0.002650
5.700000E-8	0.002466
5.705000E-8	0.002263
5.710000E-8	0.002128
5.715000E-8	0.001997
5.720000E-8	0.001928
5.725000E-8	0.001972
5.730000E-8	0.001959
5.735000E-8	0.002081
5.740000E-8	0.002081
5.745000E-8	0.002288
5.750000E-8	0.002503
5.755000E-8	0.002759
5.760000E-8	0.002906
5.765000E-8	0.003159
5.770000E-8	0.003150
5.775000E-8	0.003200
5.780000E-8	0.003188
5.785000E-8	0.003100
5.790000E-8	0.002978
5.795000E-8	0.002809
5.800000E-8	0.002459
5.805000E-8	0.002300
5.810000E-8	0.002044
5.815000E-8	0.001941
5.820000E-8	0.001731
5.825000E-8	0.001731
5.830000E-8	0.001853
5.835000E-8	0.002047
5.840000E-8	0.002166
5.845000E-8	0.002406
5.850000E-8	0.002566
5.855000E-8	0.002816
5.860000E-8	0.002903
5.865000E-8	0.002978
5.870000E-8	0.002984
5.875000E-8	0.002894
5.880000E-8	0.002834
5.885000E-8	0.002759
5.890000E-8	0.002572
5.895000E-8	0.002472
5.900000E-8	0.002328
5.905000E-8	0.002234
5.910000E-8	0.002169
5.915000E-8	0.002159
5.920000E-8	0.002084
5.925000E-8	0.002147
5.930000E-8	0.002256
5.935000E-8	0.002328
5.940000E-8	0.002363
5.945000E-8	0.002391
5.950000E-8	0.002466
5.955000E-8	0.002581
5.960000E-8	0.002681
5.965000E-8	0.002737
5.970000E-8	0.002741
5.975000E-8	0.002778
5.980000E-8	0.002716
5.985000E-8	0.002750
5.990000E-8	0.002631
5.995000E-8	0.002553
6.000000E-8	0.002272
6.005000E-8	0.002178
6.010000E-8	0.002059
6.015000E-8	0.002084
6.020000E-8	0.001984
6.025000E-8	0.002078
6.030000E-8	0.002241
6.035000E-8	0.002375
6.040000E-8	0.002500
6.045000E-8	0.002747
6.050000E-8	0.002816
6.055000E-8	0.002988
6.060000E-8	0.003113
6.065000E-8	0.003222
6.070000E-8	0.003131
6.075000E-8	0.003100
6.080000E-8	0.002875
6.085000E-8	0.002772
6.090000E-8	0.002734
6.095000E-8	0.002669
6.100000E-8	0.002516
6.105000E-8	0.002500
6.110000E-8	0.002541
6.115000E-8	0.002478
6.120000E-8	0.002437
6.125000E-8	0.002541
6.130000E-8	0.002647
6.135000E-8	0.002734
6.140000E-8	0.002828
6.145000E-8	0.002913
6.150000E-8	0.002900
6.155000E-8	0.003022
6.160000E-8	0.002991
6.165000E-8	0.002925
6.170000E-8	0.002822
6.175000E-8	0.002809
6.180000E-8	0.002638
6.185000E-8	0.002613
6.190000E-8	0.002394
6.195000E-8	0.002334
6.200000E-8	0.002191
6.205000E-8	0.002122
6.210000E-8	0.002116
6.215000E-8	0.002128
6.220000E-8	0.002147
6.225000E-8	0.002122
6.230000E-8	0.002222
6.235000E-8	0.002328
6.240000E-8	0.002541
6.245000E-8	0.002556
6.250000E-8	0.002625
6.255000E-8	0.002666
6.260000E-8	0.002600
6.265000E-8	0.002741
6.270000E-8	0.002691
6.275000E-8	0.002519
6.280000E-8	0.002225
6.285000E-8	0.002225
6.290000E-8	0.002122
6.295000E-8	0.002147
6.300000E-8	0.001988
6.305000E-8	0.002044
6.310000E-8	0.002012
6.315000E-8	0.002200
6.320000E-8	0.002278
6.325000E-8	0.002419
6.330000E-8	0.002606
6.335000E-8	0.002828
6.340000E-8	0.003003
6.345000E-8	0.003166
6.350000E-8	0.003166
6.355000E-8	0.003300
6.360000E-8	0.003322
6.365000E-8	0.003203
6.370000E-8	0.002991
6.375000E-8	0.002894
6.380000E-8	0.002675
6.385000E-8	0.002453
6.390000E-8	0.002234
6.395000E-8	0.002134
6.400000E-8	0.002003
6.405000E-8	0.002041
6.410000E-8	0.001937
6.415000E-8	0.001988
6.420000E-8	0.002006
6.425000E-8	0.002213
6.430000E-8	0.002344
6.435000E-8	0.002531
6.440000E-8	0.002634
6.445000E-8	0.002794
6.450000E-8	0.002816
6.455000E-8	0.002816
6.460000E-8	0.002934
6.465000E-8	0.002878
6.470000E-8	0.002772
6.475000E-8	0.002694
6.480000E-8	0.002578
6.485000E-8	0.002503
6.490000E-8	0.002356
6.495000E-8	0.002244
6.500000E-8	0.002203
6.505000E-8	0.002306
6.510000E-8	0.002222
6.515000E-8	0.002316
6.520000E-8	0.002344
6.525000E-8	0.002553
6.530000E-8	0.002759
6.535000E-8	0.002938
6.540000E-8	0.003113
6.545000E-8	0.003238
6.550000E-8	0.003225
6.555000E-8	0.003363
6.560000E-8	0.003294
6.565000E-8	0.003278
6.570000E-8	0.003113
6.575000E-8	0.002956
6.580000E-8	0.002781
6.585000E-8	0.002591
6.590000E-8	0.002475
6.595000E-8	0.002406
6.600000E-8	0.002263
6.605000E-8	0.002384
6.610000E-8	0.002441
6.615000E-8	0.002519
6.620000E-8	0.002656
6.625000E-8	0.002691
6.630000E-8	0.002834
6.635000E-8	0.002966
6.640000E-8	0.003147
6.645000E-8	0.003156
6.650000E-8	0.003197
6.655000E-8	0.003188
6.660000E-8	0.003069
6.665000E-8	0.002959
6.670000E-8	0.002813
6.675000E-8	0.002638
6.680000E-8	0.002469
6.685000E-8	0.002453
6.690000E-8	0.002172
6.695000E-8	0.002153
6.700000E-8	0.002138
6.705000E-8	0.002209
6.710000E-8	0.002281
6.715000E-8	0.002322
6.720000E-8	0.002338
6.725000E-8	0.002478
6.730000E-8	0.002672
6.735000E-8	0.002853
6.740000E-8	0.002884
6.745000E-8	0.002950
6.750000E-8	0.002938
6.755000E-8	0.002834
6.760000E-8	0.002747
6.765000E-8	0.002769
6.770000E-8	0.002634
6.775000E-8	0.002400
6.780000E-8	0.002231
6.785000E-8	0.002131
6.790000E-8	0.002066
6.795000E-8	0.002128
6.800000E-8	0.002131
6.805000E-8	0.002184
6.810000E-8	0.002247
6.815000E-8	0.002359
6.820000E-8	0.002481
6.825000E-8	0.002703
6.830000E-8	0.002775
6.835000E-8	0.002869
6.840000E-8	0.002844
6.845000E-8	0.002825
6.850000E-8	0.002753
6.855000E-8	0.002747
6.860000E-8	0.002638
6.865000E-8	0.002628
6.870000E-8	0.002478
6.875000E-8	0.002297
6.880000E-8	0.002269
6.885000E-8	0.002313
6.890000E-8	0.002256
6.895000E-8	0.002266
6.900000E-8	0.002244
6.905000E-8	0.002384
6.910000E-8	0.002391
6.915000E-8	0.002566
6.920000E-8	0.002553
6.925000E-8	0.002678
6.930000E-8	0.002744
6.935000E-8	0.002828
6.940000E-8	0.002950
6.945000E-8	0.002984
6.950000E-8	0.002941
6.955000E-8	0.002950
6.960000E-8	0.002772
6.965000E-8	0.002719
6.970000E-8	0.002544
6.975000E-8	0.002506
6.980000E-8	0.002284
6.985000E-8	0.002256
6.990000E-8	0.002188
6.995000E-8	0.002191
7.000000E-8	0.002303
7.005000E-8	0.002322
7.010000E-8	0.002400
7.015000E-8	0.002522
7.020000E-8	0.002534
7.025000E-8	0.002697
7.030000E-8	0.002766
7.035000E-8	0.002828
7.040000E-8	0.002706
7.045000E-8	0.002644
7.050000E-8	0.002616
7.055000E-8	0.002681
7.060000E-8	0.002606
7.065000E-8	0.002466
7.070000E-8	0.002366
7.075000E-8	0.002322
7.080000E-8	0.002166
7.085000E-8	0.002225
7.090000E-8	0.002284
7.095000E-8	0.002284
7.100000E-8	0.002278
7.105000E-8	0.002306
7.110000E-8	0.002381
7.115000E-8	0.002600
7.120000E-8	0.002622
7.125000E-8	0.002691
7.130000E-8	0.002766
7.135000E-8	0.002669
7.140000E-8	0.002638
7.145000E-8	0.002578
7.150000E-8	0.002509
7.155000E-8	0.002522
7.160000E-8	0.002409
7.165000E-8	0.002309
7.170000E-8	0.002294
7.175000E-8	0.002328
7.180000E-8	0.002394
7.185000E-8	0.002506
7.190000E-8	0.002575
7.195000E-8	0.002594
7.200000E-8	0.002722
7.205000E-8	0.002816
7.210000E-8	0.002934
7.215000E-8	0.003047
7.220000E-8	0.003063
7.225000E-8	0.003131
7.230000E-8	0.003103
7.235000E-8	0.003122
7.240000E-8	0.003097
7.245000E-8	0.003141
7.250000E-8	0.003000
7.255000E-8	0.002963
7.260000E-8	0.002744
7.265000E-8	0.002603
7.270000E-8	0.002434
7.275000E-8	0.002322
7.280000E-8	0.002269
7.285000E-8	0.002291
7.290000E-8	0.002428
7.295000E-8	0.002447
7.300000E-8	0.002525
7.305000E-8	0.002641
7.310000E-8	0.002722
7.315000E-8	0.002909
7.320000E-8	0.002941
7.325000E-8	0.003044
7.330000E-8	0.003119
7.335000E-8	0.003194
7.340000E-8	0.003066
7.345000E-8	0.003066
7.350000E-8	0.002900
7.355000E-8	0.002772
7.360000E-8	0.002631
7.365000E-8	0.002469
7.370000E-8	0.002325
7.375000E-8	0.002272
7.380000E-8	0.002250
7.385000E-8	0.002303
7.390000E-8	0.002331
7.395000E-8	0.002472
7.400000E-8	0.002597
7.405000E-8	0.002722
7.410000E-8	0.002847
7.415000E-8	0.003022
7.420000E-8	0.003075
7.425000E-8	0.003103
7.430000E-8	0.003091
7.435000E-8	0.003059
7.440000E-8	0.002994
7.445000E-8	0.002953
7.450000E-8	0.002853
7.455000E-8	0.002813
7.460000E-8	0.002688
7.465000E-8	0.002700
7.470000E-8	0.002456
7.475000E-8	0.002481
7.480000E-8	0.002469
7.485000E-8	0.002563
7.490000E-8	0.002466
7.495000E-8	0.002509
7.500000E-8	0.002556
7.505000E-8	0.002544
7.510000E-8	0.002641
7.515000E-8	0.002756
7.520000E-8	0.002809
7.525000E-8	0.002881
7.530000E-8	0.002838
7.535000E-8	0.002959
7.540000E-8	0.002747
7.545000E-8	0.002541
7.550000E-8	0.002613
7.555000E-8	0.002519
7.560000E-8	0.002528
7.565000E-8	0.002569
7.570000E-8	0.002466
7.575000E-8	0.002488
7.580000E-8	0.002541
7.585000E-8	0.002519
7.590000E-8	0.002566
7.595000E-8	0.002703
7.600000E-8	0.002769
7.605000E-8	0.002891
7.610000E-8	0.002769
7.615000E-8	0.002891
7.620000E-8	0.002988
7.625000E-8	0.002978
7.630000E-8	0.002778
7.635000E-8	0.002713
7.640000E-8	0.002584
7.645000E-8	0.002503
7.650000E-8	0.002309
7.655000E-8	0.002225
7.660000E-8	0.002169
7.665000E-8	0.002125
7.670000E-8	0.002172
7.675000E-8	0.002253
7.680000E-8	0.002334
7.685000E-8	0.002466
7.690000E-8	0.002559
7.695000E-8	0.002659
7.700000E-8	0.002653
7.705000E-8	0.002709
7.710000E-8	0.002794
7.715000E-8	0.002906
7.720000E-8	0.002813
7.725000E-8	0.002953
7.730000E-8	0.002953
7.735000E-8	0.002928
7.740000E-8	0.002984
7.745000E-8	0.003000
7.750000E-8	0.002841
7.755000E-8	0.002797
7.760000E-8	0.002737
7.765000E-8	0.002750
7.770000E-8	0.002641
7.775000E-8	0.002653
7.780000E-8	0.002581
7.785000E-8	0.002575
7.790000E-8	0.002494
7.795000E-8	0.002538
7.800000E-8	0.002659
7.805000E-8	0.002725
7.810000E-8	0.002694
7.815000E-8	0.002825
7.820000E-8	0.002875
7.825000E-8	0.002916
7.830000E-8	0.002813
7.835000E-8	0.002866
7.840000E-8	0.002866
7.845000E-8	0.002778
7.850000E-8	0.002603
7.855000E-8	0.002547
7.860000E-8	0.002466
7.865000E-8	0.002431
7.870000E-8	0.002325
7.875000E-8	0.002244
7.880000E-8	0.002253
7.885000E-8	0.002250
7.890000E-8	0.002297
7.895000E-8	0.002491
7.900000E-8	0.002437
7.905000E-8	0.002587
7.910000E-8	0.002725
7.915000E-8	0.002784
7.920000E-8	0.002772
7.925000E-8	0.002728
7.930000E-8	0.002691
7.935000E-8	0.002619
7.940000E-8	0.002472
7.945000E-8	0.002463
7.950000E-8	0.002403
7.955000E-8	0.002375
7.960000E-8	0.002291
7.965000E-8	0.002288
7.970000E-8	0.002366
7.975000E-8	0.002434
7.980000E-8	0.002428
7.985000E-8	0.002384
7.990000E-8	0.002447
7.995000E-8	0.002369
8.000000E-8	0.002488
8.005000E-8	0.002681
8.010000E-8	0.002547
8.015000E-8	0.002525
8.020000E-8	0.002659
8.025000E-8	0.002631
8.030000E-8	0.002628
8.035000E-8	0.002741
8.040000E-8	0.002613
8.045000E-8	0.002519
8.050000E-8	0.002363
8.055000E-8	0.002347
8.060000E-8	0.002275
8.065000E-8	0.002272
8.070000E-8	0.002263
8.075000E-8	0.002391
8.080000E-8	0.002450
8.085000E-8	0.002613
8.090000E-8	0.002772
8.095000E-8	0.002884
8.100000E-8	0.002956
8.105000E-8	0.003084
8.110000E-8	0.003028
8.115000E-8	0.002994
8.120000E-8	0.002916
8.125000E-8	0.002931
8.130000E-8	0.002872
8.135000E-8	0.002803
8.140000E-8	0.002644
8.145000E-8	0.002613
8.150000E-8	0.002553
8.155000E-8	0.002484
8.160000E-8	0.002516
8.165000E-8	0.002525
8.170000E-8	0.002575
8.175000E-8	0.002606
8.180000E-8	0.002650
8.185000E-8	0.002844
8.190000E-8	0.002834
8.195000E-8	0.002828
8.200000E-8	0.002797
8.205000E-8	0.002850
8.210000E-8	0.002834
8.215000E-8	0.002744
8.220000E-8	0.002709
8.225000E-8	0.002800
8.230000E-8	0.002697
8.235000E-8	0.002644
8.240000E-8	0.002556
8.245000E-8	0.002447
8.250000E-8	0.002403
8.255000E-8	0.002406
8.260000E-8	0.002356
8.265000E-8	0.002269
8.270000E-8	0.002216
8.275000E-8	0.002313
8.280000E-8	0.002359
8.285000E-8	0.002422
8.290000E-8	0.002347
8.295000E-8	0.002456
8.300000E-8	0.002506
8.305000E-8	0.002519
8.310000E-8	0.002600
8.315000E-8	0.002584
8.320000E-8	0.002531
8.325000E-8	0.002700
8.330000E-8	0.002744
8.335000E-8	0.002872
8.340000E-8	0.002897
8.345000E-8	0.002934
8.350000E-8	0.002947
8.355000E-8	0.003066
8.360000E-8	0.002984
8.365000E-8	0.003028
8.370000E-8	0.002991
8.375000E-8	0.002919
8.380000E-8	0.002772
8.385000E-8	0.002816
8.390000E-8	0.002803
8.395000E-8	0.002741
8.400000E-8	0.002691
8.405000E-8	0.002728
8.410000E-8	0.002731
8.415000E-8	0.002828
8.420000E-8	0.002747
8.425000E-8	0.002781
8.430000E-8	0.002884
8.435000E-8	0.002888
8.440000E-8	0.002788
8.445000E-8	0.002750
8.450000E-8	0.002659
8.455000E-8	0.002644
8.460000E-8	0.002534
8.465000E-8	0.002534
8.470000E-8	0.002638
8.475000E-8	0.002563
8.480000E-8	0.002544
8.485000E-8	0.002609
8.490000E-8	0.002656
8.495000E-8	0.002819
8.500000E-8	0.002600
8.505000E-8	0.002713
8.510000E-8	0.002759
8.515000E-8	0.002713
8.520000E-8	0.002638
8.525000E-8	0.002681
8.530000E-8	0.002403
8.535000E-8	0.002394
8.540000E-8	0.002338
8.545000E-8	0.002322
8.550000E-8	0.002353
8.555000E-8	0.002278
8.560000E-8	0.002200
8.565000E-8	0.002200
8.570000E-8	0.002263
8.575000E-8	0.002366
8.580000E-8	0.002434
8.585000E-8	0.002512
8.590000E-8	0.002606
8.595000E-8	0.002659
8.600000E-8	0.002719
8.605000E-8	0.002809
8.610000E-8	0.002791
8.615000E-8	0.002778
8.620000E-8	0.002647
8.625000E-8	0.002581
8.630000E-8	0.002575
8.635000E-8	0.002544
8.640000E-8	0.002453
8.645000E-8	0.002525
8.650000E-8	0.002512
8.655000E-8	0.002634
8.660000E-8	0.002625
8.665000E-8	0.002578
8.670000E-8	0.002678
8.675000E-8	0.002725
8.680000E-8	0.002734
8.685000E-8	0.002816
8.690000E-8	0.002731
8.695000E-8	0.002863
8.700000E-8	0.002906
8.705000E-8	0.002841
8.710000E-8	0.002622
8.715000E-8	0.002647
8.720000E-8	0.002575
8.725000E-8	0.002638
8.730000E-8	0.002497
8.735000E-8	0.002456
8.740000E-8	0.002478
8.745000E-8	0.002509
8.750000E-8	0.002400
8.755000E-8	0.002434
8.760000E-8	0.002450
8.765000E-8	0.002453
8.770000E-8	0.002503
8.775000E-8	0.002666
8.780000E-8	0.002613
8.785000E-8	0.002753
8.790000E-8	0.002647
8.795000E-8	0.002728
8.800000E-8	0.002766
8.805000E-8	0.002800
8.810000E-8	0.002684
8.815000E-8	0.002556
8.820000E-8	0.002456
8.825000E-8	0.002366
8.830000E-8	0.002247
8.835000E-8	0.002078
8.840000E-8	0.002097
8.845000E-8	0.002034
8.850000E-8	0.002028
8.855000E-8	0.002138
8.860000E-8	0.002119
8.865000E-8	0.002209
8.870000E-8	0.002275
8.875000E-8	0.002516
8.880000E-8	0.002534
8.885000E-8	0.002631
8.890000E-8	0.002753
8.895000E-8	0.002737
8.900000E-8	0.002659
8.905000E-8	0.002759
8.910000E-8	0.002700
8.915000E-8	0.002678
8.920000E-8	0.002559
8.925000E-8	0.002572
8.930000E-8	0.002591
8.935000E-8	0.002563
8.940000E-8	0.002553
8.945000E-8	0.002594
8.950000E-8	0.002463
8.955000E-8	0.002606
8.960000E-8	0.002541
8.965000E-8	0.002522
8.970000E-8	0.002500
8.975000E-8	0.002503
8.980000E-8	0.002478
8.985000E-8	0.002563
8.990000E-8	0.002587
8.995000E-8	0.002456
9.000000E-8	0.002353
9.005000E-8	0.002491
9.010000E-8	0.002469
9.015000E-8	0.002491
9.020000E-8	0.002531
9.025000E-8	0.002416
9.030000E-8	0.002403
9.035000E-8	0.002428
9.040000E-8	0.002369
9.045000E-8	0.002353
9.050000E-8	0.002341
9.055000E-8	0.002319
9.060000E-8	0.002453
9.065000E-8	0.002538
9.070000E-8	0.002506
9.075000E-8	0.002538
9.080000E-8	0.002447
9.085000E-8	0.002481
9.090000E-8	0.002512
9.095000E-8	0.002550
9.100000E-8	0.002622
9.105000E-8	0.002672
9.110000E-8	0.002597
9.115000E-8	0.002669
9.120000E-8	0.002625
9.125000E-8	0.002597
9.130000E-8	0.002553
9.135000E-8	0.002444
9.140000E-8	0.002409
9.145000E-8	0.002325
9.150000E-8	0.002353
9.155000E-8	0.002388
9.160000E-8	0.002372
9.165000E-8	0.002378
9.170000E-8	0.002512
9.175000E-8	0.002631
9.180000E-8	0.002647
9.185000E-8	0.002756
9.190000E-8	0.002625
9.195000E-8	0.002694
9.200000E-8	0.002691
9.205000E-8	0.002678
9.210000E-8	0.002528
9.215000E-8	0.002616
9.220000E-8	0.002688
9.225000E-8	0.002675
9.230000E-8	0.002647
9.235000E-8	0.002703
9.240000E-8	0.002587
9.245000E-8	0.002572
9.250000E-8	0.002591
9.255000E-8	0.002628
9.260000E-8	0.002375
9.265000E-8	0.002434
9.270000E-8	0.002450
9.275000E-8	0.002472
9.280000E-8	0.002359
9.285000E-8	0.002550
9.290000E-8	0.002494
9.295000E-8	0.002509
9.300000E-8	0.002559
9.305000E-8	0.002594
9.310000E-8	0.002659
9.315000E-8	0.002644
9.320000E-8	0.002475
9.325000E-8	0.002488
9.330000E-8	0.002413
9.335000E-8	0.002403
9.340000E-8	0.002331
9.345000E-8	0.002263
9.350000E-8	0.002294
9.355000E-8	0.002228
9.360000E-8	0.002391
9.365000E-8	0.002453
9.370000E-8	0.002372
9.375000E-8	0.002522
9.380000E-8	0.002603
9.385000E-8	0.002681
9.390000E-8	0.002709
9.395000E-8	0.002784
9.400000E-8	0.002722
9.405000E-8	0.002669
9.410000E-8	0.002544
9.415000E-8	0.002525
9.420000E-8	0.002472
9.425000E-8	0.002347
9.430000E-8	0.002344
9.435000E-8	0.002453
9.440000E-8	0.002416
9.445000E-8	0.002450
9.450000E-8	0.002522
9.455000E-8	0.002591
9.460000E-8	0.002541
9.465000E-8	0.002563
9.470000E-8	0.002503
9.475000E-8	0.002559
9.480000E-8	0.002469
9.485000E-8	0.002497
9.490000E-8	0.002419
9.495000E-8	0.002444
9.500000E-8	0.002394
9.505000E-8	0.002369
9.510000E-8	0.002419
9.515000E-8	0.002581
9.520000E-8	0.002550
9.525000E-8	0.002653
9.530000E-8	0.002731
9.535000E-8	0.002856
9.540000E-8	0.002809
9.545000E-8	0.002897
9.550000E-8	0.002931
9.555000E-8	0.002916
9.560000E-8	0.002891
9.565000E-8	0.002934
9.570000E-8	0.002881
9.575000E-8	0.002781
9.580000E-8	0.002634
9.585000E-8	0.002650
9.590000E-8	0.002644
9.595000E-8	0.002613
9.600000E-8	0.002475
9.605000E-8	0.002556
9.610000E-8	0.002556
9.615000E-8	0.002569
9.620000E-8	0.002606
9.625000E-8	0.002684
9.630000E-8	0.002675
9.635000E-8	0.002669
9.640000E-8	0.002509
9.645000E-8	0.002509
9.650000E-8	0.002394
9.655000E-8	0.002344
9.660000E-8	0.002241
9.665000E-8	0.002284
9.670000E-8	0.002172
9.675000E-8	0.002250
9.680000E-8	0.002297
9.685000E-8	0.002313
9.690000E-8	0.002425
9.695000E-8	0.002400
9.700000E-8	0.002344
9.705000E-8	0.002494
9.710000E-8	0.002544
9.715000E-8	0.002669
9.720000E-8	0.002672
9.725000E-8	0.002700
9.730000E-8	0.002666
9.735000E-8	0.002600
9.740000E-8	0.002656
9.745000E-8	0.002606
9.750000E-8	0.002672
9.755000E-8	0.002641
9.760000E-8	0.002522
9.765000E-8	0.002572
9.770000E-8	0.002453
9.775000E-8	0.002481
9.780000E-8	0.002534
9.785000E-8	0.002413
9.790000E-8	0.002297
9.795000E-8	0.002237
9.800000E-8	0.002216
9.805000E-8	0.002247
9.810000E-8	0.002303
9.815000E-8	0.002372
9.820000E-8	0.002428
9.825000E-8	0.002472
9.830000E-8	0.002522
9.835000E-8	0.002550
9.840000E-8	0.002587
9.845000E-8	0.002691
9.850000E-8	0.002681
9.855000E-8	0.002894
9.860000E-8	0.002947
9.865000E-8	0.002950
9.870000E-8	0.002997
9.875000E-8	0.003006
9.880000E-8	0.002969
9.885000E-8	0.002909
9.890000E-8	0.002788
9.895000E-8	0.002684
9.900000E-8	0.002672
9.905000E-8	0.002569
9.910000E-8	0.002641
9.915000E-8	0.002666
9.920000E-8	0.002584
9.925000E-8	0.002672
9.930000E-8	0.002634
9.935000E-8	0.002644
9.940000E-8	0.002641
9.945000E-8	0.002572
9.950000E-8	0.002509
9.955000E-8	0.002606
9.960000E-8	0.002494
9.965000E-8	0.002475
9.970000E-8	0.002472
9.975000E-8	0.002581
9.980000E-8	0.002541
9.985000E-8	0.002584
9.990000E-8	0.002644
9.995000E-8	0.002650
