LabVIEW Measurement	
Writer_Version	2
Reader_Version	2
Separator	Tab
Decimal_Separator	.
Multi_Headings	No
X_Columns	Multi
Time_Pref	Relative
Operator	TG lab
Date	2015/03/06
Time	18:17:39.8863825798034667969
***End_of_Header***	
	
Channels	1	
Samples	2000	
Date	1903/12/31	
Time	19:00:00	
X_Dimension	Time	
X0	0.0000000000000000E+0	
Delta_X	5.000000E-11	
***End_of_Header***		
X_Value	Untitled	Comment
0.000000	0.002641
5.000000E-11	0.002703
1.000000E-10	0.002750
1.500000E-10	0.002773
2.000000E-10	0.002477
2.500000E-10	0.002703
3.000000E-10	0.002547
3.500000E-10	0.002812
4.000000E-10	0.002836
4.500000E-10	0.002820
5.000000E-10	0.002914
5.500000E-10	0.003125
6.000000E-10	0.003156
6.500000E-10	0.003289
7.000000E-10	0.003125
7.500000E-10	0.003156
8.000000E-10	0.002977
8.500000E-10	0.003023
9.000000E-10	0.003008
9.500000E-10	0.002961
1.000000E-9	0.003023
1.050000E-9	0.003383
1.100000E-9	0.003164
1.150000E-9	0.003312
1.200000E-9	0.003453
1.250000E-9	0.003344
1.300000E-9	0.003430
1.350000E-9	0.003328
1.400000E-9	0.003320
1.450000E-9	0.003445
1.500000E-9	0.003180
1.550000E-9	0.003328
1.600000E-9	0.003195
1.650000E-9	0.003250
1.700000E-9	0.003289
1.750000E-9	0.003492
1.800000E-9	0.003359
1.850000E-9	0.003594
1.900000E-9	0.003602
1.950000E-9	0.003484
2.000000E-9	0.003539
2.050000E-9	0.003516
2.100000E-9	0.003516
2.150000E-9	0.003680
2.200000E-9	0.003820
2.250000E-9	0.003836
2.300000E-9	0.003977
2.350000E-9	0.003836
2.400000E-9	0.003656
2.450000E-9	0.003992
2.500000E-9	0.004023
2.550000E-9	0.004164
2.600000E-9	0.004125
2.650000E-9	0.004148
2.700000E-9	0.004008
2.750000E-9	0.004219
2.800000E-9	0.003922
2.850000E-9	0.004047
2.900000E-9	0.004063
2.950000E-9	0.004117
3.000000E-9	0.004203
3.050000E-9	0.004336
3.100000E-9	0.003969
3.150000E-9	0.004086
3.200000E-9	0.003969
3.250000E-9	0.004188
3.300000E-9	0.004281
3.350000E-9	0.004391
3.400000E-9	0.004195
3.450000E-9	0.004516
3.500000E-9	0.004289
3.550000E-9	0.004391
3.600000E-9	0.004211
3.650000E-9	0.004352
3.700000E-9	0.004195
3.750000E-9	0.004687
3.800000E-9	0.004672
3.850000E-9	0.005047
3.900000E-9	0.005039
3.950000E-9	0.005219
4.000000E-9	0.005125
4.050000E-9	0.005766
4.100000E-9	0.005867
4.150000E-9	0.006148
4.200000E-9	0.006516
4.250000E-9	0.006922
4.300000E-9	0.007156
4.350000E-9	0.007977
4.400000E-9	0.008602
4.450000E-9	0.009562
4.500000E-9	0.010539
4.550000E-9	0.011859
4.600000E-9	0.013102
4.650000E-9	0.014680
4.700000E-9	0.016289
4.750000E-9	0.017977
4.800000E-9	0.019672
4.850000E-9	0.021352
4.900000E-9	0.022898
4.950000E-9	0.024750
5.000000E-9	0.026875
5.050000E-9	0.029359
5.100000E-9	0.031695
5.150000E-9	0.034203
5.200000E-9	0.036578
5.250000E-9	0.039250
5.300000E-9	0.041906
5.350000E-9	0.044484
5.400000E-9	0.046531
5.450000E-9	0.048727
5.500000E-9	0.049984
5.550000E-9	0.051352
5.600000E-9	0.051805
5.650000E-9	0.052000
5.700000E-9	0.051570
5.750000E-9	0.050625
5.800000E-9	0.049148
5.850000E-9	0.047297
5.900000E-9	0.044945
5.950000E-9	0.042516
6.000000E-9	0.039648
6.050000E-9	0.037125
6.100000E-9	0.034617
6.150000E-9	0.032453
6.200000E-9	0.030562
6.250000E-9	0.029594
6.300000E-9	0.028609
6.350000E-9	0.028281
6.400000E-9	0.028195
6.450000E-9	0.028625
6.500000E-9	0.029289
6.550000E-9	0.030312
6.600000E-9	0.031195
6.650000E-9	0.032047
6.700000E-9	0.032680
6.750000E-9	0.033422
6.800000E-9	0.033758
6.850000E-9	0.034203
6.900000E-9	0.034109
6.950000E-9	0.034133
7.000000E-9	0.033844
7.050000E-9	0.033180
7.100000E-9	0.032016
7.150000E-9	0.030805
7.200000E-9	0.029172
7.250000E-9	0.027695
7.300000E-9	0.025633
7.350000E-9	0.023930
7.400000E-9	0.022117
7.450000E-9	0.020734
7.500000E-9	0.019258
7.550000E-9	0.018422
7.600000E-9	0.017906
7.650000E-9	0.017805
7.700000E-9	0.017930
7.750000E-9	0.018445
7.800000E-9	0.018719
7.850000E-9	0.019711
7.900000E-9	0.020320
7.950000E-9	0.021391
8.000000E-9	0.021977
8.050000E-9	0.023148
8.100000E-9	0.023883
8.150000E-9	0.024688
8.200000E-9	0.024797
8.250000E-9	0.025219
8.300000E-9	0.024820
8.350000E-9	0.024203
8.400000E-9	0.023359
8.450000E-9	0.022453
8.500000E-9	0.021297
8.550000E-9	0.019641
8.600000E-9	0.018062
8.650000E-9	0.016609
8.700000E-9	0.015289
8.750000E-9	0.014141
8.800000E-9	0.012930
8.850000E-9	0.012180
8.900000E-9	0.011437
8.950000E-9	0.011039
9.000000E-9	0.010922
9.050000E-9	0.011117
9.100000E-9	0.011609
9.150000E-9	0.012219
9.200000E-9	0.012891
9.250000E-9	0.013836
9.300000E-9	0.014594
9.350000E-9	0.015625
9.400000E-9	0.016195
9.450000E-9	0.017047
9.500000E-9	0.017688
9.550000E-9	0.018031
9.600000E-9	0.018227
9.650000E-9	0.017977
9.700000E-9	0.017242
9.750000E-9	0.016805
9.800000E-9	0.015820
9.850000E-9	0.014969
9.900000E-9	0.013648
9.950000E-9	0.012367
1.000000E-8	0.011391
1.005000E-8	0.010219
1.010000E-8	0.009094
1.015000E-8	0.008383
1.020000E-8	0.007727
1.025000E-8	0.007375
1.030000E-8	0.007125
1.035000E-8	0.007039
1.040000E-8	0.007422
1.045000E-8	0.007945
1.050000E-8	0.008617
1.055000E-8	0.009547
1.060000E-8	0.010266
1.065000E-8	0.011117
1.070000E-8	0.011852
1.075000E-8	0.012766
1.080000E-8	0.013336
1.085000E-8	0.013977
1.090000E-8	0.014188
1.095000E-8	0.014297
1.100000E-8	0.014281
1.105000E-8	0.013953
1.110000E-8	0.013352
1.115000E-8	0.012484
1.120000E-8	0.011602
1.125000E-8	0.010438
1.130000E-8	0.009461
1.135000E-8	0.008664
1.140000E-8	0.007422
1.145000E-8	0.006789
1.150000E-8	0.005750
1.155000E-8	0.005172
1.160000E-8	0.004930
1.165000E-8	0.004625
1.170000E-8	0.004664
1.175000E-8	0.005164
1.180000E-8	0.005555
1.185000E-8	0.006336
1.190000E-8	0.007094
1.195000E-8	0.008133
1.200000E-8	0.009047
1.205000E-8	0.010039
1.210000E-8	0.010594
1.215000E-8	0.011344
1.220000E-8	0.011758
1.225000E-8	0.012070
1.230000E-8	0.011984
1.235000E-8	0.011938
1.240000E-8	0.011562
1.245000E-8	0.011031
1.250000E-8	0.010031
1.255000E-8	0.009305
1.260000E-8	0.007953
1.265000E-8	0.007070
1.270000E-8	0.005562
1.275000E-8	0.004578
1.280000E-8	0.003859
1.285000E-8	0.003445
1.290000E-8	0.002828
1.295000E-8	0.002594
1.300000E-8	0.002641
1.305000E-8	0.003258
1.310000E-8	0.003578
1.315000E-8	0.004578
1.320000E-8	0.005414
1.325000E-8	0.006430
1.330000E-8	0.007539
1.335000E-8	0.008555
1.340000E-8	0.009469
1.345000E-8	0.010258
1.350000E-8	0.010859
1.355000E-8	0.011375
1.360000E-8	0.011656
1.365000E-8	0.011453
1.370000E-8	0.010781
1.375000E-8	0.010406
1.380000E-8	0.009172
1.385000E-8	0.008227
1.390000E-8	0.007234
1.395000E-8	0.006281
1.400000E-8	0.005078
1.405000E-8	0.003945
1.410000E-8	0.002953
1.415000E-8	0.002133
1.420000E-8	0.001656
1.425000E-8	0.001352
1.430000E-8	0.001141
1.435000E-8	0.001477
1.440000E-8	0.001781
1.445000E-8	0.002398
1.450000E-8	0.003164
1.455000E-8	0.004281
1.460000E-8	0.005453
1.465000E-8	0.006844
1.470000E-8	0.007734
1.475000E-8	0.008766
1.480000E-8	0.009195
1.485000E-8	0.009594
1.490000E-8	0.009781
1.495000E-8	0.009906
1.500000E-8	0.009500
1.505000E-8	0.008938
1.510000E-8	0.008125
1.515000E-8	0.007352
1.520000E-8	0.006008
1.525000E-8	0.005109
1.530000E-8	0.003711
1.535000E-8	0.002602
1.540000E-8	0.001555
1.545000E-8	0.001016
1.550000E-8	0.000422
1.555000E-8	0.000148
1.560000E-8	-0.000203
1.565000E-8	4.687500E-5
1.570000E-8	0.000297
1.575000E-8	0.001008
1.580000E-8	0.001984
1.585000E-8	0.003203
1.590000E-8	0.004203
1.595000E-8	0.005375
1.600000E-8	0.006438
1.605000E-8	0.007320
1.610000E-8	0.008141
1.615000E-8	0.008891
1.620000E-8	0.009187
1.625000E-8	0.009234
1.630000E-8	0.008961
1.635000E-8	0.008414
1.640000E-8	0.007562
1.645000E-8	0.006687
1.650000E-8	0.005508
1.655000E-8	0.004398
1.660000E-8	0.003281
1.665000E-8	0.002180
1.670000E-8	0.001172
1.675000E-8	0.000492
1.680000E-8	-0.000273
1.685000E-8	-0.000531
1.690000E-8	-0.000750
1.695000E-8	-0.000406
1.700000E-8	-0.000109
1.705000E-8	0.000711
1.710000E-8	0.001406
1.715000E-8	0.002680
1.720000E-8	0.003820
1.725000E-8	0.004859
1.730000E-8	0.005773
1.735000E-8	0.006922
1.740000E-8	0.007680
1.745000E-8	0.008078
1.750000E-8	0.008266
1.755000E-8	0.008344
1.760000E-8	0.007914
1.765000E-8	0.007289
1.770000E-8	0.006508
1.775000E-8	0.005625
1.780000E-8	0.004664
1.785000E-8	0.003680
1.790000E-8	0.002617
1.795000E-8	0.001742
1.800000E-8	0.000789
1.805000E-8	4.687500E-5
1.810000E-8	-0.000469
1.815000E-8	-0.000906
1.820000E-8	-0.000945
1.825000E-8	-0.000695
1.830000E-8	-0.000172
1.835000E-8	0.000516
1.840000E-8	0.001094
1.845000E-8	0.002297
1.850000E-8	0.003203
1.855000E-8	0.004352
1.860000E-8	0.005281
1.865000E-8	0.006172
1.870000E-8	0.006898
1.875000E-8	0.007398
1.880000E-8	0.007664
1.885000E-8	0.007695
1.890000E-8	0.007500
1.895000E-8	0.006984
1.900000E-8	0.006094
1.905000E-8	0.005188
1.910000E-8	0.004297
1.915000E-8	0.003664
1.920000E-8	0.002625
1.925000E-8	0.001969
1.930000E-8	0.001070
1.935000E-8	0.000594
1.940000E-8	-0.000141
1.945000E-8	-0.000281
1.950000E-8	-0.000438
1.955000E-8	-7.031250E-5
1.960000E-8	0.000234
1.965000E-8	0.000687
1.970000E-8	0.001430
1.975000E-8	0.002273
1.980000E-8	0.003336
1.985000E-8	0.004242
1.990000E-8	0.005031
1.995000E-8	0.005938
2.000000E-8	0.006305
2.005000E-8	0.006805
2.010000E-8	0.007078
2.015000E-8	0.007148
2.020000E-8	0.007070
2.025000E-8	0.006758
2.030000E-8	0.006102
2.035000E-8	0.005438
2.040000E-8	0.004562
2.045000E-8	0.003555
2.050000E-8	0.002719
2.055000E-8	0.001914
2.060000E-8	0.001172
2.065000E-8	0.000711
2.070000E-8	-7.812500E-6
2.075000E-8	-0.000133
2.080000E-8	-0.000563
2.085000E-8	-0.000398
2.090000E-8	-0.000234
2.095000E-8	0.000258
2.100000E-8	0.000711
2.105000E-8	0.001648
2.110000E-8	0.002133
2.115000E-8	0.003273
2.120000E-8	0.004063
2.125000E-8	0.004922
2.130000E-8	0.005492
2.135000E-8	0.006195
2.140000E-8	0.006672
2.145000E-8	0.007086
2.150000E-8	0.007008
2.155000E-8	0.006773
2.160000E-8	0.006266
2.165000E-8	0.005680
2.170000E-8	0.004875
2.175000E-8	0.004328
2.180000E-8	0.003305
2.185000E-8	0.002445
2.190000E-8	0.001625
2.195000E-8	0.001016
2.200000E-8	0.000227
2.205000E-8	-8.593750E-5
2.210000E-8	-0.000422
2.215000E-8	-0.000516
2.220000E-8	-0.000430
2.225000E-8	7.812500E-5
2.230000E-8	0.000539
2.235000E-8	0.001234
2.240000E-8	0.001719
2.245000E-8	0.002789
2.250000E-8	0.003484
2.255000E-8	0.004523
2.260000E-8	0.005133
2.265000E-8	0.005734
2.270000E-8	0.006102
2.275000E-8	0.006664
2.280000E-8	0.006695
2.285000E-8	0.006484
2.290000E-8	0.006258
2.295000E-8	0.005805
2.300000E-8	0.004969
2.305000E-8	0.004242
2.310000E-8	0.003336
2.315000E-8	0.002648
2.320000E-8	0.001633
2.325000E-8	0.000531
2.330000E-8	-1.562500E-5
2.335000E-8	-0.000539
2.340000E-8	-0.000719
2.345000E-8	-0.000828
2.350000E-8	-0.000828
2.355000E-8	-0.000359
2.360000E-8	-6.250000E-5
2.365000E-8	0.000602
2.370000E-8	0.001039
2.375000E-8	0.002258
2.380000E-8	0.003000
2.385000E-8	0.003758
2.390000E-8	0.004617
2.395000E-8	0.005328
2.400000E-8	0.005750
2.405000E-8	0.006234
2.410000E-8	0.006305
2.415000E-8	0.006344
2.420000E-8	0.005758
2.425000E-8	0.005453
2.430000E-8	0.004797
2.435000E-8	0.004070
2.440000E-8	0.003055
2.445000E-8	0.002305
2.450000E-8	0.001422
2.455000E-8	0.000641
2.460000E-8	-3.906250E-5
2.465000E-8	-0.000375
2.470000E-8	-0.000766
2.475000E-8	-0.000656
2.480000E-8	-0.000750
2.485000E-8	-0.000352
2.490000E-8	2.343750E-5
2.495000E-8	0.000617
2.500000E-8	0.001484
2.505000E-8	0.002406
2.510000E-8	0.003305
2.515000E-8	0.004406
2.520000E-8	0.005016
2.525000E-8	0.005711
2.530000E-8	0.006094
2.535000E-8	0.006750
2.540000E-8	0.006727
2.545000E-8	0.006594
2.550000E-8	0.006336
2.555000E-8	0.006000
2.560000E-8	0.005336
2.565000E-8	0.004977
2.570000E-8	0.004047
2.575000E-8	0.003336
2.580000E-8	0.002227
2.585000E-8	0.001406
2.590000E-8	0.000648
2.595000E-8	0.000148
2.600000E-8	-0.000328
2.605000E-8	-0.000492
2.610000E-8	-0.000695
2.615000E-8	-0.000281
2.620000E-8	0.000109
2.625000E-8	0.000797
2.630000E-8	0.001445
2.635000E-8	0.002063
2.640000E-8	0.002867
2.645000E-8	0.003703
2.650000E-8	0.004398
2.655000E-8	0.005227
2.660000E-8	0.005711
2.665000E-8	0.006359
2.670000E-8	0.006273
2.675000E-8	0.006156
2.680000E-8	0.005977
2.685000E-8	0.005469
2.690000E-8	0.004945
2.695000E-8	0.004320
2.700000E-8	0.003148
2.705000E-8	0.002445
2.710000E-8	0.001563
2.715000E-8	0.000984
2.720000E-8	0.000195
2.725000E-8	-0.000180
2.730000E-8	-0.000547
2.735000E-8	-0.000633
2.740000E-8	-0.000914
2.745000E-8	-0.000344
2.750000E-8	-0.000133
2.755000E-8	0.000391
2.760000E-8	0.001086
2.765000E-8	0.002000
2.770000E-8	0.002750
2.775000E-8	0.003648
2.780000E-8	0.004562
2.785000E-8	0.005352
2.790000E-8	0.005758
2.795000E-8	0.005969
2.800000E-8	0.005914
2.805000E-8	0.005805
2.810000E-8	0.005516
2.815000E-8	0.005180
2.820000E-8	0.004695
2.825000E-8	0.004414
2.830000E-8	0.003672
2.835000E-8	0.002953
2.840000E-8	0.002141
2.845000E-8	0.001367
2.850000E-8	0.000687
2.855000E-8	0.000406
2.860000E-8	-3.906250E-5
2.865000E-8	-7.031250E-5
2.870000E-8	-0.000289
2.875000E-8	-6.250000E-5
2.880000E-8	0.000195
2.885000E-8	0.000805
2.890000E-8	0.001406
2.895000E-8	0.002117
2.900000E-8	0.002719
2.905000E-8	0.003891
2.910000E-8	0.004211
2.915000E-8	0.004781
2.920000E-8	0.005023
2.925000E-8	0.005492
2.930000E-8	0.005508
2.935000E-8	0.005406
2.940000E-8	0.005055
2.945000E-8	0.004969
2.950000E-8	0.004414
2.955000E-8	0.003703
2.960000E-8	0.002977
2.965000E-8	0.002656
2.970000E-8	0.001836
2.975000E-8	0.001336
2.980000E-8	0.000734
2.985000E-8	0.000297
2.990000E-8	-0.000117
2.995000E-8	-0.000195
3.000000E-8	-0.000211
3.005000E-8	7.812500E-6
3.010000E-8	0.000164
3.015000E-8	0.000484
3.020000E-8	0.000906
3.025000E-8	0.001648
3.030000E-8	0.002055
3.035000E-8	0.002805
3.040000E-8	0.003516
3.045000E-8	0.004023
3.050000E-8	0.004523
3.055000E-8	0.005117
3.060000E-8	0.005242
3.065000E-8	0.005422
3.070000E-8	0.004945
3.075000E-8	0.004836
3.080000E-8	0.004406
3.085000E-8	0.003992
3.090000E-8	0.003641
3.095000E-8	0.003242
3.100000E-8	0.002484
3.105000E-8	0.002094
3.110000E-8	0.001359
3.115000E-8	0.000883
3.120000E-8	0.000289
3.125000E-8	9.375000E-5
3.130000E-8	-0.000313
3.135000E-8	-7.812500E-5
3.140000E-8	-0.000234
3.145000E-8	0.000211
3.150000E-8	0.000563
3.155000E-8	0.001258
3.160000E-8	0.001852
3.165000E-8	0.002570
3.170000E-8	0.003180
3.175000E-8	0.003852
3.180000E-8	0.004195
3.185000E-8	0.004734
3.190000E-8	0.004914
3.195000E-8	0.005219
3.200000E-8	0.005008
3.205000E-8	0.004828
3.210000E-8	0.004391
3.215000E-8	0.004188
3.220000E-8	0.003703
3.225000E-8	0.003125
3.230000E-8	0.002555
3.235000E-8	0.001883
3.240000E-8	0.001297
3.245000E-8	0.000875
3.250000E-8	0.000422
3.255000E-8	0.000305
3.260000E-8	0.000227
3.265000E-8	9.375000E-5
3.270000E-8	0.000391
3.275000E-8	0.000477
3.280000E-8	0.000906
3.285000E-8	0.001352
3.290000E-8	0.001883
3.295000E-8	0.002344
3.300000E-8	0.003039
3.305000E-8	0.003563
3.310000E-8	0.003828
3.315000E-8	0.004320
3.320000E-8	0.004562
3.325000E-8	0.004898
3.330000E-8	0.004906
3.335000E-8	0.004984
3.340000E-8	0.004781
3.345000E-8	0.004602
3.350000E-8	0.003961
3.355000E-8	0.003539
3.360000E-8	0.003258
3.365000E-8	0.002656
3.370000E-8	0.002094
3.375000E-8	0.001727
3.380000E-8	0.001055
3.385000E-8	0.000656
3.390000E-8	0.000328
3.395000E-8	0.000422
3.400000E-8	0.000516
3.405000E-8	0.000797
3.410000E-8	0.001195
3.415000E-8	0.001727
3.420000E-8	0.002078
3.425000E-8	0.002781
3.430000E-8	0.003023
3.435000E-8	0.003734
3.440000E-8	0.004156
3.445000E-8	0.004523
3.450000E-8	0.004875
3.455000E-8	0.005352
3.460000E-8	0.005227
3.465000E-8	0.005594
3.470000E-8	0.005367
3.475000E-8	0.005359
3.480000E-8	0.004773
3.485000E-8	0.004063
3.490000E-8	0.003438
3.495000E-8	0.002789
3.500000E-8	0.002102
3.505000E-8	0.001664
3.510000E-8	0.001000
3.515000E-8	0.000703
3.520000E-8	0.000289
3.525000E-8	0.000320
3.530000E-8	0.000563
3.535000E-8	0.000750
3.540000E-8	0.000945
3.545000E-8	0.001531
3.550000E-8	0.002047
3.555000E-8	0.002773
3.560000E-8	0.003234
3.565000E-8	0.003883
3.570000E-8	0.004336
3.575000E-8	0.004914
3.580000E-8	0.004859
3.585000E-8	0.005547
3.590000E-8	0.005242
3.595000E-8	0.005430
3.600000E-8	0.005063
3.605000E-8	0.004750
3.610000E-8	0.004391
3.615000E-8	0.003961
3.620000E-8	0.003273
3.625000E-8	0.002633
3.630000E-8	0.002078
3.635000E-8	0.001406
3.640000E-8	0.000625
3.645000E-8	0.000469
3.650000E-8	0.000266
3.655000E-8	0.000273
3.660000E-8	0.000375
3.665000E-8	0.000641
3.670000E-8	0.000852
3.675000E-8	0.001484
3.680000E-8	0.001852
3.685000E-8	0.002734
3.690000E-8	0.003031
3.695000E-8	0.003594
3.700000E-8	0.003844
3.705000E-8	0.004234
3.710000E-8	0.004469
3.715000E-8	0.004852
3.720000E-8	0.004867
3.725000E-8	0.004867
3.730000E-8	0.004555
3.735000E-8	0.004289
3.740000E-8	0.003859
3.745000E-8	0.003484
3.750000E-8	0.002867
3.755000E-8	0.002344
3.760000E-8	0.001781
3.765000E-8	0.001273
3.770000E-8	0.000859
3.775000E-8	0.000750
3.780000E-8	0.000430
3.785000E-8	7.031250E-5
3.790000E-8	0.000180
3.795000E-8	0.000461
3.800000E-8	0.000766
3.805000E-8	0.001250
3.810000E-8	0.001891
3.815000E-8	0.002320
3.820000E-8	0.003008
3.825000E-8	0.003570
3.830000E-8	0.004023
3.835000E-8	0.004578
3.840000E-8	0.004656
3.845000E-8	0.005203
3.850000E-8	0.005016
3.855000E-8	0.004984
3.860000E-8	0.004852
3.865000E-8	0.004609
3.870000E-8	0.004102
3.875000E-8	0.003617
3.880000E-8	0.003141
3.885000E-8	0.002844
3.890000E-8	0.002188
3.895000E-8	0.001836
3.900000E-8	0.001359
3.905000E-8	0.000937
3.910000E-8	0.000648
3.915000E-8	0.000789
3.920000E-8	0.000766
3.925000E-8	0.001047
3.930000E-8	0.001281
3.935000E-8	0.001687
3.940000E-8	0.001969
3.945000E-8	0.002547
3.950000E-8	0.003172
3.955000E-8	0.003492
3.960000E-8	0.003984
3.965000E-8	0.004313
3.970000E-8	0.004508
3.975000E-8	0.004648
3.980000E-8	0.004672
3.985000E-8	0.004719
3.990000E-8	0.004477
3.995000E-8	0.004422
4.000000E-8	0.004164
4.005000E-8	0.003727
4.010000E-8	0.003172
4.015000E-8	0.003031
4.020000E-8	0.002437
4.025000E-8	0.001984
4.030000E-8	0.001297
4.035000E-8	0.001148
4.040000E-8	0.000859
4.045000E-8	0.000891
4.050000E-8	0.000844
4.055000E-8	0.000992
4.060000E-8	0.001086
4.065000E-8	0.001523
4.070000E-8	0.001859
4.075000E-8	0.002148
4.080000E-8	0.002430
4.085000E-8	0.002922
4.090000E-8	0.003188
4.095000E-8	0.003680
4.100000E-8	0.003734
4.105000E-8	0.004188
4.110000E-8	0.004211
4.115000E-8	0.004406
4.120000E-8	0.004352
4.125000E-8	0.004148
4.130000E-8	0.003758
4.135000E-8	0.003766
4.140000E-8	0.003242
4.145000E-8	0.003078
4.150000E-8	0.002680
4.155000E-8	0.002289
4.160000E-8	0.001813
4.165000E-8	0.001352
4.170000E-8	0.001187
4.175000E-8	0.001227
4.180000E-8	0.000906
4.185000E-8	0.000898
4.190000E-8	0.000766
4.195000E-8	0.001039
4.200000E-8	0.001563
4.205000E-8	0.001891
4.210000E-8	0.002391
4.215000E-8	0.002945
4.220000E-8	0.003461
4.225000E-8	0.003852
4.230000E-8	0.004063
4.235000E-8	0.004516
4.240000E-8	0.004625
4.245000E-8	0.004578
4.250000E-8	0.004367
4.255000E-8	0.004227
4.260000E-8	0.004031
4.265000E-8	0.003789
4.270000E-8	0.003164
4.275000E-8	0.002883
4.280000E-8	0.002211
4.285000E-8	0.001586
4.290000E-8	0.001133
4.295000E-8	0.000977
4.300000E-8	0.000734
4.305000E-8	0.000898
4.310000E-8	0.000594
4.315000E-8	0.000828
4.320000E-8	0.000680
4.325000E-8	0.001219
4.330000E-8	0.001555
4.335000E-8	0.002047
4.340000E-8	0.002508
4.345000E-8	0.003008
4.350000E-8	0.003461
4.355000E-8	0.003906
4.360000E-8	0.004156
4.365000E-8	0.004344
4.370000E-8	0.004422
4.375000E-8	0.004547
4.380000E-8	0.004227
4.385000E-8	0.004164
4.390000E-8	0.004078
4.395000E-8	0.003820
4.400000E-8	0.003352
4.405000E-8	0.003031
4.410000E-8	0.002414
4.415000E-8	0.002094
4.420000E-8	0.001578
4.425000E-8	0.001484
4.430000E-8	0.001031
4.435000E-8	0.001031
4.440000E-8	0.000922
4.445000E-8	0.001023
4.450000E-8	0.001023
4.455000E-8	0.001625
4.460000E-8	0.001680
4.465000E-8	0.002047
4.470000E-8	0.002383
4.475000E-8	0.003023
4.480000E-8	0.003250
4.485000E-8	0.003688
4.490000E-8	0.003953
4.495000E-8	0.004313
4.500000E-8	0.004320
4.505000E-8	0.004477
4.510000E-8	0.004398
4.515000E-8	0.004195
4.520000E-8	0.003883
4.525000E-8	0.003609
4.530000E-8	0.003383
4.535000E-8	0.003094
4.540000E-8	0.002773
4.545000E-8	0.002445
4.550000E-8	0.001898
4.555000E-8	0.001781
4.560000E-8	0.001258
4.565000E-8	0.001109
4.570000E-8	0.000977
4.575000E-8	0.001078
4.580000E-8	0.001008
4.585000E-8	0.001195
4.590000E-8	0.001313
4.595000E-8	0.001594
4.600000E-8	0.001898
4.605000E-8	0.002375
4.610000E-8	0.002695
4.615000E-8	0.003398
4.620000E-8	0.003836
4.625000E-8	0.004195
4.630000E-8	0.004586
4.635000E-8	0.004773
4.640000E-8	0.004687
4.645000E-8	0.004914
4.650000E-8	0.004516
4.655000E-8	0.004391
4.660000E-8	0.003805
4.665000E-8	0.003680
4.670000E-8	0.002984
4.675000E-8	0.002625
4.680000E-8	0.002102
4.685000E-8	0.001789
4.690000E-8	0.001289
4.695000E-8	0.001234
4.700000E-8	0.001047
4.705000E-8	0.001000
4.710000E-8	0.001109
4.715000E-8	0.001391
4.720000E-8	0.001617
4.725000E-8	0.002086
4.730000E-8	0.002328
4.735000E-8	0.002758
4.740000E-8	0.003031
4.745000E-8	0.003266
4.750000E-8	0.003414
4.755000E-8	0.003656
4.760000E-8	0.003742
4.765000E-8	0.003953
4.770000E-8	0.003664
4.775000E-8	0.003742
4.780000E-8	0.003531
4.785000E-8	0.003250
4.790000E-8	0.002867
4.795000E-8	0.002781
4.800000E-8	0.002250
4.805000E-8	0.002148
4.810000E-8	0.001781
4.815000E-8	0.001813
4.820000E-8	0.001492
4.825000E-8	0.001398
4.830000E-8	0.001148
4.835000E-8	0.001133
4.840000E-8	0.000883
4.845000E-8	0.000992
4.850000E-8	0.001148
4.855000E-8	0.001719
4.860000E-8	0.001867
4.865000E-8	0.002164
4.870000E-8	0.002734
4.875000E-8	0.003180
4.880000E-8	0.003297
4.885000E-8	0.003734
4.890000E-8	0.003836
4.895000E-8	0.003945
4.900000E-8	0.003945
4.905000E-8	0.003852
4.910000E-8	0.003711
4.915000E-8	0.003328
4.920000E-8	0.003008
4.925000E-8	0.002805
4.930000E-8	0.002172
4.935000E-8	0.002117
4.940000E-8	0.001813
4.945000E-8	0.001508
4.950000E-8	0.001297
4.955000E-8	0.001164
4.960000E-8	0.000859
4.965000E-8	0.000906
4.970000E-8	0.000742
4.975000E-8	0.001125
4.980000E-8	0.001219
4.985000E-8	0.001516
4.990000E-8	0.001836
4.995000E-8	0.002203
5.000000E-8	0.002375
5.005000E-8	0.002969
5.010000E-8	0.003094
5.015000E-8	0.003664
5.020000E-8	0.003641
5.025000E-8	0.003977
5.030000E-8	0.003805
5.035000E-8	0.003859
5.040000E-8	0.003492
5.045000E-8	0.003305
5.050000E-8	0.002797
5.055000E-8	0.002781
5.060000E-8	0.002555
5.065000E-8	0.002258
5.070000E-8	0.002039
5.075000E-8	0.001695
5.080000E-8	0.001289
5.085000E-8	0.001297
5.090000E-8	0.000883
5.095000E-8	0.000984
5.100000E-8	0.000922
5.105000E-8	0.001109
5.110000E-8	0.001187
5.115000E-8	0.001555
5.120000E-8	0.001781
5.125000E-8	0.002312
5.130000E-8	0.002508
5.135000E-8	0.003016
5.140000E-8	0.003375
5.145000E-8	0.003789
5.150000E-8	0.003984
5.155000E-8	0.004219
5.160000E-8	0.004305
5.165000E-8	0.004281
5.170000E-8	0.004164
5.175000E-8	0.004070
5.180000E-8	0.003664
5.185000E-8	0.003484
5.190000E-8	0.003016
5.195000E-8	0.002820
5.200000E-8	0.002469
5.205000E-8	0.002086
5.210000E-8	0.001680
5.215000E-8	0.001602
5.220000E-8	0.001328
5.225000E-8	0.001242
5.230000E-8	0.000953
5.235000E-8	0.001359
5.240000E-8	0.001445
5.245000E-8	0.001906
5.250000E-8	0.002125
5.255000E-8	0.002305
5.260000E-8	0.002586
5.265000E-8	0.002844
5.270000E-8	0.002914
5.275000E-8	0.003539
5.280000E-8	0.003500
5.285000E-8	0.003711
5.290000E-8	0.003766
5.295000E-8	0.004016
5.300000E-8	0.004016
5.305000E-8	0.003844
5.310000E-8	0.003781
5.315000E-8	0.003609
5.320000E-8	0.003328
5.325000E-8	0.003188
5.330000E-8	0.002930
5.335000E-8	0.002484
5.340000E-8	0.002453
5.345000E-8	0.002047
5.350000E-8	0.001617
5.355000E-8	0.001555
5.360000E-8	0.001102
5.365000E-8	0.001430
5.370000E-8	0.001430
5.375000E-8	0.001695
5.380000E-8	0.001820
5.385000E-8	0.002203
5.390000E-8	0.002406
5.395000E-8	0.002781
5.400000E-8	0.003047
5.405000E-8	0.003414
5.410000E-8	0.003578
5.415000E-8	0.003773
5.420000E-8	0.004023
5.425000E-8	0.004039
5.430000E-8	0.003773
5.435000E-8	0.003695
5.440000E-8	0.003250
5.445000E-8	0.003148
5.450000E-8	0.002719
5.455000E-8	0.002539
5.460000E-8	0.002172
5.465000E-8	0.001992
5.470000E-8	0.001656
5.475000E-8	0.001359
5.480000E-8	0.001000
5.485000E-8	0.000969
5.490000E-8	0.001102
5.495000E-8	0.001148
5.500000E-8	0.001250
5.505000E-8	0.001750
5.510000E-8	0.001906
5.515000E-8	0.002414
5.520000E-8	0.002812
5.525000E-8	0.003117
5.530000E-8	0.003148
5.535000E-8	0.003594
5.540000E-8	0.003727
5.545000E-8	0.003727
5.550000E-8	0.003930
5.555000E-8	0.003953
5.560000E-8	0.003633
5.565000E-8	0.003617
5.570000E-8	0.003391
5.575000E-8	0.003391
5.580000E-8	0.002727
5.585000E-8	0.002633
5.590000E-8	0.002164
5.595000E-8	0.001937
5.600000E-8	0.001750
5.605000E-8	0.001500
5.610000E-8	0.001406
5.615000E-8	0.001266
5.620000E-8	0.001258
5.625000E-8	0.001250
5.630000E-8	0.001297
5.635000E-8	0.001648
5.640000E-8	0.001656
5.645000E-8	0.002016
5.650000E-8	0.002164
5.655000E-8	0.002617
5.660000E-8	0.002883
5.665000E-8	0.003297
5.670000E-8	0.003453
5.675000E-8	0.003617
5.680000E-8	0.003914
5.685000E-8	0.004117
5.690000E-8	0.003836
5.695000E-8	0.003875
5.700000E-8	0.003734
5.705000E-8	0.003656
5.710000E-8	0.003258
5.715000E-8	0.003078
5.720000E-8	0.002469
5.725000E-8	0.002328
5.730000E-8	0.001734
5.735000E-8	0.001773
5.740000E-8	0.001617
5.745000E-8	0.001352
5.750000E-8	0.001250
5.755000E-8	0.001391
5.760000E-8	0.001398
5.765000E-8	0.001547
5.770000E-8	0.001727
5.775000E-8	0.002078
5.780000E-8	0.002523
5.785000E-8	0.002883
5.790000E-8	0.003133
5.795000E-8	0.003711
5.800000E-8	0.003695
5.805000E-8	0.003906
5.810000E-8	0.003852
5.815000E-8	0.003992
5.820000E-8	0.003773
5.825000E-8	0.003688
5.830000E-8	0.003258
5.835000E-8	0.003141
5.840000E-8	0.002852
5.845000E-8	0.002727
5.850000E-8	0.002430
5.855000E-8	0.002234
5.860000E-8	0.001836
5.865000E-8	0.001984
5.870000E-8	0.001641
5.875000E-8	0.001719
5.880000E-8	0.001516
5.885000E-8	0.001797
5.890000E-8	0.001758
5.895000E-8	0.001969
5.900000E-8	0.001961
5.905000E-8	0.002211
5.910000E-8	0.002391
5.915000E-8	0.002727
5.920000E-8	0.002734
5.925000E-8	0.002859
5.930000E-8	0.003109
5.935000E-8	0.003539
5.940000E-8	0.003492
5.945000E-8	0.003695
5.950000E-8	0.003492
5.955000E-8	0.003492
5.960000E-8	0.003125
5.965000E-8	0.003109
5.970000E-8	0.002711
5.975000E-8	0.002633
5.980000E-8	0.002172
5.985000E-8	0.001906
5.990000E-8	0.001727
5.995000E-8	0.001633
6.000000E-8	0.001414
6.005000E-8	0.001516
6.010000E-8	0.001609
6.015000E-8	0.001719
6.020000E-8	0.001703
6.025000E-8	0.002070
6.030000E-8	0.002289
6.035000E-8	0.002469
6.040000E-8	0.002500
6.045000E-8	0.002766
6.050000E-8	0.002883
6.055000E-8	0.003055
6.060000E-8	0.003211
6.065000E-8	0.003297
6.070000E-8	0.003227
6.075000E-8	0.003469
6.080000E-8	0.003695
6.085000E-8	0.003602
6.090000E-8	0.003367
6.095000E-8	0.003367
6.100000E-8	0.002836
6.105000E-8	0.002758
6.110000E-8	0.002555
6.115000E-8	0.002234
6.120000E-8	0.002039
6.125000E-8	0.001930
6.130000E-8	0.001633
6.135000E-8	0.001680
6.140000E-8	0.001461
6.145000E-8	0.001555
6.150000E-8	0.001477
6.155000E-8	0.001625
6.160000E-8	0.001914
6.165000E-8	0.002203
6.170000E-8	0.002195
6.175000E-8	0.002594
6.180000E-8	0.002742
6.185000E-8	0.002961
6.190000E-8	0.003000
6.195000E-8	0.003469
6.200000E-8	0.003414
6.205000E-8	0.003555
6.210000E-8	0.003406
6.215000E-8	0.003375
6.220000E-8	0.003352
6.225000E-8	0.003234
6.230000E-8	0.002938
6.235000E-8	0.002797
6.240000E-8	0.002469
6.245000E-8	0.002414
6.250000E-8	0.001852
6.255000E-8	0.001813
6.260000E-8	0.001820
6.265000E-8	0.001734
6.270000E-8	0.001633
6.275000E-8	0.001742
6.280000E-8	0.001734
6.285000E-8	0.002133
6.290000E-8	0.002180
6.295000E-8	0.002242
6.300000E-8	0.002453
6.305000E-8	0.002555
6.310000E-8	0.002758
6.315000E-8	0.003102
6.320000E-8	0.003273
6.325000E-8	0.003469
6.330000E-8	0.003500
6.335000E-8	0.003812
6.340000E-8	0.003773
6.345000E-8	0.003867
6.350000E-8	0.003750
6.355000E-8	0.003578
6.360000E-8	0.003602
6.365000E-8	0.003398
6.370000E-8	0.002984
6.375000E-8	0.003102
6.380000E-8	0.002477
6.385000E-8	0.002453
6.390000E-8	0.002086
6.395000E-8	0.001609
6.400000E-8	0.001367
6.405000E-8	0.001414
6.410000E-8	0.001453
6.415000E-8	0.001523
6.420000E-8	0.001773
6.425000E-8	0.002055
6.430000E-8	0.002219
6.435000E-8	0.002586
6.440000E-8	0.002641
6.445000E-8	0.002812
6.450000E-8	0.002828
6.455000E-8	0.003195
6.460000E-8	0.003094
6.465000E-8	0.003227
6.470000E-8	0.003164
6.475000E-8	0.003383
6.480000E-8	0.003273
6.485000E-8	0.003219
6.490000E-8	0.003086
6.495000E-8	0.003031
6.500000E-8	0.002734
6.505000E-8	0.002492
6.510000E-8	0.002305
6.515000E-8	0.002219
6.520000E-8	0.001828
6.525000E-8	0.001758
6.530000E-8	0.001805
6.535000E-8	0.001719
6.540000E-8	0.001617
6.545000E-8	0.001844
6.550000E-8	0.001727
6.555000E-8	0.002078
6.560000E-8	0.002102
6.565000E-8	0.002320
6.570000E-8	0.002328
6.575000E-8	0.002648
6.580000E-8	0.002836
6.585000E-8	0.003148
6.590000E-8	0.003219
6.595000E-8	0.003586
6.600000E-8	0.003625
6.605000E-8	0.003836
6.610000E-8	0.003641
6.615000E-8	0.003539
6.620000E-8	0.003398
6.625000E-8	0.003297
6.630000E-8	0.002922
6.635000E-8	0.002820
6.640000E-8	0.002453
6.645000E-8	0.002312
6.650000E-8	0.002016
6.655000E-8	0.001898
6.660000E-8	0.001594
6.665000E-8	0.001734
6.670000E-8	0.001727
6.675000E-8	0.001898
6.680000E-8	0.001930
6.685000E-8	0.002109
6.690000E-8	0.002289
6.695000E-8	0.002531
6.700000E-8	0.002391
6.705000E-8	0.002953
6.710000E-8	0.002930
6.715000E-8	0.003086
6.720000E-8	0.003188
6.725000E-8	0.003453
6.730000E-8	0.003250
6.735000E-8	0.003586
6.740000E-8	0.003516
6.745000E-8	0.003563
6.750000E-8	0.003352
6.755000E-8	0.003297
6.760000E-8	0.002953
6.765000E-8	0.002898
6.770000E-8	0.002805
6.775000E-8	0.002664
6.780000E-8	0.002484
6.785000E-8	0.002586
6.790000E-8	0.002219
6.795000E-8	0.002414
6.800000E-8	0.002242
6.805000E-8	0.002078
6.810000E-8	0.001945
6.815000E-8	0.002156
6.820000E-8	0.002156
6.825000E-8	0.002344
6.830000E-8	0.002422
6.835000E-8	0.002711
6.840000E-8	0.002812
6.845000E-8	0.003156
6.850000E-8	0.003234
6.855000E-8	0.003492
6.860000E-8	0.003508
6.865000E-8	0.003578
6.870000E-8	0.003500
6.875000E-8	0.003750
6.880000E-8	0.003508
6.885000E-8	0.003484
6.890000E-8	0.003148
6.895000E-8	0.003078
6.900000E-8	0.002492
6.905000E-8	0.002563
6.910000E-8	0.002320
6.915000E-8	0.001992
6.920000E-8	0.001937
6.925000E-8	0.001695
6.930000E-8	0.001609
6.935000E-8	0.001703
6.940000E-8	0.001633
6.945000E-8	0.001969
6.950000E-8	0.001961
6.955000E-8	0.002406
6.960000E-8	0.002484
6.965000E-8	0.002773
6.970000E-8	0.002758
6.975000E-8	0.003070
6.980000E-8	0.003594
6.985000E-8	0.003750
6.990000E-8	0.003781
6.995000E-8	0.003953
7.000000E-8	0.003727
7.005000E-8	0.003852
7.010000E-8	0.003477
7.015000E-8	0.003336
7.020000E-8	0.003039
7.025000E-8	0.002750
7.030000E-8	0.002547
7.035000E-8	0.002398
7.040000E-8	0.002125
7.045000E-8	0.002070
7.050000E-8	0.001773
7.055000E-8	0.001859
7.060000E-8	0.001484
7.065000E-8	0.001719
7.070000E-8	0.001578
7.075000E-8	0.001883
7.080000E-8	0.001891
7.085000E-8	0.002063
7.090000E-8	0.002148
7.095000E-8	0.002312
7.100000E-8	0.002492
7.105000E-8	0.002812
7.110000E-8	0.002938
7.115000E-8	0.003250
7.120000E-8	0.003445
7.125000E-8	0.003641
7.130000E-8	0.003766
7.135000E-8	0.003938
7.140000E-8	0.003820
7.145000E-8	0.003859
7.150000E-8	0.003602
7.155000E-8	0.003578
7.160000E-8	0.003312
7.165000E-8	0.003148
7.170000E-8	0.002875
7.175000E-8	0.002883
7.180000E-8	0.002648
7.185000E-8	0.002453
7.190000E-8	0.002133
7.195000E-8	0.002086
7.200000E-8	0.002023
7.205000E-8	0.002359
7.210000E-8	0.002109
7.215000E-8	0.002352
7.220000E-8	0.002648
7.225000E-8	0.002906
7.230000E-8	0.002711
7.235000E-8	0.002867
7.240000E-8	0.003125
7.245000E-8	0.003414
7.250000E-8	0.003516
7.255000E-8	0.003609
7.260000E-8	0.003781
7.265000E-8	0.003797
7.270000E-8	0.003898
7.275000E-8	0.003875
7.280000E-8	0.003586
7.285000E-8	0.003242
7.290000E-8	0.003031
7.295000E-8	0.002766
7.300000E-8	0.002523
7.305000E-8	0.002133
7.310000E-8	0.001711
7.315000E-8	0.001656
7.320000E-8	0.001500
7.325000E-8	0.001766
7.330000E-8	0.001617
7.335000E-8	0.002086
7.340000E-8	0.002109
7.345000E-8	0.002211
7.350000E-8	0.002266
7.355000E-8	0.002570
7.360000E-8	0.002789
7.365000E-8	0.002898
7.370000E-8	0.002992
7.375000E-8	0.003125
7.380000E-8	0.003148
7.385000E-8	0.003109
7.390000E-8	0.003242
7.395000E-8	0.003336
7.400000E-8	0.003047
7.405000E-8	0.003172
7.410000E-8	0.003086
7.415000E-8	0.002945
7.420000E-8	0.002703
7.425000E-8	0.002477
7.430000E-8	0.002289
7.435000E-8	0.002375
7.440000E-8	0.002383
7.445000E-8	0.002273
7.450000E-8	0.002258
7.455000E-8	0.002312
7.460000E-8	0.002102
7.465000E-8	0.002344
7.470000E-8	0.002367
7.475000E-8	0.002727
7.480000E-8	0.002719
7.485000E-8	0.002945
7.490000E-8	0.002984
7.495000E-8	0.003445
7.500000E-8	0.003680
7.505000E-8	0.003625
7.510000E-8	0.003422
7.515000E-8	0.003555
7.520000E-8	0.003453
7.525000E-8	0.003391
7.530000E-8	0.003164
7.535000E-8	0.003094
7.540000E-8	0.002969
7.545000E-8	0.002945
7.550000E-8	0.002453
7.555000E-8	0.002477
7.560000E-8	0.002586
7.565000E-8	0.002547
7.570000E-8	0.002273
7.575000E-8	0.002328
7.580000E-8	0.002109
7.585000E-8	0.002133
7.590000E-8	0.001922
7.595000E-8	0.002203
7.600000E-8	0.002133
7.605000E-8	0.002484
7.610000E-8	0.002328
7.615000E-8	0.002531
7.620000E-8	0.002563
7.625000E-8	0.002844
7.630000E-8	0.002953
7.635000E-8	0.003055
7.640000E-8	0.003055
7.645000E-8	0.003203
7.650000E-8	0.003250
7.655000E-8	0.003531
7.660000E-8	0.003344
7.665000E-8	0.003414
7.670000E-8	0.002992
7.675000E-8	0.003055
7.680000E-8	0.002766
7.685000E-8	0.002734
7.690000E-8	0.002383
7.695000E-8	0.002461
7.700000E-8	0.002172
7.705000E-8	0.002219
7.710000E-8	0.001797
7.715000E-8	0.002031
7.720000E-8	0.002008
7.725000E-8	0.002133
7.730000E-8	0.002109
7.735000E-8	0.002414
7.740000E-8	0.002469
7.745000E-8	0.002555
7.750000E-8	0.002500
7.755000E-8	0.002977
7.760000E-8	0.002898
7.765000E-8	0.003086
7.770000E-8	0.003023
7.775000E-8	0.003086
7.780000E-8	0.003086
7.785000E-8	0.003242
7.790000E-8	0.003070
7.795000E-8	0.002922
7.800000E-8	0.003148
7.805000E-8	0.003164
7.810000E-8	0.002836
7.815000E-8	0.002781
7.820000E-8	0.002609
7.825000E-8	0.002758
7.830000E-8	0.002594
7.835000E-8	0.002625
7.840000E-8	0.002266
7.845000E-8	0.002406
7.850000E-8	0.001992
7.855000E-8	0.002227
7.860000E-8	0.002258
7.865000E-8	0.002352
7.870000E-8	0.002281
7.875000E-8	0.002609
7.880000E-8	0.002820
7.885000E-8	0.003055
7.890000E-8	0.002922
7.895000E-8	0.002898
7.900000E-8	0.003109
7.905000E-8	0.003180
7.910000E-8	0.003141
7.915000E-8	0.003258
7.920000E-8	0.003203
7.925000E-8	0.003320
7.930000E-8	0.003141
7.935000E-8	0.002961
7.940000E-8	0.002859
7.945000E-8	0.002672
7.950000E-8	0.002500
7.955000E-8	0.002508
7.960000E-8	0.002242
7.965000E-8	0.002281
7.970000E-8	0.002031
7.975000E-8	0.002156
7.980000E-8	0.002188
7.985000E-8	0.002219
7.990000E-8	0.002211
7.995000E-8	0.002477
8.000000E-8	0.002430
8.005000E-8	0.002578
8.010000E-8	0.002539
8.015000E-8	0.002742
8.020000E-8	0.002852
8.025000E-8	0.002867
8.030000E-8	0.002859
8.035000E-8	0.002969
8.040000E-8	0.002867
8.045000E-8	0.002945
8.050000E-8	0.002781
8.055000E-8	0.003031
8.060000E-8	0.003133
8.065000E-8	0.002984
8.070000E-8	0.002891
8.075000E-8	0.002828
8.080000E-8	0.002789
8.085000E-8	0.002828
8.090000E-8	0.002477
8.095000E-8	0.002305
8.100000E-8	0.002266
8.105000E-8	0.002234
8.110000E-8	0.002273
8.115000E-8	0.002000
8.120000E-8	0.002070
8.125000E-8	0.002148
8.130000E-8	0.002164
8.135000E-8	0.002547
8.140000E-8	0.002500
8.145000E-8	0.002625
8.150000E-8	0.002938
8.155000E-8	0.003273
8.160000E-8	0.003164
8.165000E-8	0.003250
8.170000E-8	0.003336
8.175000E-8	0.003242
8.180000E-8	0.003172
8.185000E-8	0.003008
8.190000E-8	0.002781
8.195000E-8	0.002852
8.200000E-8	0.002547
8.205000E-8	0.002430
8.210000E-8	0.002195
8.215000E-8	0.002352
8.220000E-8	0.002250
8.225000E-8	0.002102
8.230000E-8	0.002023
8.235000E-8	0.001969
8.240000E-8	0.001992
8.245000E-8	0.002141
8.250000E-8	0.002102
8.255000E-8	0.002266
8.260000E-8	0.002281
8.265000E-8	0.002484
8.270000E-8	0.002516
8.275000E-8	0.002609
8.280000E-8	0.002859
8.285000E-8	0.002938
8.290000E-8	0.002922
8.295000E-8	0.003141
8.300000E-8	0.003023
8.305000E-8	0.002953
8.310000E-8	0.002820
8.315000E-8	0.002836
8.320000E-8	0.002617
8.325000E-8	0.002547
8.330000E-8	0.002359
8.335000E-8	0.002414
8.340000E-8	0.002070
8.345000E-8	0.002078
8.350000E-8	0.002125
8.355000E-8	0.002281
8.360000E-8	0.002172
8.365000E-8	0.002242
8.370000E-8	0.001992
8.375000E-8	0.002195
8.380000E-8	0.002031
8.385000E-8	0.002258
8.390000E-8	0.002344
8.395000E-8	0.002539
8.400000E-8	0.002531
8.405000E-8	0.002641
8.410000E-8	0.002719
8.415000E-8	0.002742
8.420000E-8	0.002609
8.425000E-8	0.002766
8.430000E-8	0.002727
8.435000E-8	0.002953
8.440000E-8	0.002820
8.445000E-8	0.003133
8.450000E-8	0.002922
8.455000E-8	0.003086
8.460000E-8	0.003172
8.465000E-8	0.003227
8.470000E-8	0.002984
8.475000E-8	0.003141
8.480000E-8	0.002727
8.485000E-8	0.002508
8.490000E-8	0.002555
8.495000E-8	0.002406
8.500000E-8	0.002242
8.505000E-8	0.002359
8.510000E-8	0.002555
8.515000E-8	0.002492
8.520000E-8	0.002664
8.525000E-8	0.002766
8.530000E-8	0.002891
8.535000E-8	0.003055
8.540000E-8	0.002922
8.545000E-8	0.003078
8.550000E-8	0.003234
8.555000E-8	0.003133
8.560000E-8	0.002953
8.565000E-8	0.003016
8.570000E-8	0.002906
8.575000E-8	0.002977
8.580000E-8	0.002938
8.585000E-8	0.002977
8.590000E-8	0.002859
8.595000E-8	0.002719
8.600000E-8	0.002555
8.605000E-8	0.002766
8.610000E-8	0.002516
8.615000E-8	0.002570
8.620000E-8	0.002320
8.625000E-8	0.002258
8.630000E-8	0.002156
8.635000E-8	0.002234
8.640000E-8	0.001992
8.645000E-8	0.002312
8.650000E-8	0.002188
8.655000E-8	0.002258
8.660000E-8	0.002117
8.665000E-8	0.002414
8.670000E-8	0.002398
8.675000E-8	0.002500
8.680000E-8	0.002711
8.685000E-8	0.003016
8.690000E-8	0.002969
8.695000E-8	0.003102
8.700000E-8	0.003055
8.705000E-8	0.003086
8.710000E-8	0.002867
8.715000E-8	0.002906
8.720000E-8	0.002906
8.725000E-8	0.002992
8.730000E-8	0.002602
8.735000E-8	0.002727
8.740000E-8	0.002453
8.745000E-8	0.002547
8.750000E-8	0.002375
8.755000E-8	0.002336
8.760000E-8	0.002219
8.765000E-8	0.002391
8.770000E-8	0.002383
8.775000E-8	0.002453
8.780000E-8	0.002469
8.785000E-8	0.002578
8.790000E-8	0.002594
8.795000E-8	0.002758
8.800000E-8	0.002797
8.805000E-8	0.002953
8.810000E-8	0.002852
8.815000E-8	0.002805
8.820000E-8	0.002938
8.825000E-8	0.003102
8.830000E-8	0.003070
8.835000E-8	0.003195
8.840000E-8	0.002969
8.845000E-8	0.003133
8.850000E-8	0.003133
8.855000E-8	0.002867
8.860000E-8	0.002758
8.865000E-8	0.002648
8.870000E-8	0.002570
8.875000E-8	0.002422
8.880000E-8	0.002188
8.885000E-8	0.002422
8.890000E-8	0.002094
8.895000E-8	0.002086
8.900000E-8	0.002039
8.905000E-8	0.002328
8.910000E-8	0.002398
8.915000E-8	0.002523
8.920000E-8	0.002578
8.925000E-8	0.002859
8.930000E-8	0.002625
8.935000E-8	0.003078
8.940000E-8	0.002992
8.945000E-8	0.003422
8.950000E-8	0.003195
8.955000E-8	0.003383
8.960000E-8	0.003227
8.965000E-8	0.003016
8.970000E-8	0.002977
8.975000E-8	0.002742
8.980000E-8	0.002688
8.985000E-8	0.002609
8.990000E-8	0.002484
8.995000E-8	0.002484
9.000000E-8	0.002484
9.005000E-8	0.002437
9.010000E-8	0.002273
9.015000E-8	0.002461
9.020000E-8	0.002336
9.025000E-8	0.002453
9.030000E-8	0.002492
9.035000E-8	0.002492
9.040000E-8	0.002250
9.045000E-8	0.002367
9.050000E-8	0.002117
9.055000E-8	0.002352
9.060000E-8	0.002188
9.065000E-8	0.002508
9.070000E-8	0.002469
9.075000E-8	0.002844
9.080000E-8	0.002773
9.085000E-8	0.002844
9.090000E-8	0.002695
9.095000E-8	0.002914
9.100000E-8	0.002609
9.105000E-8	0.002773
9.110000E-8	0.002555
9.115000E-8	0.002609
9.120000E-8	0.002594
9.125000E-8	0.002445
9.130000E-8	0.002320
9.135000E-8	0.002367
9.140000E-8	0.002180
9.145000E-8	0.002328
9.150000E-8	0.002563
9.155000E-8	0.002633
9.160000E-8	0.002633
9.165000E-8	0.002711
9.170000E-8	0.002578
9.175000E-8	0.002891
9.180000E-8	0.002625
9.185000E-8	0.002609
9.190000E-8	0.002344
9.195000E-8	0.002523
9.200000E-8	0.002102
9.205000E-8	0.002344
9.210000E-8	0.002148
9.215000E-8	0.002344
9.220000E-8	0.002312
9.225000E-8	0.002711
9.230000E-8	0.002586
9.235000E-8	0.002492
9.240000E-8	0.002523
9.245000E-8	0.002664
9.250000E-8	0.002563
9.255000E-8	0.002852
9.260000E-8	0.002680
9.265000E-8	0.002766
9.270000E-8	0.002594
9.275000E-8	0.002617
9.280000E-8	0.002508
9.285000E-8	0.002539
9.290000E-8	0.002273
9.295000E-8	0.002281
9.300000E-8	0.002117
9.305000E-8	0.002266
9.310000E-8	0.002437
9.315000E-8	0.002445
9.320000E-8	0.002633
9.325000E-8	0.002578
9.330000E-8	0.002250
9.335000E-8	0.002469
9.340000E-8	0.002484
9.345000E-8	0.002437
9.350000E-8	0.002734
9.355000E-8	0.003000
9.360000E-8	0.002820
9.365000E-8	0.002898
9.370000E-8	0.002938
9.375000E-8	0.002938
9.380000E-8	0.002844
9.385000E-8	0.002836
9.390000E-8	0.002711
9.395000E-8	0.002672
9.400000E-8	0.002500
9.405000E-8	0.002594
9.410000E-8	0.002250
9.415000E-8	0.002578
9.420000E-8	0.002508
9.425000E-8	0.002656
9.430000E-8	0.002383
9.435000E-8	0.002375
9.440000E-8	0.002437
9.445000E-8	0.002391
9.450000E-8	0.002195
9.455000E-8	0.002437
9.460000E-8	0.002680
9.465000E-8	0.002734
9.470000E-8	0.002648
9.475000E-8	0.002844
9.480000E-8	0.002680
9.485000E-8	0.002812
9.490000E-8	0.002633
9.495000E-8	0.003016
9.500000E-8	0.002867
9.505000E-8	0.002828
9.510000E-8	0.002742
9.515000E-8	0.002688
9.520000E-8	0.002391
9.525000E-8	0.002398
9.530000E-8	0.002336
9.535000E-8	0.002531
9.540000E-8	0.002375
9.545000E-8	0.002352
9.550000E-8	0.002203
9.555000E-8	0.002297
9.560000E-8	0.002156
9.565000E-8	0.002328
9.570000E-8	0.002156
9.575000E-8	0.002211
9.580000E-8	0.002250
9.585000E-8	0.002430
9.590000E-8	0.002695
9.595000E-8	0.002852
9.600000E-8	0.002953
9.605000E-8	0.003109
9.610000E-8	0.003086
9.615000E-8	0.003125
9.620000E-8	0.003117
9.625000E-8	0.003344
9.630000E-8	0.003086
9.635000E-8	0.003063
9.640000E-8	0.002914
9.645000E-8	0.002828
9.650000E-8	0.002594
9.655000E-8	0.002500
9.660000E-8	0.002422
9.665000E-8	0.002477
9.670000E-8	0.002414
9.675000E-8	0.002437
9.680000E-8	0.002383
9.685000E-8	0.002570
9.690000E-8	0.002516
9.695000E-8	0.002617
9.700000E-8	0.002625
9.705000E-8	0.002758
9.710000E-8	0.002563
9.715000E-8	0.002695
9.720000E-8	0.002602
9.725000E-8	0.002547
9.730000E-8	0.002625
9.735000E-8	0.002797
9.740000E-8	0.002719
9.745000E-8	0.002719
9.750000E-8	0.002805
9.755000E-8	0.002797
9.760000E-8	0.002664
9.765000E-8	0.002742
9.770000E-8	0.002367
9.775000E-8	0.002680
9.780000E-8	0.002383
9.785000E-8	0.002656
9.790000E-8	0.002508
9.795000E-8	0.002516
9.800000E-8	0.002172
9.805000E-8	0.002359
9.810000E-8	0.002078
9.815000E-8	0.002133
9.820000E-8	0.002328
9.825000E-8	0.002320
9.830000E-8	0.002469
9.835000E-8	0.002641
9.840000E-8	0.002430
9.845000E-8	0.002656
9.850000E-8	0.002484
9.855000E-8	0.002492
9.860000E-8	0.002633
9.865000E-8	0.002695
9.870000E-8	0.002836
9.875000E-8	0.003078
9.880000E-8	0.002961
9.885000E-8	0.002867
9.890000E-8	0.002719
9.895000E-8	0.002852
9.900000E-8	0.002484
9.905000E-8	0.002773
9.910000E-8	0.002688
9.915000E-8	0.002602
9.920000E-8	0.002547
9.925000E-8	0.002586
9.930000E-8	0.002656
9.935000E-8	0.002648
9.940000E-8	0.002375
9.945000E-8	0.002516
9.950000E-8	0.002312
9.955000E-8	0.002445
9.960000E-8	0.002422
9.965000E-8	0.002508
9.970000E-8	0.002375
9.975000E-8	0.002594
9.980000E-8	0.002320
9.985000E-8	0.002523
9.990000E-8	0.002500
9.995000E-8	0.002508
