LabVIEW Measurement	
Writer_Version	2
Reader_Version	2
Separator	Tab
Decimal_Separator	.
Multi_Headings	No
X_Columns	Multi
Time_Pref	Relative
Operator	TG lab
Date	2015/03/06
Time	17:58:42.3343186378479003906
***End_of_Header***	
	
Channels	1	
Samples	2000	
Date	2015/03/06	
Time	17:58:42.3343186378479003906	
X_Dimension	Time	
X0	0.0000000000000000E+0	
Delta_X	5.000000E-11	
***End_of_Header***		
X_Value	Untitled	Comment
0.000000	0.002363
5.000000E-11	0.002303
1.000000E-10	0.002303
1.500000E-10	0.002363
2.000000E-10	0.002331
2.500000E-10	0.002363
3.000000E-10	0.002369
3.500000E-10	0.002522
4.000000E-10	0.002494
4.500000E-10	0.002634
5.000000E-10	0.002644
5.500000E-10	0.002691
6.000000E-10	0.002634
6.500000E-10	0.002681
7.000000E-10	0.002503
7.500000E-10	0.002528
8.000000E-10	0.002325
8.500000E-10	0.002213
9.000000E-10	0.002209
9.500000E-10	0.002131
1.000000E-9	0.002041
1.050000E-9	0.002028
1.100000E-9	0.002081
1.150000E-9	0.002172
1.200000E-9	0.002069
1.250000E-9	0.002172
1.300000E-9	0.002094
1.350000E-9	0.002172
1.400000E-9	0.002091
1.450000E-9	0.002175
1.500000E-9	0.002178
1.550000E-9	0.002253
1.600000E-9	0.002263
1.650000E-9	0.002253
1.700000E-9	0.002291
1.750000E-9	0.002334
1.800000E-9	0.002241
1.850000E-9	0.002306
1.900000E-9	0.002303
1.950000E-9	0.002234
2.000000E-9	0.002241
2.050000E-9	0.002244
2.100000E-9	0.002138
2.150000E-9	0.002109
2.200000E-9	0.001997
2.250000E-9	0.002000
2.300000E-9	0.002072
2.350000E-9	0.002103
2.400000E-9	0.002100
2.450000E-9	0.002275
2.500000E-9	0.002303
2.550000E-9	0.002409
2.600000E-9	0.002350
2.650000E-9	0.002225
2.700000E-9	0.002206
2.750000E-9	0.002175
2.800000E-9	0.001897
2.850000E-9	0.001903
2.900000E-9	0.001719
2.950000E-9	0.001678
3.000000E-9	0.001541
3.050000E-9	0.001541
3.100000E-9	0.001581
3.150000E-9	0.001687
3.200000E-9	0.001681
3.250000E-9	0.001722
3.300000E-9	0.001594
3.350000E-9	0.001728
3.400000E-9	0.001556
3.450000E-9	0.001550
3.500000E-9	0.001431
3.550000E-9	0.001494
3.600000E-9	0.001206
3.650000E-9	0.001241
3.700000E-9	0.001203
3.750000E-9	0.001231
3.800000E-9	0.001141
3.850000E-9	0.001325
3.900000E-9	0.001459
3.950000E-9	0.001612
4.000000E-9	0.001600
4.050000E-9	0.001884
4.100000E-9	0.002122
4.150000E-9	0.002494
4.200000E-9	0.002737
4.250000E-9	0.003022
4.300000E-9	0.003197
4.350000E-9	0.003400
4.400000E-9	0.003519
4.450000E-9	0.003825
4.500000E-9	0.004112
4.550000E-9	0.004416
4.600000E-9	0.004713
4.650000E-9	0.005034
4.700000E-9	0.005300
4.750000E-9	0.005319
4.800000E-9	0.004978
4.850000E-9	0.004525
4.900000E-9	0.003509
4.950000E-9	0.002119
5.000000E-9	-9.375000E-6
5.050000E-9	-0.002453
5.100000E-9	-0.005491
5.150000E-9	-0.009006
5.200000E-9	-0.013034
5.250000E-9	-0.017103
5.300000E-9	-0.021291
5.350000E-9	-0.025334
5.400000E-9	-0.029109
5.450000E-9	-0.032369
5.500000E-9	-0.035131
5.550000E-9	-0.036997
5.600000E-9	-0.038503
5.650000E-9	-0.039166
5.700000E-9	-0.039256
5.750000E-9	-0.038559
5.800000E-9	-0.037591
5.850000E-9	-0.035997
5.900000E-9	-0.034131
5.950000E-9	-0.031963
6.000000E-9	-0.029809
6.050000E-9	-0.027481
6.100000E-9	-0.025334
6.150000E-9	-0.023400
6.200000E-9	-0.021919
6.250000E-9	-0.020841
6.300000E-9	-0.020037
6.350000E-9	-0.019728
6.400000E-9	-0.019956
6.450000E-9	-0.020338
6.500000E-9	-0.021072
6.550000E-9	-0.021816
6.600000E-9	-0.022759
6.650000E-9	-0.023628
6.700000E-9	-0.024556
6.750000E-9	-0.025338
6.800000E-9	-0.025947
6.850000E-9	-0.026303
6.900000E-9	-0.026472
6.950000E-9	-0.026500
7.000000E-9	-0.026184
7.050000E-9	-0.025634
7.100000E-9	-0.024838
7.150000E-9	-0.023597
7.200000E-9	-0.022225
7.250000E-9	-0.020666
7.300000E-9	-0.018969
7.350000E-9	-0.017231
7.400000E-9	-0.015647
7.450000E-9	-0.014147
7.500000E-9	-0.013019
7.550000E-9	-0.012097
7.600000E-9	-0.011313
7.650000E-9	-0.010972
7.700000E-9	-0.010716
7.750000E-9	-0.010953
7.800000E-9	-0.011400
7.850000E-9	-0.011997
7.900000E-9	-0.012731
7.950000E-9	-0.013394
8.000000E-9	-0.014409
8.050000E-9	-0.015163
8.100000E-9	-0.015922
8.150000E-9	-0.016416
8.200000E-9	-0.016934
8.250000E-9	-0.017134
8.300000E-9	-0.017200
8.350000E-9	-0.016878
8.400000E-9	-0.016503
8.450000E-9	-0.015769
8.500000E-9	-0.014850
8.550000E-9	-0.013588
8.600000E-9	-0.012378
8.650000E-9	-0.011116
8.700000E-9	-0.009847
8.750000E-9	-0.008528
8.800000E-9	-0.007497
8.850000E-9	-0.006463
8.900000E-9	-0.005919
8.950000E-9	-0.005341
9.000000E-9	-0.005356
9.050000E-9	-0.005453
9.100000E-9	-0.005903
9.150000E-9	-0.006453
9.200000E-9	-0.007225
9.250000E-9	-0.008069
9.300000E-9	-0.009009
9.350000E-9	-0.009853
9.400000E-9	-0.010759
9.450000E-9	-0.011406
9.500000E-9	-0.012000
9.550000E-9	-0.012266
9.600000E-9	-0.012266
9.650000E-9	-0.012163
9.700000E-9	-0.011816
9.750000E-9	-0.011150
9.800000E-9	-0.010434
9.850000E-9	-0.009369
9.900000E-9	-0.008297
9.950000E-9	-0.007141
1.000000E-8	-0.006066
1.005000E-8	-0.004822
1.010000E-8	-0.003959
1.015000E-8	-0.003116
1.020000E-8	-0.002441
1.025000E-8	-0.002075
1.030000E-8	-0.001909
1.035000E-8	-0.001850
1.040000E-8	-0.002041
1.045000E-8	-0.002466
1.050000E-8	-0.003113
1.055000E-8	-0.003716
1.060000E-8	-0.004619
1.065000E-8	-0.005456
1.070000E-8	-0.006263
1.075000E-8	-0.006956
1.080000E-8	-0.007688
1.085000E-8	-0.008206
1.090000E-8	-0.008537
1.095000E-8	-0.008603
1.100000E-8	-0.008600
1.105000E-8	-0.008166
1.110000E-8	-0.007544
1.115000E-8	-0.006816
1.120000E-8	-0.005853
1.125000E-8	-0.004831
1.130000E-8	-0.003734
1.135000E-8	-0.002716
1.140000E-8	-0.001800
1.145000E-8	-0.000931
1.150000E-8	-0.000300
1.155000E-8	0.000131
1.160000E-8	0.000466
1.165000E-8	0.000509
1.170000E-8	0.000316
1.175000E-8	4.062500E-5
1.180000E-8	-0.000491
1.185000E-8	-0.001034
1.190000E-8	-0.001797
1.195000E-8	-0.002694
1.200000E-8	-0.003587
1.205000E-8	-0.004366
1.210000E-8	-0.005234
1.215000E-8	-0.005803
1.220000E-8	-0.006419
1.225000E-8	-0.006478
1.230000E-8	-0.006666
1.235000E-8	-0.006553
1.240000E-8	-0.006184
1.245000E-8	-0.005591
1.250000E-8	-0.004872
1.255000E-8	-0.003919
1.260000E-8	-0.002772
1.265000E-8	-0.001856
1.270000E-8	-0.000819
1.275000E-8	0.000241
1.280000E-8	0.000950
1.285000E-8	0.001700
1.290000E-8	0.002125
1.295000E-8	0.002425
1.300000E-8	0.002547
1.305000E-8	0.002309
1.310000E-8	0.001809
1.315000E-8	0.001372
1.320000E-8	0.000606
1.325000E-8	-0.000144
1.330000E-8	-0.001119
1.335000E-8	-0.002119
1.340000E-8	-0.003084
1.345000E-8	-0.003791
1.350000E-8	-0.004488
1.355000E-8	-0.004894
1.360000E-8	-0.005219
1.365000E-8	-0.005384
1.370000E-8	-0.005119
1.375000E-8	-0.004522
1.380000E-8	-0.003759
1.385000E-8	-0.002797
1.390000E-8	-0.001878
1.395000E-8	-0.000725
1.400000E-8	0.000313
1.405000E-8	0.001513
1.410000E-8	0.002344
1.415000E-8	0.003162
1.420000E-8	0.003644
1.425000E-8	0.003897
1.430000E-8	0.003919
1.435000E-8	0.003781
1.440000E-8	0.003334
1.445000E-8	0.002578
1.450000E-8	0.001663
1.455000E-8	0.000822
1.460000E-8	-0.000341
1.465000E-8	-0.001366
1.470000E-8	-0.002400
1.475000E-8	-0.003272
1.480000E-8	-0.003916
1.485000E-8	-0.004459
1.490000E-8	-0.004713
1.495000E-8	-0.004613
1.500000E-8	-0.004253
1.505000E-8	-0.003769
1.510000E-8	-0.002916
1.515000E-8	-0.001919
1.520000E-8	-0.000894
1.525000E-8	0.000175
1.530000E-8	0.001263
1.535000E-8	0.002347
1.540000E-8	0.003150
1.545000E-8	0.003863
1.550000E-8	0.004356
1.555000E-8	0.004669
1.560000E-8	0.004662
1.565000E-8	0.004475
1.570000E-8	0.004025
1.575000E-8	0.003303
1.580000E-8	0.002388
1.585000E-8	0.001441
1.590000E-8	0.000528
1.595000E-8	-0.000366
1.600000E-8	-0.001388
1.605000E-8	-0.002159
1.610000E-8	-0.002744
1.615000E-8	-0.003097
1.620000E-8	-0.003284
1.625000E-8	-0.003306
1.630000E-8	-0.003025
1.635000E-8	-0.002613
1.640000E-8	-0.001956
1.645000E-8	-0.000997
1.650000E-8	-5.625000E-5
1.655000E-8	0.001003
1.660000E-8	0.001988
1.665000E-8	0.003022
1.670000E-8	0.003916
1.675000E-8	0.004613
1.680000E-8	0.004953
1.685000E-8	0.005247
1.690000E-8	0.005194
1.695000E-8	0.005059
1.700000E-8	0.004519
1.705000E-8	0.003869
1.710000E-8	0.003069
1.715000E-8	0.002175
1.720000E-8	0.001122
1.725000E-8	0.000197
1.730000E-8	-0.000672
1.735000E-8	-0.001362
1.740000E-8	-0.002053
1.745000E-8	-0.002413
1.750000E-8	-0.002728
1.755000E-8	-0.002800
1.760000E-8	-0.002606
1.765000E-8	-0.002025
1.770000E-8	-0.001469
1.775000E-8	-0.000606
1.780000E-8	0.000222
1.785000E-8	0.001300
1.790000E-8	0.002356
1.795000E-8	0.003394
1.800000E-8	0.004147
1.805000E-8	0.004831
1.810000E-8	0.005375
1.815000E-8	0.005741
1.820000E-8	0.005763
1.825000E-8	0.005681
1.830000E-8	0.005138
1.835000E-8	0.004494
1.840000E-8	0.003653
1.845000E-8	0.002697
1.850000E-8	0.001619
1.855000E-8	0.000788
1.860000E-8	-0.000294
1.865000E-8	-0.001012
1.870000E-8	-0.001687
1.875000E-8	-0.002131
1.880000E-8	-0.002375
1.885000E-8	-0.002384
1.890000E-8	-0.002203
1.895000E-8	-0.001666
1.900000E-8	-0.001141
1.905000E-8	-0.000406
1.910000E-8	0.000516
1.915000E-8	0.001538
1.920000E-8	0.002347
1.925000E-8	0.003356
1.930000E-8	0.004025
1.935000E-8	0.004634
1.940000E-8	0.005150
1.945000E-8	0.005472
1.950000E-8	0.005528
1.955000E-8	0.005556
1.960000E-8	0.005141
1.965000E-8	0.004588
1.970000E-8	0.003966
1.975000E-8	0.003159
1.980000E-8	0.002266
1.985000E-8	0.001325
1.990000E-8	0.000434
1.995000E-8	-0.000225
2.000000E-8	-0.000994
2.005000E-8	-0.001378
2.010000E-8	-0.001884
2.015000E-8	-0.001881
2.020000E-8	-0.001831
2.025000E-8	-0.001428
2.030000E-8	-0.000863
2.035000E-8	-0.000134
2.040000E-8	0.000650
2.045000E-8	0.001516
2.050000E-8	0.002297
2.055000E-8	0.003141
2.060000E-8	0.003956
2.065000E-8	0.004634
2.070000E-8	0.005031
2.075000E-8	0.005503
2.080000E-8	0.005522
2.085000E-8	0.005497
2.090000E-8	0.005194
2.095000E-8	0.004822
2.100000E-8	0.004069
2.105000E-8	0.003334
2.110000E-8	0.002419
2.115000E-8	0.001597
2.120000E-8	0.000663
2.125000E-8	-0.000156
2.130000E-8	-0.000878
2.135000E-8	-0.001472
2.140000E-8	-0.001750
2.145000E-8	-0.001925
2.150000E-8	-0.002019
2.155000E-8	-0.001594
2.160000E-8	-0.001238
2.165000E-8	-0.000753
2.170000E-8	1.562500E-5
2.175000E-8	0.000941
2.180000E-8	0.001822
2.185000E-8	0.002681
2.190000E-8	0.003578
2.195000E-8	0.004334
2.200000E-8	0.004978
2.205000E-8	0.005513
2.210000E-8	0.005803
2.215000E-8	0.005950
2.220000E-8	0.005766
2.225000E-8	0.005409
2.230000E-8	0.004828
2.235000E-8	0.004131
2.240000E-8	0.003388
2.245000E-8	0.002597
2.250000E-8	0.001672
2.255000E-8	0.000897
2.260000E-8	6.875000E-5
2.265000E-8	-0.000500
2.270000E-8	-0.000950
2.275000E-8	-0.001128
2.280000E-8	-0.001294
2.285000E-8	-0.001050
2.290000E-8	-0.000791
2.295000E-8	-0.000269
2.300000E-8	0.000294
2.305000E-8	0.001050
2.310000E-8	0.001853
2.315000E-8	0.002756
2.320000E-8	0.003450
2.325000E-8	0.004259
2.330000E-8	0.004725
2.335000E-8	0.005313
2.340000E-8	0.005500
2.345000E-8	0.005744
2.350000E-8	0.005697
2.355000E-8	0.005528
2.360000E-8	0.005038
2.365000E-8	0.004472
2.370000E-8	0.003678
2.375000E-8	0.002828
2.380000E-8	0.001956
2.385000E-8	0.001094
2.390000E-8	0.000309
2.395000E-8	-0.000297
2.400000E-8	-0.001097
2.405000E-8	-0.001497
2.410000E-8	-0.001675
2.415000E-8	-0.001494
2.420000E-8	-0.001353
2.425000E-8	-0.000822
2.430000E-8	-0.000178
2.435000E-8	0.000709
2.440000E-8	0.001625
2.445000E-8	0.002584
2.450000E-8	0.003384
2.455000E-8	0.004328
2.460000E-8	0.004981
2.465000E-8	0.005488
2.470000E-8	0.005906
2.475000E-8	0.006169
2.480000E-8	0.006128
2.485000E-8	0.005828
2.490000E-8	0.005387
2.495000E-8	0.004841
2.500000E-8	0.004109
2.505000E-8	0.003331
2.510000E-8	0.002384
2.515000E-8	0.001594
2.520000E-8	0.000691
2.525000E-8	2.500000E-5
2.530000E-8	-0.000516
2.535000E-8	-0.000859
2.540000E-8	-0.001084
2.545000E-8	-0.000931
2.550000E-8	-0.000813
2.555000E-8	-0.000309
2.560000E-8	0.000241
2.565000E-8	0.000941
2.570000E-8	0.001834
2.575000E-8	0.002784
2.580000E-8	0.003584
2.585000E-8	0.004428
2.590000E-8	0.005044
2.595000E-8	0.005703
2.600000E-8	0.006053
2.605000E-8	0.006297
2.610000E-8	0.006194
2.615000E-8	0.005875
2.620000E-8	0.005309
2.625000E-8	0.004675
2.630000E-8	0.003950
2.635000E-8	0.002966
2.640000E-8	0.002066
2.645000E-8	0.001241
2.650000E-8	0.000412
2.655000E-8	-0.000178
2.660000E-8	-0.000713
2.665000E-8	-0.001059
2.670000E-8	-0.001225
2.675000E-8	-0.001206
2.680000E-8	-0.000959
2.685000E-8	-0.000544
2.690000E-8	0.000116
2.695000E-8	0.000966
2.700000E-8	0.001634
2.705000E-8	0.002531
2.710000E-8	0.003506
2.715000E-8	0.004331
2.720000E-8	0.004928
2.725000E-8	0.005537
2.730000E-8	0.005763
2.735000E-8	0.005888
2.740000E-8	0.005809
2.745000E-8	0.005609
2.750000E-8	0.005213
2.755000E-8	0.004534
2.760000E-8	0.003916
2.765000E-8	0.003156
2.770000E-8	0.002388
2.775000E-8	0.001684
2.780000E-8	0.001006
2.785000E-8	0.000422
2.790000E-8	-0.000181
2.795000E-8	-0.000453
2.800000E-8	-0.000616
2.805000E-8	-0.000537
2.810000E-8	-0.000531
2.815000E-8	-0.000103
2.820000E-8	0.000403
2.825000E-8	0.001150
2.830000E-8	0.001834
2.835000E-8	0.002731
2.840000E-8	0.003519
2.845000E-8	0.004184
2.850000E-8	0.004716
2.855000E-8	0.005206
2.860000E-8	0.005506
2.865000E-8	0.005684
2.870000E-8	0.005609
2.875000E-8	0.005519
2.880000E-8	0.005194
2.885000E-8	0.004825
2.890000E-8	0.004141
2.895000E-8	0.003472
2.900000E-8	0.002616
2.905000E-8	0.002006
2.910000E-8	0.001206
2.915000E-8	0.000625
2.920000E-8	0.000125
2.925000E-8	-0.000272
2.930000E-8	-0.000528
2.935000E-8	-0.000469
2.940000E-8	-0.000416
2.945000E-8	-4.062500E-5
2.950000E-8	0.000384
2.955000E-8	0.001166
2.960000E-8	0.001916
2.965000E-8	0.002606
2.970000E-8	0.003122
2.975000E-8	0.003775
2.980000E-8	0.004272
2.985000E-8	0.004781
2.990000E-8	0.005059
2.995000E-8	0.005222
3.000000E-8	0.005172
3.005000E-8	0.005088
3.010000E-8	0.004775
3.015000E-8	0.004516
3.020000E-8	0.003944
3.025000E-8	0.003366
3.030000E-8	0.002669
3.035000E-8	0.002094
3.040000E-8	0.001409
3.045000E-8	0.000906
3.050000E-8	0.000297
3.055000E-8	-2.812500E-5
3.060000E-8	-0.000263
3.065000E-8	-0.000394
3.070000E-8	-0.000291
3.075000E-8	-1.562500E-5
3.080000E-8	0.000359
3.085000E-8	0.000859
3.090000E-8	0.001469
3.095000E-8	0.002188
3.100000E-8	0.002853
3.105000E-8	0.003481
3.110000E-8	0.003997
3.115000E-8	0.004550
3.120000E-8	0.004844
3.125000E-8	0.005188
3.130000E-8	0.005256
3.135000E-8	0.005213
3.140000E-8	0.005009
3.145000E-8	0.004716
3.150000E-8	0.004253
3.155000E-8	0.003631
3.160000E-8	0.003031
3.165000E-8	0.002413
3.170000E-8	0.001769
3.175000E-8	0.001275
3.180000E-8	0.000675
3.185000E-8	0.000300
3.190000E-8	6.875000E-5
3.195000E-8	1.250000E-5
3.200000E-8	1.562500E-5
3.205000E-8	0.000206
3.210000E-8	0.000522
3.215000E-8	0.000994
3.220000E-8	0.001369
3.225000E-8	0.001863
3.230000E-8	0.002453
3.235000E-8	0.003047
3.240000E-8	0.003484
3.245000E-8	0.004072
3.250000E-8	0.004466
3.255000E-8	0.004772
3.260000E-8	0.004953
3.265000E-8	0.004941
3.270000E-8	0.004822
3.275000E-8	0.004534
3.280000E-8	0.004059
3.285000E-8	0.003669
3.290000E-8	0.003084
3.295000E-8	0.002559
3.300000E-8	0.001884
3.305000E-8	0.001366
3.310000E-8	0.000791
3.315000E-8	0.000484
3.320000E-8	0.000147
3.325000E-8	8.750000E-5
3.330000E-8	9.375000E-6
3.335000E-8	5.312500E-5
3.340000E-8	0.000291
3.345000E-8	0.000791
3.350000E-8	0.001366
3.355000E-8	0.001906
3.360000E-8	0.002613
3.365000E-8	0.003222
3.370000E-8	0.003797
3.375000E-8	0.004288
3.380000E-8	0.004722
3.385000E-8	0.005072
3.390000E-8	0.005256
3.395000E-8	0.005219
3.400000E-8	0.004962
3.405000E-8	0.004797
3.410000E-8	0.004425
3.415000E-8	0.003781
3.420000E-8	0.003209
3.425000E-8	0.002672
3.430000E-8	0.002078
3.435000E-8	0.001488
3.440000E-8	0.001012
3.445000E-8	0.000622
3.450000E-8	0.000188
3.455000E-8	6.250000E-5
3.460000E-8	-3.125000E-5
3.465000E-8	0.000166
3.470000E-8	0.000369
3.475000E-8	0.000728
3.480000E-8	0.001128
3.485000E-8	0.001606
3.490000E-8	0.002122
3.495000E-8	0.002759
3.500000E-8	0.003194
3.505000E-8	0.003859
3.510000E-8	0.004256
3.515000E-8	0.004641
3.520000E-8	0.004769
3.525000E-8	0.004916
3.530000E-8	0.004922
3.535000E-8	0.004806
3.540000E-8	0.004484
3.545000E-8	0.004063
3.550000E-8	0.003547
3.555000E-8	0.002953
3.560000E-8	0.002422
3.565000E-8	0.002003
3.570000E-8	0.001341
3.575000E-8	0.000788
3.580000E-8	0.000488
3.585000E-8	0.000313
3.590000E-8	0.000256
3.595000E-8	0.000344
3.600000E-8	0.000400
3.605000E-8	0.000869
3.610000E-8	0.001219
3.615000E-8	0.001850
3.620000E-8	0.002284
3.625000E-8	0.002878
3.630000E-8	0.003416
3.635000E-8	0.003991
3.640000E-8	0.004509
3.645000E-8	0.004853
3.650000E-8	0.005091
3.655000E-8	0.005175
3.660000E-8	0.005150
3.665000E-8	0.005019
3.670000E-8	0.004825
3.675000E-8	0.004247
3.680000E-8	0.003763
3.685000E-8	0.003066
3.690000E-8	0.002466
3.695000E-8	0.001891
3.700000E-8	0.001281
3.705000E-8	0.000788
3.710000E-8	0.000347
3.715000E-8	4.062500E-5
3.720000E-8	-0.000156
3.725000E-8	-2.187500E-5
3.730000E-8	0.000206
3.735000E-8	0.000575
3.740000E-8	0.001081
3.745000E-8	0.001609
3.750000E-8	0.002294
3.755000E-8	0.002922
3.760000E-8	0.003438
3.765000E-8	0.003969
3.770000E-8	0.004325
3.775000E-8	0.004556
3.780000E-8	0.004628
3.785000E-8	0.004700
3.790000E-8	0.004597
3.795000E-8	0.004516
3.800000E-8	0.004209
3.805000E-8	0.003956
3.810000E-8	0.003428
3.815000E-8	0.003053
3.820000E-8	0.002578
3.825000E-8	0.002081
3.830000E-8	0.001531
3.835000E-8	0.001103
3.840000E-8	0.000622
3.845000E-8	0.000391
3.850000E-8	0.000141
3.855000E-8	0.000216
3.860000E-8	0.000359
3.865000E-8	0.000763
3.870000E-8	0.001091
3.875000E-8	0.001709
3.880000E-8	0.002109
3.885000E-8	0.002813
3.890000E-8	0.003322
3.895000E-8	0.003906
3.900000E-8	0.004225
3.905000E-8	0.004513
3.910000E-8	0.004753
3.915000E-8	0.004919
3.920000E-8	0.004634
3.925000E-8	0.004416
3.930000E-8	0.004172
3.935000E-8	0.003766
3.940000E-8	0.003313
3.945000E-8	0.002791
3.950000E-8	0.002191
3.955000E-8	0.001753
3.960000E-8	0.001297
3.965000E-8	0.000966
3.970000E-8	0.000628
3.975000E-8	0.000544
3.980000E-8	0.000334
3.985000E-8	0.000391
3.990000E-8	0.000541
3.995000E-8	0.000916
4.000000E-8	0.001044
4.005000E-8	0.001538
4.010000E-8	0.001956
4.015000E-8	0.002488
4.020000E-8	0.003000
4.025000E-8	0.003506
4.030000E-8	0.003938
4.035000E-8	0.004266
4.040000E-8	0.004478
4.045000E-8	0.004634
4.050000E-8	0.004541
4.055000E-8	0.004522
4.060000E-8	0.004356
4.065000E-8	0.004044
4.070000E-8	0.003672
4.075000E-8	0.003181
4.080000E-8	0.002694
4.085000E-8	0.002141
4.090000E-8	0.001644
4.095000E-8	0.001259
4.100000E-8	0.000969
4.105000E-8	0.000869
4.110000E-8	0.000663
4.115000E-8	0.000784
4.120000E-8	0.000809
4.125000E-8	0.001109
4.130000E-8	0.001403
4.135000E-8	0.001856
4.140000E-8	0.002197
4.145000E-8	0.002662
4.150000E-8	0.003003
4.155000E-8	0.003444
4.160000E-8	0.003797
4.165000E-8	0.004053
4.170000E-8	0.004169
4.175000E-8	0.004344
4.180000E-8	0.004309
4.185000E-8	0.004191
4.190000E-8	0.004016
4.195000E-8	0.003834
4.200000E-8	0.003347
4.205000E-8	0.003059
4.210000E-8	0.002581
4.215000E-8	0.002181
4.220000E-8	0.001684
4.225000E-8	0.001216
4.230000E-8	0.000953
4.235000E-8	0.000700
4.240000E-8	0.000559
4.245000E-8	0.000534
4.250000E-8	0.000553
4.255000E-8	0.000784
4.260000E-8	0.000984
4.265000E-8	0.001297
4.270000E-8	0.001713
4.275000E-8	0.002175
4.280000E-8	0.002506
4.285000E-8	0.002956
4.290000E-8	0.003406
4.295000E-8	0.003819
4.300000E-8	0.004034
4.305000E-8	0.004284
4.310000E-8	0.004434
4.315000E-8	0.004488
4.320000E-8	0.004350
4.325000E-8	0.004091
4.330000E-8	0.003788
4.335000E-8	0.003425
4.340000E-8	0.002925
4.345000E-8	0.002450
4.350000E-8	0.002103
4.355000E-8	0.001725
4.360000E-8	0.001303
4.365000E-8	0.001116
4.370000E-8	0.000959
4.375000E-8	0.000891
4.380000E-8	0.000866
4.385000E-8	0.001172
4.390000E-8	0.001397
4.395000E-8	0.001719
4.400000E-8	0.001941
4.405000E-8	0.002397
4.410000E-8	0.002769
4.415000E-8	0.003228
4.420000E-8	0.003569
4.425000E-8	0.003950
4.430000E-8	0.004097
4.435000E-8	0.004300
4.440000E-8	0.004353
4.445000E-8	0.004394
4.450000E-8	0.004197
4.455000E-8	0.003994
4.460000E-8	0.003688
4.465000E-8	0.003456
4.470000E-8	0.002981
4.475000E-8	0.002622
4.480000E-8	0.002056
4.485000E-8	0.001766
4.490000E-8	0.001362
4.495000E-8	0.001088
4.500000E-8	0.000744
4.505000E-8	0.000669
4.510000E-8	0.000628
4.515000E-8	0.000716
4.520000E-8	0.000866
4.525000E-8	0.001272
4.530000E-8	0.001647
4.535000E-8	0.002159
4.540000E-8	0.002597
4.545000E-8	0.003159
4.550000E-8	0.003528
4.555000E-8	0.003938
4.560000E-8	0.004050
4.565000E-8	0.004219
4.570000E-8	0.004172
4.575000E-8	0.004172
4.580000E-8	0.003938
4.585000E-8	0.003753
4.590000E-8	0.003525
4.595000E-8	0.003181
4.600000E-8	0.002828
4.605000E-8	0.002528
4.610000E-8	0.002150
4.615000E-8	0.001891
4.620000E-8	0.001600
4.625000E-8	0.001300
4.630000E-8	0.001031
4.635000E-8	0.001003
4.640000E-8	0.000909
4.645000E-8	0.001038
4.650000E-8	0.001222
4.655000E-8	0.001566
4.660000E-8	0.001797
4.665000E-8	0.002172
4.670000E-8	0.002522
4.675000E-8	0.003009
4.680000E-8	0.003222
4.685000E-8	0.003619
4.690000E-8	0.003731
4.695000E-8	0.004053
4.700000E-8	0.004128
4.705000E-8	0.004175
4.710000E-8	0.004034
4.715000E-8	0.003881
4.720000E-8	0.003625
4.725000E-8	0.003369
4.730000E-8	0.003044
4.735000E-8	0.002759
4.740000E-8	0.002388
4.745000E-8	0.002044
4.750000E-8	0.001619
4.755000E-8	0.001416
4.760000E-8	0.001238
4.765000E-8	0.001016
4.770000E-8	0.000922
4.775000E-8	0.001128
4.780000E-8	0.001194
4.785000E-8	0.001531
4.790000E-8	0.001803
4.795000E-8	0.002300
4.800000E-8	0.002641
4.805000E-8	0.003072
4.810000E-8	0.003366
4.815000E-8	0.003759
4.820000E-8	0.004000
4.825000E-8	0.004178
4.830000E-8	0.004253
4.835000E-8	0.004191
4.840000E-8	0.004059
4.845000E-8	0.003972
4.850000E-8	0.003606
4.855000E-8	0.003338
4.860000E-8	0.002888
4.865000E-8	0.002538
4.870000E-8	0.002103
4.875000E-8	0.001753
4.880000E-8	0.001425
4.885000E-8	0.001187
4.890000E-8	0.001025
4.895000E-8	0.001172
4.900000E-8	0.001272
4.905000E-8	0.001531
4.910000E-8	0.001800
4.915000E-8	0.002103
4.920000E-8	0.002228
4.925000E-8	0.002519
4.930000E-8	0.002881
4.935000E-8	0.003150
4.940000E-8	0.003184
4.945000E-8	0.003369
4.950000E-8	0.003587
4.955000E-8	0.003628
4.960000E-8	0.003788
4.965000E-8	0.003791
4.970000E-8	0.003722
4.975000E-8	0.003628
4.980000E-8	0.003444
4.985000E-8	0.003300
4.990000E-8	0.003113
4.995000E-8	0.002872
5.000000E-8	0.002469
5.005000E-8	0.002200
5.010000E-8	0.001909
5.015000E-8	0.001569
5.020000E-8	0.001359
5.025000E-8	0.001144
5.030000E-8	0.001038
5.035000E-8	0.001100
5.040000E-8	0.001181
5.045000E-8	0.001384
5.050000E-8	0.001616
5.055000E-8	0.001959
5.060000E-8	0.002263
5.065000E-8	0.002656
5.070000E-8	0.002984
5.075000E-8	0.003419
5.080000E-8	0.003584
5.085000E-8	0.003888
5.090000E-8	0.003947
5.095000E-8	0.004087
5.100000E-8	0.003950
5.105000E-8	0.003891
5.110000E-8	0.003656
5.115000E-8	0.003450
5.120000E-8	0.003122
5.125000E-8	0.002834
5.130000E-8	0.002447
5.135000E-8	0.002288
5.140000E-8	0.001991
5.145000E-8	0.001713
5.150000E-8	0.001506
5.155000E-8	0.001522
5.160000E-8	0.001419
5.165000E-8	0.001328
5.170000E-8	0.001331
5.175000E-8	0.001481
5.180000E-8	0.001528
5.185000E-8	0.001916
5.190000E-8	0.002222
5.195000E-8	0.002597
5.200000E-8	0.002894
5.205000E-8	0.003303
5.210000E-8	0.003478
5.215000E-8	0.003750
5.220000E-8	0.003788
5.225000E-8	0.003888
5.230000E-8	0.003759
5.235000E-8	0.003672
5.240000E-8	0.003488
5.245000E-8	0.003184
5.250000E-8	0.002850
5.255000E-8	0.002581
5.260000E-8	0.002150
5.265000E-8	0.001913
5.270000E-8	0.001631
5.275000E-8	0.001566
5.280000E-8	0.001375
5.285000E-8	0.001397
5.290000E-8	0.001350
5.295000E-8	0.001519
5.300000E-8	0.001538
5.305000E-8	0.001825
5.310000E-8	0.001988
5.315000E-8	0.002119
5.320000E-8	0.002247
5.325000E-8	0.002512
5.330000E-8	0.002719
5.335000E-8	0.003056
5.340000E-8	0.003106
5.345000E-8	0.003459
5.350000E-8	0.003525
5.355000E-8	0.003647
5.360000E-8	0.003594
5.365000E-8	0.003572
5.370000E-8	0.003466
5.375000E-8	0.003481
5.380000E-8	0.003253
5.385000E-8	0.002959
5.390000E-8	0.002653
5.395000E-8	0.002313
5.400000E-8	0.001881
5.405000E-8	0.001766
5.410000E-8	0.001578
5.415000E-8	0.001500
5.420000E-8	0.001437
5.425000E-8	0.001497
5.430000E-8	0.001634
5.435000E-8	0.001738
5.440000E-8	0.001872
5.445000E-8	0.002019
5.450000E-8	0.002225
5.455000E-8	0.002494
5.460000E-8	0.002700
5.465000E-8	0.002925
5.470000E-8	0.003022
5.475000E-8	0.003250
5.480000E-8	0.003359
5.485000E-8	0.003413
5.490000E-8	0.003331
5.495000E-8	0.003325
5.500000E-8	0.003341
5.505000E-8	0.003200
5.510000E-8	0.003091
5.515000E-8	0.002947
5.520000E-8	0.002713
5.525000E-8	0.002459
5.530000E-8	0.002259
5.535000E-8	0.002103
5.540000E-8	0.001906
5.545000E-8	0.001731
5.550000E-8	0.001591
5.555000E-8	0.001425
5.560000E-8	0.001453
5.565000E-8	0.001538
5.570000E-8	0.001497
5.575000E-8	0.001709
5.580000E-8	0.001875
5.585000E-8	0.002122
5.590000E-8	0.002353
5.595000E-8	0.002744
5.600000E-8	0.002963
5.605000E-8	0.003263
5.610000E-8	0.003466
5.615000E-8	0.003659
5.620000E-8	0.003722
5.625000E-8	0.003725
5.630000E-8	0.003666
5.635000E-8	0.003597
5.640000E-8	0.003284
5.645000E-8	0.002984
5.650000E-8	0.002634
5.655000E-8	0.002341
5.660000E-8	0.002041
5.665000E-8	0.001794
5.670000E-8	0.001594
5.675000E-8	0.001497
5.680000E-8	0.001350
5.685000E-8	0.001388
5.690000E-8	0.001444
5.695000E-8	0.001556
5.700000E-8	0.001734
5.705000E-8	0.002022
5.710000E-8	0.002144
5.715000E-8	0.002534
5.720000E-8	0.002662
5.725000E-8	0.002941
5.730000E-8	0.003178
5.735000E-8	0.003425
5.740000E-8	0.003516
5.745000E-8	0.003656
5.750000E-8	0.003722
5.755000E-8	0.003678
5.760000E-8	0.003581
5.765000E-8	0.003466
5.770000E-8	0.003203
5.775000E-8	0.003113
5.780000E-8	0.002856
5.785000E-8	0.002719
5.790000E-8	0.002550
5.795000E-8	0.002325
5.800000E-8	0.002144
5.805000E-8	0.002144
5.810000E-8	0.002106
5.815000E-8	0.002019
5.820000E-8	0.002000
5.825000E-8	0.002128
5.830000E-8	0.002231
5.835000E-8	0.002444
5.840000E-8	0.002447
5.845000E-8	0.002650
5.850000E-8	0.002872
5.855000E-8	0.003053
5.860000E-8	0.003225
5.865000E-8	0.003400
5.870000E-8	0.003634
5.875000E-8	0.003769
5.880000E-8	0.003766
5.885000E-8	0.003784
5.890000E-8	0.003647
5.895000E-8	0.003497
5.900000E-8	0.003247
5.905000E-8	0.002903
5.910000E-8	0.002503
5.915000E-8	0.002219
5.920000E-8	0.001894
5.925000E-8	0.001628
5.930000E-8	0.001353
5.935000E-8	0.001319
5.940000E-8	0.001091
5.945000E-8	0.001187
5.950000E-8	0.001272
5.955000E-8	0.001403
5.960000E-8	0.001684
5.965000E-8	0.001909
5.970000E-8	0.002144
5.975000E-8	0.002397
5.980000E-8	0.002656
5.985000E-8	0.002841
5.990000E-8	0.002991
5.995000E-8	0.003197
6.000000E-8	0.003113
6.005000E-8	0.003331
6.010000E-8	0.003466
6.015000E-8	0.003597
6.020000E-8	0.003572
6.025000E-8	0.003497
6.030000E-8	0.003438
6.035000E-8	0.003300
6.040000E-8	0.003009
6.045000E-8	0.002822
6.050000E-8	0.002616
6.055000E-8	0.002409
6.060000E-8	0.002200
6.065000E-8	0.002138
6.070000E-8	0.001950
6.075000E-8	0.002019
6.080000E-8	0.002094
6.085000E-8	0.002184
6.090000E-8	0.002278
6.095000E-8	0.002503
6.100000E-8	0.002575
6.105000E-8	0.002763
6.110000E-8	0.002991
6.115000E-8	0.003162
6.120000E-8	0.003219
6.125000E-8	0.003394
6.130000E-8	0.003469
6.135000E-8	0.003509
6.140000E-8	0.003478
6.145000E-8	0.003447
6.150000E-8	0.003303
6.155000E-8	0.003178
6.160000E-8	0.003087
6.165000E-8	0.003047
6.170000E-8	0.002831
6.175000E-8	0.002722
6.180000E-8	0.002447
6.185000E-8	0.002388
6.190000E-8	0.002250
6.195000E-8	0.002041
6.200000E-8	0.001941
6.205000E-8	0.001794
6.210000E-8	0.001706
6.215000E-8	0.001772
6.220000E-8	0.001744
6.225000E-8	0.001831
6.230000E-8	0.001913
6.235000E-8	0.002075
6.240000E-8	0.002222
6.245000E-8	0.002531
6.250000E-8	0.002684
6.255000E-8	0.002931
6.260000E-8	0.002994
6.265000E-8	0.003250
6.270000E-8	0.003209
6.275000E-8	0.003334
6.280000E-8	0.003150
6.285000E-8	0.003263
6.290000E-8	0.003225
6.295000E-8	0.003072
6.300000E-8	0.002813
6.305000E-8	0.002688
6.310000E-8	0.002497
6.315000E-8	0.002413
6.320000E-8	0.002162
6.325000E-8	0.002012
6.330000E-8	0.001909
6.335000E-8	0.001937
6.340000E-8	0.001897
6.345000E-8	0.002044
6.350000E-8	0.002103
6.355000E-8	0.002144
6.360000E-8	0.002206
6.365000E-8	0.002441
6.370000E-8	0.002572
6.375000E-8	0.002881
6.380000E-8	0.002894
6.385000E-8	0.003047
6.390000E-8	0.003194
6.395000E-8	0.003353
6.400000E-8	0.003309
6.405000E-8	0.003381
6.410000E-8	0.003303
6.415000E-8	0.003256
6.420000E-8	0.003169
6.425000E-8	0.002928
6.430000E-8	0.002759
6.435000E-8	0.002653
6.440000E-8	0.002472
6.445000E-8	0.002263
6.450000E-8	0.002222
6.455000E-8	0.002044
6.460000E-8	0.001847
6.465000E-8	0.001825
6.470000E-8	0.001800
6.475000E-8	0.001947
6.480000E-8	0.002053
6.485000E-8	0.002241
6.490000E-8	0.002322
6.495000E-8	0.002525
6.500000E-8	0.002669
6.505000E-8	0.002875
6.510000E-8	0.003012
6.515000E-8	0.003178
6.520000E-8	0.003247
6.525000E-8	0.003291
6.530000E-8	0.003481
6.535000E-8	0.003484
6.540000E-8	0.003338
6.545000E-8	0.003378
6.550000E-8	0.003225
6.555000E-8	0.003141
6.560000E-8	0.002894
6.565000E-8	0.002813
6.570000E-8	0.002659
6.575000E-8	0.002538
6.580000E-8	0.002294
6.585000E-8	0.002131
6.590000E-8	0.002003
6.595000E-8	0.002059
6.600000E-8	0.001947
6.605000E-8	0.002025
6.610000E-8	0.001991
6.615000E-8	0.002244
6.620000E-8	0.002303
6.625000E-8	0.002422
6.630000E-8	0.002550
6.635000E-8	0.002750
6.640000E-8	0.002747
6.645000E-8	0.003016
6.650000E-8	0.003072
6.655000E-8	0.003294
6.660000E-8	0.003306
6.665000E-8	0.003466
6.670000E-8	0.003409
6.675000E-8	0.003413
6.680000E-8	0.003363
6.685000E-8	0.003244
6.690000E-8	0.003006
6.695000E-8	0.002809
6.700000E-8	0.002644
6.705000E-8	0.002409
6.710000E-8	0.002209
6.715000E-8	0.002103
6.720000E-8	0.001894
6.725000E-8	0.001922
6.730000E-8	0.001816
6.735000E-8	0.002006
6.740000E-8	0.001919
6.745000E-8	0.002034
6.750000E-8	0.002141
6.755000E-8	0.002159
6.760000E-8	0.002278
6.765000E-8	0.002381
6.770000E-8	0.002544
6.775000E-8	0.002675
6.780000E-8	0.002766
6.785000E-8	0.002975
6.790000E-8	0.003091
6.795000E-8	0.003181
6.800000E-8	0.003153
6.805000E-8	0.003306
6.810000E-8	0.003228
6.815000E-8	0.003259
6.820000E-8	0.003141
6.825000E-8	0.003097
6.830000E-8	0.002916
6.835000E-8	0.002750
6.840000E-8	0.002613
6.845000E-8	0.002538
6.850000E-8	0.002306
6.855000E-8	0.002197
6.860000E-8	0.002066
6.865000E-8	0.002063
6.870000E-8	0.002025
6.875000E-8	0.001866
6.880000E-8	0.001975
6.885000E-8	0.002084
6.890000E-8	0.002228
6.895000E-8	0.002509
6.900000E-8	0.002578
6.905000E-8	0.002753
6.910000E-8	0.002944
6.915000E-8	0.003197
6.920000E-8	0.003259
6.925000E-8	0.003397
6.930000E-8	0.003347
6.935000E-8	0.003441
6.940000E-8	0.003203
6.945000E-8	0.003156
6.950000E-8	0.003056
6.955000E-8	0.003000
6.960000E-8	0.002797
6.965000E-8	0.002619
6.970000E-8	0.002456
6.975000E-8	0.002488
6.980000E-8	0.002466
6.985000E-8	0.002413
6.990000E-8	0.002263
6.995000E-8	0.002347
7.000000E-8	0.002275
7.005000E-8	0.002291
7.010000E-8	0.002416
7.015000E-8	0.002516
7.020000E-8	0.002647
7.025000E-8	0.002722
7.030000E-8	0.002750
7.035000E-8	0.002953
7.040000E-8	0.002991
7.045000E-8	0.003044
7.050000E-8	0.003038
7.055000E-8	0.003012
7.060000E-8	0.003038
7.065000E-8	0.003003
7.070000E-8	0.003019
7.075000E-8	0.003116
7.080000E-8	0.002891
7.085000E-8	0.002884
7.090000E-8	0.002813
7.095000E-8	0.002756
7.100000E-8	0.002856
7.105000E-8	0.002737
7.110000E-8	0.002563
7.115000E-8	0.002419
7.120000E-8	0.002272
7.125000E-8	0.002244
7.130000E-8	0.002113
7.135000E-8	0.002100
7.140000E-8	0.002166
7.145000E-8	0.002216
7.150000E-8	0.002363
7.155000E-8	0.002475
7.160000E-8	0.002431
7.165000E-8	0.002506
7.170000E-8	0.002553
7.175000E-8	0.002759
7.180000E-8	0.002688
7.185000E-8	0.002813
7.190000E-8	0.002869
7.195000E-8	0.002966
7.200000E-8	0.002866
7.205000E-8	0.002947
7.210000E-8	0.002934
7.215000E-8	0.002928
7.220000E-8	0.002722
7.225000E-8	0.002728
7.230000E-8	0.002653
7.235000E-8	0.002594
7.240000E-8	0.002253
7.245000E-8	0.002131
7.250000E-8	0.002038
7.255000E-8	0.002106
7.260000E-8	0.002038
7.265000E-8	0.002103
7.270000E-8	0.002222
7.275000E-8	0.002234
7.280000E-8	0.002228
7.285000E-8	0.002328
7.290000E-8	0.002413
7.295000E-8	0.002600
7.300000E-8	0.002509
7.305000E-8	0.002694
7.310000E-8	0.002647
7.315000E-8	0.002806
7.320000E-8	0.002909
7.325000E-8	0.002984
7.330000E-8	0.002975
7.335000E-8	0.003109
7.340000E-8	0.002941
7.345000E-8	0.002941
7.350000E-8	0.002772
7.355000E-8	0.002741
7.360000E-8	0.002553
7.365000E-8	0.002431
7.370000E-8	0.002263
7.375000E-8	0.002213
7.380000E-8	0.002131
7.385000E-8	0.002034
7.390000E-8	0.001994
7.395000E-8	0.002038
7.400000E-8	0.002156
7.405000E-8	0.002225
7.410000E-8	0.002284
7.415000E-8	0.002416
7.420000E-8	0.002450
7.425000E-8	0.002666
7.430000E-8	0.002644
7.435000E-8	0.002806
7.440000E-8	0.002788
7.445000E-8	0.002963
7.450000E-8	0.002978
7.455000E-8	0.003091
7.460000E-8	0.003016
7.465000E-8	0.003022
7.470000E-8	0.002934
7.475000E-8	0.002928
7.480000E-8	0.002806
7.485000E-8	0.002747
7.490000E-8	0.002531
7.495000E-8	0.002416
7.500000E-8	0.002334
7.505000E-8	0.002294
7.510000E-8	0.002134
7.515000E-8	0.002147
7.520000E-8	0.002069
7.525000E-8	0.002144
7.530000E-8	0.002200
7.535000E-8	0.002322
7.540000E-8	0.002266
7.545000E-8	0.002456
7.550000E-8	0.002650
7.555000E-8	0.002806
7.560000E-8	0.002822
7.565000E-8	0.002994
7.570000E-8	0.003031
7.575000E-8	0.003178
7.580000E-8	0.003188
7.585000E-8	0.003128
7.590000E-8	0.003166
7.595000E-8	0.003162
7.600000E-8	0.003016
7.605000E-8	0.002903
7.610000E-8	0.002825
7.615000E-8	0.002819
7.620000E-8	0.002722
7.625000E-8	0.002659
7.630000E-8	0.002544
7.635000E-8	0.002572
7.640000E-8	0.002350
7.645000E-8	0.002431
7.650000E-8	0.002356
7.655000E-8	0.002250
7.660000E-8	0.002231
7.665000E-8	0.002275
7.670000E-8	0.002341
7.675000E-8	0.002456
7.680000E-8	0.002466
7.685000E-8	0.002541
7.690000E-8	0.002569
7.695000E-8	0.002716
7.700000E-8	0.002791
7.705000E-8	0.002791
7.710000E-8	0.002806
7.715000E-8	0.002919
7.720000E-8	0.002744
7.725000E-8	0.002888
7.730000E-8	0.002850
7.735000E-8	0.002834
7.740000E-8	0.002806
7.745000E-8	0.002847
7.750000E-8	0.002728
7.755000E-8	0.002747
7.760000E-8	0.002572
7.765000E-8	0.002547
7.770000E-8	0.002428
7.775000E-8	0.002516
7.780000E-8	0.002416
7.785000E-8	0.002416
7.790000E-8	0.002341
7.795000E-8	0.002541
7.800000E-8	0.002463
7.805000E-8	0.002591
7.810000E-8	0.002694
7.815000E-8	0.002941
7.820000E-8	0.002959
7.825000E-8	0.003125
7.830000E-8	0.003162
7.835000E-8	0.003284
7.840000E-8	0.003300
7.845000E-8	0.003372
7.850000E-8	0.003334
7.855000E-8	0.003259
7.860000E-8	0.003119
7.865000E-8	0.003047
7.870000E-8	0.002847
7.875000E-8	0.002872
7.880000E-8	0.002716
7.885000E-8	0.002678
7.890000E-8	0.002578
7.895000E-8	0.002522
7.900000E-8	0.002347
7.905000E-8	0.002378
7.910000E-8	0.002322
7.915000E-8	0.002391
7.920000E-8	0.002303
7.925000E-8	0.002319
7.930000E-8	0.002297
7.935000E-8	0.002463
7.940000E-8	0.002359
7.945000E-8	0.002519
7.950000E-8	0.002463
7.955000E-8	0.002563
7.960000E-8	0.002647
7.965000E-8	0.002713
7.970000E-8	0.002747
7.975000E-8	0.002825
7.980000E-8	0.002838
7.985000E-8	0.002794
7.990000E-8	0.002947
7.995000E-8	0.002903
8.000000E-8	0.002650
8.005000E-8	0.002575
8.010000E-8	0.002469
8.015000E-8	0.002384
8.020000E-8	0.002338
8.025000E-8	0.002281
8.030000E-8	0.002094
8.035000E-8	0.002025
8.040000E-8	0.002003
8.045000E-8	0.002000
8.050000E-8	0.002022
8.055000E-8	0.002075
8.060000E-8	0.002162
8.065000E-8	0.002194
8.070000E-8	0.002253
8.075000E-8	0.002363
8.080000E-8	0.002463
8.085000E-8	0.002709
8.090000E-8	0.002716
8.095000E-8	0.002872
8.100000E-8	0.002903
8.105000E-8	0.002884
8.110000E-8	0.002963
8.115000E-8	0.002947
8.120000E-8	0.002847
8.125000E-8	0.002744
8.130000E-8	0.002534
8.135000E-8	0.002466
8.140000E-8	0.002284
8.145000E-8	0.002203
8.150000E-8	0.002053
8.155000E-8	0.002028
8.160000E-8	0.001894
8.165000E-8	0.001997
8.170000E-8	0.001928
8.175000E-8	0.002125
8.180000E-8	0.002041
8.185000E-8	0.002103
8.190000E-8	0.002106
8.195000E-8	0.002213
8.200000E-8	0.002294
8.205000E-8	0.002372
8.210000E-8	0.002528
8.215000E-8	0.002678
8.220000E-8	0.002778
8.225000E-8	0.002888
8.230000E-8	0.002909
8.235000E-8	0.003028
8.240000E-8	0.002963
8.245000E-8	0.002872
8.250000E-8	0.002750
8.255000E-8	0.002591
8.260000E-8	0.002356
8.265000E-8	0.002269
8.270000E-8	0.002147
8.275000E-8	0.002066
8.280000E-8	0.002000
8.285000E-8	0.002000
8.290000E-8	0.001844
8.295000E-8	0.001903
8.300000E-8	0.001859
8.305000E-8	0.001956
8.310000E-8	0.002022
8.315000E-8	0.002191
8.320000E-8	0.002281
8.325000E-8	0.002437
8.330000E-8	0.002341
8.335000E-8	0.002650
8.340000E-8	0.002728
8.345000E-8	0.002753
8.350000E-8	0.002759
8.355000E-8	0.002844
8.360000E-8	0.002791
8.365000E-8	0.002734
8.370000E-8	0.002625
8.375000E-8	0.002681
8.380000E-8	0.002563
8.385000E-8	0.002644
8.390000E-8	0.002584
8.395000E-8	0.002559
8.400000E-8	0.002428
8.405000E-8	0.002469
8.410000E-8	0.002394
8.415000E-8	0.002516
8.420000E-8	0.002441
8.425000E-8	0.002538
8.430000E-8	0.002356
8.435000E-8	0.002447
8.440000E-8	0.002388
8.445000E-8	0.002356
8.450000E-8	0.002288
8.455000E-8	0.002384
8.460000E-8	0.002338
8.465000E-8	0.002306
8.470000E-8	0.002300
8.475000E-8	0.002413
8.480000E-8	0.002388
8.485000E-8	0.002556
8.490000E-8	0.002541
8.495000E-8	0.002572
8.500000E-8	0.002697
8.505000E-8	0.002766
8.510000E-8	0.002897
8.515000E-8	0.003034
8.520000E-8	0.002925
8.525000E-8	0.002988
8.530000E-8	0.002956
8.535000E-8	0.002894
8.540000E-8	0.002656
8.545000E-8	0.002525
8.550000E-8	0.002384
8.555000E-8	0.002375
8.560000E-8	0.002231
8.565000E-8	0.002194
8.570000E-8	0.002275
8.575000E-8	0.002209
8.580000E-8	0.002263
8.585000E-8	0.002422
8.590000E-8	0.002381
8.595000E-8	0.002556
8.600000E-8	0.002447
8.605000E-8	0.002647
8.610000E-8	0.002587
8.615000E-8	0.002709
8.620000E-8	0.002616
8.625000E-8	0.002644
8.630000E-8	0.002616
8.635000E-8	0.002691
8.640000E-8	0.002672
8.645000E-8	0.002638
8.650000E-8	0.002672
8.655000E-8	0.002722
8.660000E-8	0.002678
8.665000E-8	0.002581
8.670000E-8	0.002503
8.675000E-8	0.002559
8.680000E-8	0.002516
8.685000E-8	0.002497
8.690000E-8	0.002525
8.695000E-8	0.002572
8.700000E-8	0.002409
8.705000E-8	0.002525
8.710000E-8	0.002547
8.715000E-8	0.002528
8.720000E-8	0.002553
8.725000E-8	0.002688
8.730000E-8	0.002734
8.735000E-8	0.002800
8.740000E-8	0.002788
8.745000E-8	0.002928
8.750000E-8	0.002850
8.755000E-8	0.002903
8.760000E-8	0.002841
8.765000E-8	0.002903
8.770000E-8	0.002922
8.775000E-8	0.003044
8.780000E-8	0.003106
8.785000E-8	0.002975
8.790000E-8	0.003025
8.795000E-8	0.003000
8.800000E-8	0.002881
8.805000E-8	0.002784
8.810000E-8	0.002681
8.815000E-8	0.002681
8.820000E-8	0.002553
8.825000E-8	0.002416
8.830000E-8	0.002338
8.835000E-8	0.002275
8.840000E-8	0.002203
8.845000E-8	0.002325
8.850000E-8	0.002372
8.855000E-8	0.002491
8.860000E-8	0.002519
8.865000E-8	0.002737
8.870000E-8	0.002681
8.875000E-8	0.002825
8.880000E-8	0.002784
8.885000E-8	0.002947
8.890000E-8	0.002859
8.895000E-8	0.003012
8.900000E-8	0.002863
8.905000E-8	0.002894
8.910000E-8	0.002803
8.915000E-8	0.002828
8.920000E-8	0.002719
8.925000E-8	0.002669
8.930000E-8	0.002525
8.935000E-8	0.002491
8.940000E-8	0.002391
8.945000E-8	0.002334
8.950000E-8	0.002331
8.955000E-8	0.002191
8.960000E-8	0.002069
8.965000E-8	0.002091
8.970000E-8	0.002016
8.975000E-8	0.002103
8.980000E-8	0.002106
8.985000E-8	0.002256
8.990000E-8	0.002178
8.995000E-8	0.002416
9.000000E-8	0.002331
9.005000E-8	0.002481
9.010000E-8	0.002459
9.015000E-8	0.002728
9.020000E-8	0.002600
9.025000E-8	0.002603
9.030000E-8	0.002606
9.035000E-8	0.002741
9.040000E-8	0.002741
9.045000E-8	0.002747
9.050000E-8	0.002703
9.055000E-8	0.002641
9.060000E-8	0.002484
9.065000E-8	0.002366
9.070000E-8	0.002263
9.075000E-8	0.002237
9.080000E-8	0.002106
9.085000E-8	0.002116
9.090000E-8	0.002147
9.095000E-8	0.002284
9.100000E-8	0.002294
9.105000E-8	0.002450
9.110000E-8	0.002547
9.115000E-8	0.002634
9.120000E-8	0.002700
9.125000E-8	0.002706
9.130000E-8	0.002716
9.135000E-8	0.002797
9.140000E-8	0.002913
9.145000E-8	0.002859
9.150000E-8	0.002784
9.155000E-8	0.002809
9.160000E-8	0.002753
9.165000E-8	0.002822
9.170000E-8	0.002737
9.175000E-8	0.002853
9.180000E-8	0.002759
9.185000E-8	0.002788
9.190000E-8	0.002581
9.195000E-8	0.002528
9.200000E-8	0.002453
9.205000E-8	0.002478
9.210000E-8	0.002316
9.215000E-8	0.002269
9.220000E-8	0.002216
9.225000E-8	0.002162
9.230000E-8	0.002253
9.235000E-8	0.002366
9.240000E-8	0.002353
9.245000E-8	0.002506
9.250000E-8	0.002494
9.255000E-8	0.002587
9.260000E-8	0.002716
9.265000E-8	0.002713
9.270000E-8	0.002800
9.275000E-8	0.002794
9.280000E-8	0.002691
9.285000E-8	0.002750
9.290000E-8	0.002688
9.295000E-8	0.002647
9.300000E-8	0.002566
9.305000E-8	0.002634
9.310000E-8	0.002466
9.315000E-8	0.002606
9.320000E-8	0.002522
9.325000E-8	0.002503
9.330000E-8	0.002444
9.335000E-8	0.002503
9.340000E-8	0.002369
9.345000E-8	0.002328
9.350000E-8	0.002250
9.355000E-8	0.002216
9.360000E-8	0.002181
9.365000E-8	0.002303
9.370000E-8	0.002203
9.375000E-8	0.002294
9.380000E-8	0.002253
9.385000E-8	0.002344
9.390000E-8	0.002375
9.395000E-8	0.002431
9.400000E-8	0.002481
9.405000E-8	0.002659
9.410000E-8	0.002469
9.415000E-8	0.002628
9.420000E-8	0.002544
9.425000E-8	0.002650
9.430000E-8	0.002609
9.435000E-8	0.002534
9.440000E-8	0.002425
9.445000E-8	0.002525
9.450000E-8	0.002428
9.455000E-8	0.002453
9.460000E-8	0.002231
9.465000E-8	0.002203
9.470000E-8	0.002247
9.475000E-8	0.002225
9.480000E-8	0.002109
9.485000E-8	0.002087
9.490000E-8	0.002116
9.495000E-8	0.002291
9.500000E-8	0.002216
9.505000E-8	0.002313
9.510000E-8	0.002431
9.515000E-8	0.002653
9.520000E-8	0.002747
9.525000E-8	0.002747
9.530000E-8	0.002838
9.535000E-8	0.003000
9.540000E-8	0.002925
9.545000E-8	0.003053
9.550000E-8	0.002847
9.555000E-8	0.002928
9.560000E-8	0.002831
9.565000E-8	0.002822
9.570000E-8	0.002700
9.575000E-8	0.002722
9.580000E-8	0.002631
9.585000E-8	0.002613
9.590000E-8	0.002497
9.595000E-8	0.002509
9.600000E-8	0.002509
9.605000E-8	0.002400
9.610000E-8	0.002541
9.615000E-8	0.002731
9.620000E-8	0.002809
9.625000E-8	0.002872
9.630000E-8	0.003006
9.635000E-8	0.003063
9.640000E-8	0.003034
9.645000E-8	0.003087
9.650000E-8	0.003066
9.655000E-8	0.003197
9.660000E-8	0.002947
9.665000E-8	0.002934
9.670000E-8	0.002925
9.675000E-8	0.002897
9.680000E-8	0.002794
9.685000E-8	0.002753
9.690000E-8	0.002716
9.695000E-8	0.002709
9.700000E-8	0.002516
9.705000E-8	0.002503
9.710000E-8	0.002541
9.715000E-8	0.002581
9.720000E-8	0.002384
9.725000E-8	0.002409
9.730000E-8	0.002441
9.735000E-8	0.002363
9.740000E-8	0.002278
9.745000E-8	0.002269
9.750000E-8	0.002156
9.755000E-8	0.002175
9.760000E-8	0.002147
9.765000E-8	0.002259
9.770000E-8	0.002381
9.775000E-8	0.002372
9.780000E-8	0.002397
9.785000E-8	0.002616
9.790000E-8	0.002691
9.795000E-8	0.002816
9.800000E-8	0.002788
9.805000E-8	0.002897
9.810000E-8	0.002681
9.815000E-8	0.002747
9.820000E-8	0.002691
9.825000E-8	0.002737
9.830000E-8	0.002688
9.835000E-8	0.002644
9.840000E-8	0.002531
9.845000E-8	0.002522
9.850000E-8	0.002525
9.855000E-8	0.002609
9.860000E-8	0.002434
9.865000E-8	0.002453
9.870000E-8	0.002516
9.875000E-8	0.002456
9.880000E-8	0.002584
9.885000E-8	0.002616
9.890000E-8	0.002488
9.895000E-8	0.002594
9.900000E-8	0.002484
9.905000E-8	0.002544
9.910000E-8	0.002525
9.915000E-8	0.002628
9.920000E-8	0.002606
9.925000E-8	0.002759
9.930000E-8	0.002794
9.935000E-8	0.002928
9.940000E-8	0.002941
9.945000E-8	0.003091
9.950000E-8	0.003006
9.955000E-8	0.003087
9.960000E-8	0.003056
9.965000E-8	0.003091
9.970000E-8	0.003159
9.975000E-8	0.003050
9.980000E-8	0.002913
9.985000E-8	0.002800
9.990000E-8	0.002806
9.995000E-8	0.002656
