LabVIEW Measurement	
Writer_Version	2
Reader_Version	2
Separator	Tab
Decimal_Separator	.
Multi_Headings	No
X_Columns	Multi
Time_Pref	Relative
Operator	TG lab
Date	2015/03/06
Time	18:02:45.2902150154113769531
***End_of_Header***	
	
Channels	1	
Samples	2000	
Date	1903/12/31	
Time	19:00:00	
X_Dimension	Time	
X0	0.0000000000000000E+0	
Delta_X	5.000000E-11	
***End_of_Header***		
X_Value	Untitled	Comment
0.000000	0.002820
5.000000E-11	0.002758
1.000000E-10	0.002711
1.500000E-10	0.002953
2.000000E-10	0.002898
2.500000E-10	0.002898
3.000000E-10	0.002641
3.500000E-10	0.002523
4.000000E-10	0.002398
4.500000E-10	0.002695
5.000000E-10	0.002758
5.500000E-10	0.002727
6.000000E-10	0.002992
6.500000E-10	0.003000
7.000000E-10	0.003172
7.500000E-10	0.003242
8.000000E-10	0.003109
8.500000E-10	0.003156
9.000000E-10	0.002984
9.500000E-10	0.002961
1.000000E-9	0.003086
1.050000E-9	0.002984
1.100000E-9	0.003047
1.150000E-9	0.002898
1.200000E-9	0.002867
1.250000E-9	0.003094
1.300000E-9	0.003336
1.350000E-9	0.003281
1.400000E-9	0.003352
1.450000E-9	0.003445
1.500000E-9	0.003492
1.550000E-9	0.003625
1.600000E-9	0.003742
1.650000E-9	0.003977
1.700000E-9	0.004047
1.750000E-9	0.004133
1.800000E-9	0.003852
1.850000E-9	0.003758
1.900000E-9	0.003844
1.950000E-9	0.003883
2.000000E-9	0.003828
2.050000E-9	0.003641
2.100000E-9	0.003414
2.150000E-9	0.003531
2.200000E-9	0.003328
2.250000E-9	0.003414
2.300000E-9	0.003406
2.350000E-9	0.003547
2.400000E-9	0.003688
2.450000E-9	0.003625
2.500000E-9	0.003625
2.550000E-9	0.003969
2.600000E-9	0.003883
2.650000E-9	0.003836
2.700000E-9	0.004008
2.750000E-9	0.003938
2.800000E-9	0.003672
2.850000E-9	0.004141
2.900000E-9	0.003977
2.950000E-9	0.004047
3.000000E-9	0.003695
3.050000E-9	0.003938
3.100000E-9	0.004078
3.150000E-9	0.004063
3.200000E-9	0.004102
3.250000E-9	0.004008
3.300000E-9	0.004039
3.350000E-9	0.004250
3.400000E-9	0.004242
3.450000E-9	0.004336
3.500000E-9	0.004453
3.550000E-9	0.004375
3.600000E-9	0.004383
3.650000E-9	0.004578
3.700000E-9	0.004656
3.750000E-9	0.004750
3.800000E-9	0.004898
3.850000E-9	0.004930
3.900000E-9	0.005195
3.950000E-9	0.005422
4.000000E-9	0.005805
4.050000E-9	0.005711
4.100000E-9	0.005859
4.150000E-9	0.006344
4.200000E-9	0.006641
4.250000E-9	0.006977
4.300000E-9	0.007445
4.350000E-9	0.008195
4.400000E-9	0.009070
4.450000E-9	0.009875
4.500000E-9	0.011102
4.550000E-9	0.012289
4.600000E-9	0.013891
4.650000E-9	0.015500
4.700000E-9	0.017094
4.750000E-9	0.018422
4.800000E-9	0.019938
4.850000E-9	0.021539
4.900000E-9	0.022875
4.950000E-9	0.024555
5.000000E-9	0.026195
5.050000E-9	0.028117
5.100000E-9	0.030219
5.150000E-9	0.032398
5.200000E-9	0.034648
5.250000E-9	0.036906
5.300000E-9	0.039055
5.350000E-9	0.041008
5.400000E-9	0.042750
5.450000E-9	0.044523
5.500000E-9	0.045766
5.550000E-9	0.046586
5.600000E-9	0.047141
5.650000E-9	0.047109
5.700000E-9	0.046883
5.750000E-9	0.046328
5.800000E-9	0.045227
5.850000E-9	0.043289
5.900000E-9	0.041258
5.950000E-9	0.038719
6.000000E-9	0.036078
6.050000E-9	0.033664
6.100000E-9	0.031492
6.150000E-9	0.029344
6.200000E-9	0.027594
6.250000E-9	0.026469
6.300000E-9	0.025641
6.350000E-9	0.025383
6.400000E-9	0.025531
6.450000E-9	0.026070
6.500000E-9	0.026625
6.550000E-9	0.027273
6.600000E-9	0.028148
6.650000E-9	0.028898
6.700000E-9	0.029664
6.750000E-9	0.030523
6.800000E-9	0.030797
6.850000E-9	0.031141
6.900000E-9	0.031187
6.950000E-9	0.031375
7.000000E-9	0.031172
7.050000E-9	0.030477
7.100000E-9	0.029445
7.150000E-9	0.028250
7.200000E-9	0.027000
7.250000E-9	0.025453
7.300000E-9	0.023781
7.350000E-9	0.022258
7.400000E-9	0.020656
7.450000E-9	0.019102
7.500000E-9	0.017969
7.550000E-9	0.016906
7.600000E-9	0.016430
7.650000E-9	0.016234
7.700000E-9	0.016211
7.750000E-9	0.016492
7.800000E-9	0.016875
7.850000E-9	0.017680
7.900000E-9	0.018484
7.950000E-9	0.019359
8.000000E-9	0.020211
8.050000E-9	0.021133
8.100000E-9	0.021891
8.150000E-9	0.022445
8.200000E-9	0.022805
8.250000E-9	0.022891
8.300000E-9	0.022547
8.350000E-9	0.022102
8.400000E-9	0.021383
8.450000E-9	0.020133
8.500000E-9	0.018937
8.550000E-9	0.017734
8.600000E-9	0.016367
8.650000E-9	0.015133
8.700000E-9	0.013820
8.750000E-9	0.012539
8.800000E-9	0.011930
8.850000E-9	0.011109
8.900000E-9	0.010594
8.950000E-9	0.010297
9.000000E-9	0.010352
9.050000E-9	0.010602
9.100000E-9	0.011164
9.150000E-9	0.011547
9.200000E-9	0.012305
9.250000E-9	0.013250
9.300000E-9	0.014086
9.350000E-9	0.014836
9.400000E-9	0.015586
9.450000E-9	0.016125
9.500000E-9	0.016648
9.550000E-9	0.016617
9.600000E-9	0.016578
9.650000E-9	0.016414
9.700000E-9	0.016000
9.750000E-9	0.015414
9.800000E-9	0.014617
9.850000E-9	0.013750
9.900000E-9	0.012328
9.950000E-9	0.011133
1.000000E-8	0.009992
1.005000E-8	0.009180
1.010000E-8	0.008516
1.015000E-8	0.007852
1.020000E-8	0.007266
1.025000E-8	0.007031
1.030000E-8	0.006891
1.035000E-8	0.006977
1.040000E-8	0.007297
1.045000E-8	0.007734
1.050000E-8	0.008469
1.055000E-8	0.009195
1.060000E-8	0.009828
1.065000E-8	0.010313
1.070000E-8	0.011187
1.075000E-8	0.012133
1.080000E-8	0.012570
1.085000E-8	0.012883
1.090000E-8	0.012953
1.095000E-8	0.013266
1.100000E-8	0.012977
1.105000E-8	0.012617
1.110000E-8	0.012063
1.115000E-8	0.011109
1.120000E-8	0.010242
1.125000E-8	0.009406
1.130000E-8	0.008344
1.135000E-8	0.007414
1.140000E-8	0.006344
1.145000E-8	0.005797
1.150000E-8	0.005000
1.155000E-8	0.004719
1.160000E-8	0.004719
1.165000E-8	0.004602
1.170000E-8	0.004953
1.175000E-8	0.005109
1.180000E-8	0.005547
1.185000E-8	0.006117
1.190000E-8	0.006969
1.195000E-8	0.007695
1.200000E-8	0.008438
1.205000E-8	0.009312
1.210000E-8	0.009984
1.215000E-8	0.010461
1.220000E-8	0.010766
1.225000E-8	0.011047
1.230000E-8	0.010984
1.235000E-8	0.010734
1.240000E-8	0.010211
1.245000E-8	0.009734
1.250000E-8	0.009023
1.255000E-8	0.008469
1.260000E-8	0.007430
1.265000E-8	0.006359
1.270000E-8	0.005609
1.275000E-8	0.004648
1.280000E-8	0.004102
1.285000E-8	0.003594
1.290000E-8	0.003336
1.295000E-8	0.003141
1.300000E-8	0.003195
1.305000E-8	0.003469
1.310000E-8	0.004141
1.315000E-8	0.004852
1.320000E-8	0.005492
1.325000E-8	0.006344
1.330000E-8	0.006992
1.335000E-8	0.008156
1.340000E-8	0.008805
1.345000E-8	0.009734
1.350000E-8	0.009953
1.355000E-8	0.010414
1.360000E-8	0.010484
1.365000E-8	0.010281
1.370000E-8	0.009922
1.375000E-8	0.009383
1.380000E-8	0.008789
1.385000E-8	0.007766
1.390000E-8	0.006836
1.395000E-8	0.005742
1.400000E-8	0.004578
1.405000E-8	0.003883
1.410000E-8	0.003031
1.415000E-8	0.002406
1.420000E-8	0.001750
1.425000E-8	0.001508
1.430000E-8	0.001359
1.435000E-8	0.001758
1.440000E-8	0.002000
1.445000E-8	0.002633
1.450000E-8	0.003320
1.455000E-8	0.004305
1.460000E-8	0.005250
1.465000E-8	0.006180
1.470000E-8	0.007000
1.475000E-8	0.007781
1.480000E-8	0.008305
1.485000E-8	0.008656
1.490000E-8	0.008695
1.495000E-8	0.008617
1.500000E-8	0.008125
1.505000E-8	0.007703
1.510000E-8	0.006859
1.515000E-8	0.006219
1.520000E-8	0.005148
1.525000E-8	0.004086
1.530000E-8	0.003102
1.535000E-8	0.002398
1.540000E-8	0.001602
1.545000E-8	0.000883
1.550000E-8	0.000445
1.555000E-8	0.000352
1.560000E-8	0.000492
1.565000E-8	0.001063
1.570000E-8	0.001320
1.575000E-8	0.002109
1.580000E-8	0.002883
1.585000E-8	0.003781
1.590000E-8	0.004539
1.595000E-8	0.005687
1.600000E-8	0.006391
1.605000E-8	0.007469
1.610000E-8	0.008141
1.615000E-8	0.008547
1.620000E-8	0.008656
1.625000E-8	0.008539
1.630000E-8	0.008273
1.635000E-8	0.007992
1.640000E-8	0.007172
1.645000E-8	0.006336
1.650000E-8	0.005344
1.655000E-8	0.004258
1.660000E-8	0.003109
1.665000E-8	0.002086
1.670000E-8	0.001117
1.675000E-8	0.000656
1.680000E-8	0.000148
1.685000E-8	2.343750E-5
1.690000E-8	2.343750E-5
1.695000E-8	0.000344
1.700000E-8	0.000852
1.705000E-8	0.001633
1.710000E-8	0.002586
1.715000E-8	0.003477
1.720000E-8	0.004609
1.725000E-8	0.005289
1.730000E-8	0.006117
1.735000E-8	0.006797
1.740000E-8	0.007500
1.745000E-8	0.007547
1.750000E-8	0.007852
1.755000E-8	0.007891
1.760000E-8	0.007367
1.765000E-8	0.006992
1.770000E-8	0.006266
1.775000E-8	0.005508
1.780000E-8	0.004742
1.785000E-8	0.003789
1.790000E-8	0.002703
1.795000E-8	0.001742
1.800000E-8	0.000992
1.805000E-8	0.000555
1.810000E-8	-6.250000E-5
1.815000E-8	-0.000234
1.820000E-8	-9.375000E-5
1.825000E-8	0.000266
1.830000E-8	0.000875
1.835000E-8	0.001445
1.840000E-8	0.002180
1.845000E-8	0.003055
1.850000E-8	0.004039
1.855000E-8	0.004641
1.860000E-8	0.005313
1.865000E-8	0.006063
1.870000E-8	0.006766
1.875000E-8	0.006938
1.880000E-8	0.007250
1.885000E-8	0.007359
1.890000E-8	0.007148
1.895000E-8	0.006641
1.900000E-8	0.005969
1.905000E-8	0.005242
1.910000E-8	0.004305
1.915000E-8	0.003352
1.920000E-8	0.002320
1.925000E-8	0.001781
1.930000E-8	0.000945
1.935000E-8	0.000609
1.940000E-8	0.000148
1.945000E-8	0.000156
1.950000E-8	0.000211
1.955000E-8	0.000609
1.960000E-8	0.000859
1.965000E-8	0.001375
1.970000E-8	0.002180
1.975000E-8	0.002789
1.980000E-8	0.003727
1.985000E-8	0.004492
1.990000E-8	0.004992
1.995000E-8	0.005719
2.000000E-8	0.006195
2.005000E-8	0.006461
2.010000E-8	0.006695
2.015000E-8	0.006859
2.020000E-8	0.006578
2.025000E-8	0.006164
2.030000E-8	0.005742
2.035000E-8	0.005148
2.040000E-8	0.004547
2.045000E-8	0.003727
2.050000E-8	0.002867
2.055000E-8	0.002031
2.060000E-8	0.001180
2.065000E-8	0.000602
2.070000E-8	0.000180
2.075000E-8	-0.000375
2.080000E-8	-0.000594
2.085000E-8	-0.000547
2.090000E-8	-0.000305
2.095000E-8	0.000172
2.100000E-8	0.000828
2.105000E-8	0.001492
2.110000E-8	0.002688
2.115000E-8	0.003359
2.120000E-8	0.004289
2.125000E-8	0.005172
2.130000E-8	0.005719
2.135000E-8	0.006102
2.140000E-8	0.006656
2.145000E-8	0.006531
2.150000E-8	0.006484
2.155000E-8	0.006289
2.160000E-8	0.005859
2.165000E-8	0.005148
2.170000E-8	0.004297
2.175000E-8	0.003711
2.180000E-8	0.003023
2.185000E-8	0.002352
2.190000E-8	0.001563
2.195000E-8	0.000977
2.200000E-8	0.000227
2.205000E-8	1.562500E-5
2.210000E-8	-0.000172
2.215000E-8	-8.593750E-5
2.220000E-8	-0.000141
2.225000E-8	0.000250
2.230000E-8	0.000836
2.235000E-8	0.001477
2.240000E-8	0.002164
2.245000E-8	0.002875
2.250000E-8	0.003734
2.255000E-8	0.004500
2.260000E-8	0.005117
2.265000E-8	0.005734
2.270000E-8	0.006078
2.275000E-8	0.006273
2.280000E-8	0.006320
2.285000E-8	0.006117
2.290000E-8	0.005805
2.295000E-8	0.005352
2.300000E-8	0.004727
2.305000E-8	0.003828
2.310000E-8	0.003047
2.315000E-8	0.002258
2.320000E-8	0.001492
2.325000E-8	0.000703
2.330000E-8	0.000125
2.335000E-8	-0.000211
2.340000E-8	-0.000469
2.345000E-8	-0.000391
2.350000E-8	-0.000305
2.355000E-8	-7.031250E-5
2.360000E-8	0.000539
2.365000E-8	0.001414
2.370000E-8	0.002125
2.375000E-8	0.002977
2.380000E-8	0.003773
2.385000E-8	0.004766
2.390000E-8	0.005398
2.395000E-8	0.006000
2.400000E-8	0.006344
2.405000E-8	0.006414
2.410000E-8	0.006188
2.415000E-8	0.006016
2.420000E-8	0.005773
2.425000E-8	0.005273
2.430000E-8	0.004641
2.435000E-8	0.003742
2.440000E-8	0.003000
2.445000E-8	0.002141
2.450000E-8	0.001578
2.455000E-8	0.000711
2.460000E-8	0.000211
2.465000E-8	-0.000102
2.470000E-8	-0.000484
2.475000E-8	-0.000336
2.480000E-8	-0.000172
2.485000E-8	7.031250E-5
2.490000E-8	0.000375
2.495000E-8	0.001203
2.500000E-8	0.001766
2.505000E-8	0.002539
2.510000E-8	0.003375
2.515000E-8	0.003883
2.520000E-8	0.004453
2.525000E-8	0.005250
2.530000E-8	0.005602
2.535000E-8	0.005984
2.540000E-8	0.006141
2.545000E-8	0.005961
2.550000E-8	0.005945
2.555000E-8	0.005445
2.560000E-8	0.004687
2.565000E-8	0.004141
2.570000E-8	0.003391
2.575000E-8	0.002641
2.580000E-8	0.001969
2.585000E-8	0.001211
2.590000E-8	0.000672
2.595000E-8	0.000156
2.600000E-8	-7.812500E-6
2.605000E-8	-0.000156
2.610000E-8	-0.000164
2.615000E-8	0.000242
2.620000E-8	0.000508
2.625000E-8	0.001070
2.630000E-8	0.001625
2.635000E-8	0.002305
2.640000E-8	0.003086
2.645000E-8	0.004008
2.650000E-8	0.004719
2.655000E-8	0.005242
2.660000E-8	0.005789
2.665000E-8	0.006234
2.670000E-8	0.006180
2.675000E-8	0.006164
2.680000E-8	0.005719
2.685000E-8	0.005188
2.690000E-8	0.004445
2.695000E-8	0.003781
2.700000E-8	0.002961
2.705000E-8	0.002211
2.710000E-8	0.001320
2.715000E-8	0.000656
2.720000E-8	0.000109
2.725000E-8	-0.000109
2.730000E-8	-0.000305
2.735000E-8	-0.000414
2.740000E-8	-0.000289
2.745000E-8	-8.593750E-5
2.750000E-8	0.000484
2.755000E-8	0.001141
2.760000E-8	0.001844
2.765000E-8	0.002531
2.770000E-8	0.003477
2.775000E-8	0.004227
2.780000E-8	0.004859
2.785000E-8	0.005484
2.790000E-8	0.005844
2.795000E-8	0.006211
2.800000E-8	0.006250
2.805000E-8	0.006086
2.810000E-8	0.005938
2.815000E-8	0.005320
2.820000E-8	0.004547
2.825000E-8	0.004000
2.830000E-8	0.003195
2.835000E-8	0.002430
2.840000E-8	0.001516
2.845000E-8	0.001047
2.850000E-8	0.000508
2.855000E-8	0.000195
2.860000E-8	-0.000109
2.865000E-8	-0.000359
2.870000E-8	-0.000172
2.875000E-8	0.000125
2.880000E-8	0.000664
2.885000E-8	0.001133
2.890000E-8	0.001625
2.895000E-8	0.002633
2.900000E-8	0.003219
2.905000E-8	0.003812
2.910000E-8	0.004500
2.915000E-8	0.005023
2.920000E-8	0.005375
2.925000E-8	0.005367
2.930000E-8	0.005680
2.935000E-8	0.005352
2.940000E-8	0.005016
2.945000E-8	0.004641
2.950000E-8	0.004125
2.955000E-8	0.003336
2.960000E-8	0.003023
2.965000E-8	0.002242
2.970000E-8	0.001516
2.975000E-8	0.001086
2.980000E-8	0.000617
2.985000E-8	0.000156
2.990000E-8	-7.031250E-5
2.995000E-8	3.125000E-5
3.000000E-8	-0.000117
3.005000E-8	0.000117
3.010000E-8	0.000602
3.015000E-8	0.000906
3.020000E-8	0.001477
3.025000E-8	0.001883
3.030000E-8	0.002563
3.035000E-8	0.003328
3.040000E-8	0.003859
3.045000E-8	0.004398
3.050000E-8	0.005023
3.055000E-8	0.005422
3.060000E-8	0.005398
3.065000E-8	0.005492
3.070000E-8	0.005367
3.075000E-8	0.004922
3.080000E-8	0.004445
3.085000E-8	0.003797
3.090000E-8	0.003164
3.095000E-8	0.002469
3.100000E-8	0.001906
3.105000E-8	0.001547
3.110000E-8	0.001047
3.115000E-8	0.000797
3.120000E-8	0.000445
3.125000E-8	0.000422
3.130000E-8	0.000680
3.135000E-8	0.000789
3.140000E-8	0.001086
3.145000E-8	0.001352
3.150000E-8	0.002047
3.155000E-8	0.002430
3.160000E-8	0.003086
3.165000E-8	0.003648
3.170000E-8	0.004180
3.175000E-8	0.004820
3.180000E-8	0.005281
3.185000E-8	0.005562
3.190000E-8	0.005547
3.195000E-8	0.005633
3.200000E-8	0.005766
3.205000E-8	0.005211
3.210000E-8	0.004828
3.215000E-8	0.004484
3.220000E-8	0.003859
3.225000E-8	0.003188
3.230000E-8	0.002641
3.235000E-8	0.002328
3.240000E-8	0.001781
3.245000E-8	0.001234
3.250000E-8	0.000797
3.255000E-8	0.000406
3.260000E-8	0.000422
3.265000E-8	0.000336
3.270000E-8	0.000586
3.275000E-8	0.000805
3.280000E-8	0.001180
3.285000E-8	0.001609
3.290000E-8	0.002219
3.295000E-8	0.002891
3.300000E-8	0.003453
3.305000E-8	0.004125
3.310000E-8	0.004586
3.315000E-8	0.005039
3.320000E-8	0.005297
3.325000E-8	0.005359
3.330000E-8	0.005406
3.335000E-8	0.005164
3.340000E-8	0.004727
3.345000E-8	0.004313
3.350000E-8	0.003750
3.355000E-8	0.003297
3.360000E-8	0.002648
3.365000E-8	0.002242
3.370000E-8	0.001445
3.375000E-8	0.001164
3.380000E-8	0.000578
3.385000E-8	0.000305
3.390000E-8	0.000164
3.395000E-8	0.000273
3.400000E-8	0.000258
3.405000E-8	0.000555
3.410000E-8	0.000961
3.415000E-8	0.001484
3.420000E-8	0.001820
3.425000E-8	0.002688
3.430000E-8	0.003094
3.435000E-8	0.003844
3.440000E-8	0.004156
3.445000E-8	0.004742
3.450000E-8	0.005172
3.455000E-8	0.005250
3.460000E-8	0.005320
3.465000E-8	0.005180
3.470000E-8	0.004820
3.475000E-8	0.004523
3.480000E-8	0.004047
3.485000E-8	0.003633
3.490000E-8	0.003016
3.495000E-8	0.002523
3.500000E-8	0.001992
3.505000E-8	0.001266
3.510000E-8	0.000867
3.515000E-8	0.000656
3.520000E-8	0.000406
3.525000E-8	0.000313
3.530000E-8	0.000453
3.535000E-8	0.000648
3.540000E-8	0.000992
3.545000E-8	0.001539
3.550000E-8	0.002219
3.555000E-8	0.003008
3.560000E-8	0.003594
3.565000E-8	0.004047
3.570000E-8	0.004570
3.575000E-8	0.004977
3.580000E-8	0.005156
3.585000E-8	0.005500
3.590000E-8	0.005547
3.595000E-8	0.005641
3.600000E-8	0.005453
3.605000E-8	0.004992
3.610000E-8	0.004383
3.615000E-8	0.003977
3.620000E-8	0.003180
3.625000E-8	0.002531
3.630000E-8	0.002086
3.635000E-8	0.001453
3.640000E-8	0.000937
3.645000E-8	0.000609
3.650000E-8	0.000492
3.655000E-8	0.000320
3.660000E-8	0.000539
3.665000E-8	0.000867
3.670000E-8	0.001320
3.675000E-8	0.001875
3.680000E-8	0.002422
3.685000E-8	0.002664
3.690000E-8	0.003273
3.695000E-8	0.003805
3.700000E-8	0.004102
3.705000E-8	0.004602
3.710000E-8	0.004523
3.715000E-8	0.004844
3.720000E-8	0.004852
3.725000E-8	0.004750
3.730000E-8	0.004461
3.735000E-8	0.004328
3.740000E-8	0.003789
3.745000E-8	0.003383
3.750000E-8	0.002617
3.755000E-8	0.002531
3.760000E-8	0.001828
3.765000E-8	0.001453
3.770000E-8	0.001086
3.775000E-8	0.000984
3.780000E-8	0.000594
3.785000E-8	0.000859
3.790000E-8	0.000961
3.795000E-8	0.001336
3.800000E-8	0.001484
3.805000E-8	0.001984
3.810000E-8	0.002344
3.815000E-8	0.002945
3.820000E-8	0.003258
3.825000E-8	0.003883
3.830000E-8	0.004172
3.835000E-8	0.004664
3.840000E-8	0.004828
3.845000E-8	0.004727
3.850000E-8	0.004758
3.855000E-8	0.004687
3.860000E-8	0.004211
3.865000E-8	0.004008
3.870000E-8	0.003656
3.875000E-8	0.003172
3.880000E-8	0.002734
3.885000E-8	0.002078
3.890000E-8	0.001609
3.895000E-8	0.001422
3.900000E-8	0.000875
3.905000E-8	0.000680
3.910000E-8	0.000406
3.915000E-8	0.000414
3.920000E-8	0.000430
3.925000E-8	0.000680
3.930000E-8	0.000875
3.935000E-8	0.001547
3.940000E-8	0.002055
3.945000E-8	0.002617
3.950000E-8	0.003250
3.955000E-8	0.003773
3.960000E-8	0.004102
3.965000E-8	0.004328
3.970000E-8	0.004648
3.975000E-8	0.004961
3.980000E-8	0.004852
3.985000E-8	0.005000
3.990000E-8	0.004711
3.995000E-8	0.004328
4.000000E-8	0.003898
4.005000E-8	0.003664
4.010000E-8	0.003141
4.015000E-8	0.002742
4.020000E-8	0.002445
4.025000E-8	0.001992
4.030000E-8	0.001523
4.035000E-8	0.001109
4.040000E-8	0.000813
4.045000E-8	0.000906
4.050000E-8	0.001070
4.055000E-8	0.001273
4.060000E-8	0.001273
4.065000E-8	0.001617
4.070000E-8	0.002023
4.075000E-8	0.002359
4.080000E-8	0.002711
4.085000E-8	0.003164
4.090000E-8	0.003695
4.095000E-8	0.003836
4.100000E-8	0.004227
4.105000E-8	0.004398
4.110000E-8	0.004523
4.115000E-8	0.004500
4.120000E-8	0.004461
4.125000E-8	0.004227
4.130000E-8	0.004047
4.135000E-8	0.003609
4.140000E-8	0.003156
4.145000E-8	0.002609
4.150000E-8	0.002180
4.155000E-8	0.001766
4.160000E-8	0.001359
4.165000E-8	0.001047
4.170000E-8	0.000883
4.175000E-8	0.000977
4.180000E-8	0.000820
4.185000E-8	0.001039
4.190000E-8	0.001180
4.195000E-8	0.001484
4.200000E-8	0.001891
4.205000E-8	0.002328
4.210000E-8	0.002688
4.215000E-8	0.003039
4.220000E-8	0.003328
4.225000E-8	0.003867
4.230000E-8	0.003977
4.235000E-8	0.004352
4.240000E-8	0.004320
4.245000E-8	0.004234
4.250000E-8	0.004273
4.255000E-8	0.004148
4.260000E-8	0.003742
4.265000E-8	0.003344
4.270000E-8	0.003008
4.275000E-8	0.002492
4.280000E-8	0.002156
4.285000E-8	0.001805
4.290000E-8	0.001375
4.295000E-8	0.001086
4.300000E-8	0.000836
4.305000E-8	0.000883
4.310000E-8	0.000867
4.315000E-8	0.000789
4.320000E-8	0.000852
4.325000E-8	0.001273
4.330000E-8	0.001695
4.335000E-8	0.002000
4.340000E-8	0.002188
4.345000E-8	0.002695
4.350000E-8	0.003125
4.355000E-8	0.003633
4.360000E-8	0.003727
4.365000E-8	0.004234
4.370000E-8	0.004242
4.375000E-8	0.004281
4.380000E-8	0.004289
4.385000E-8	0.004133
4.390000E-8	0.003906
4.395000E-8	0.003781
4.400000E-8	0.003367
4.405000E-8	0.003031
4.410000E-8	0.002359
4.415000E-8	0.002000
4.420000E-8	0.001570
4.425000E-8	0.001234
4.430000E-8	0.000992
4.435000E-8	0.000930
4.440000E-8	0.000766
4.445000E-8	0.000852
4.450000E-8	0.000930
4.455000E-8	0.001367
4.460000E-8	0.001820
4.465000E-8	0.002320
4.470000E-8	0.002609
4.475000E-8	0.003102
4.480000E-8	0.003445
4.485000E-8	0.003727
4.490000E-8	0.004078
4.495000E-8	0.004195
4.500000E-8	0.004500
4.505000E-8	0.004492
4.510000E-8	0.004234
4.515000E-8	0.004133
4.520000E-8	0.003680
4.525000E-8	0.003539
4.530000E-8	0.003266
4.535000E-8	0.003070
4.540000E-8	0.002523
4.545000E-8	0.002328
4.550000E-8	0.002055
4.555000E-8	0.001789
4.560000E-8	0.001445
4.565000E-8	0.001508
4.570000E-8	0.001367
4.575000E-8	0.001477
4.580000E-8	0.001500
4.585000E-8	0.001563
4.590000E-8	0.001992
4.595000E-8	0.002305
4.600000E-8	0.002648
4.605000E-8	0.002883
4.610000E-8	0.003109
4.615000E-8	0.003695
4.620000E-8	0.004023
4.625000E-8	0.004227
4.630000E-8	0.004602
4.635000E-8	0.004664
4.640000E-8	0.004789
4.645000E-8	0.004445
4.650000E-8	0.004203
4.655000E-8	0.004070
4.660000E-8	0.003656
4.665000E-8	0.003117
4.670000E-8	0.002727
4.675000E-8	0.002461
4.680000E-8	0.001828
4.685000E-8	0.001508
4.690000E-8	0.001336
4.695000E-8	0.001336
4.700000E-8	0.001250
4.705000E-8	0.001336
4.710000E-8	0.001414
4.715000E-8	0.001594
4.720000E-8	0.001937
4.725000E-8	0.002188
4.730000E-8	0.002547
4.735000E-8	0.002891
4.740000E-8	0.003148
4.745000E-8	0.003617
4.750000E-8	0.003875
4.755000E-8	0.004148
4.760000E-8	0.004289
4.765000E-8	0.004406
4.770000E-8	0.004422
4.775000E-8	0.004195
4.780000E-8	0.003961
4.785000E-8	0.003867
4.790000E-8	0.003258
4.795000E-8	0.002891
4.800000E-8	0.002336
4.805000E-8	0.001797
4.810000E-8	0.001398
4.815000E-8	0.001258
4.820000E-8	0.001047
4.825000E-8	0.000914
4.830000E-8	0.000836
4.835000E-8	0.000867
4.840000E-8	0.000953
4.845000E-8	0.001016
4.850000E-8	0.001305
4.855000E-8	0.001766
4.860000E-8	0.002219
4.865000E-8	0.002656
4.870000E-8	0.003023
4.875000E-8	0.003312
4.880000E-8	0.003750
4.885000E-8	0.003883
4.890000E-8	0.004172
4.895000E-8	0.004344
4.900000E-8	0.004469
4.905000E-8	0.004344
4.910000E-8	0.004164
4.915000E-8	0.003984
4.920000E-8	0.003539
4.925000E-8	0.003352
4.930000E-8	0.003102
4.935000E-8	0.002570
4.940000E-8	0.002320
4.945000E-8	0.002000
4.950000E-8	0.001617
4.955000E-8	0.001844
4.960000E-8	0.001484
4.965000E-8	0.001586
4.970000E-8	0.001641
4.975000E-8	0.001687
4.980000E-8	0.001852
4.985000E-8	0.001922
4.990000E-8	0.002203
4.995000E-8	0.002602
5.000000E-8	0.002797
5.005000E-8	0.003297
5.010000E-8	0.003469
5.015000E-8	0.003656
5.020000E-8	0.003695
5.025000E-8	0.003938
5.030000E-8	0.004039
5.035000E-8	0.003953
5.040000E-8	0.004047
5.045000E-8	0.003820
5.050000E-8	0.003344
5.055000E-8	0.003125
5.060000E-8	0.002797
5.065000E-8	0.002328
5.070000E-8	0.002055
5.075000E-8	0.001914
5.080000E-8	0.001453
5.085000E-8	0.001414
5.090000E-8	0.001391
5.095000E-8	0.001492
5.100000E-8	0.001242
5.105000E-8	0.001492
5.110000E-8	0.001414
5.115000E-8	0.001570
5.120000E-8	0.001625
5.125000E-8	0.001914
5.130000E-8	0.002148
5.135000E-8	0.002609
5.140000E-8	0.002953
5.145000E-8	0.003203
5.150000E-8	0.003430
5.155000E-8	0.003586
5.160000E-8	0.003563
5.165000E-8	0.003703
5.170000E-8	0.003758
5.175000E-8	0.003531
5.180000E-8	0.003406
5.185000E-8	0.003031
5.190000E-8	0.002773
5.195000E-8	0.002383
5.200000E-8	0.002219
5.205000E-8	0.001633
5.210000E-8	0.001547
5.215000E-8	0.001547
5.220000E-8	0.001430
5.225000E-8	0.001484
5.230000E-8	0.001766
5.235000E-8	0.001594
5.240000E-8	0.001727
5.245000E-8	0.001969
5.250000E-8	0.002195
5.255000E-8	0.002492
5.260000E-8	0.002719
5.265000E-8	0.003047
5.270000E-8	0.003305
5.275000E-8	0.003383
5.280000E-8	0.003656
5.285000E-8	0.003469
5.290000E-8	0.003633
5.295000E-8	0.003719
5.300000E-8	0.003680
5.305000E-8	0.003609
5.310000E-8	0.003328
5.315000E-8	0.003172
5.320000E-8	0.003031
5.325000E-8	0.002648
5.330000E-8	0.002227
5.335000E-8	0.002078
5.340000E-8	0.001828
5.345000E-8	0.001602
5.350000E-8	0.001422
5.355000E-8	0.001508
5.360000E-8	0.001672
5.365000E-8	0.001586
5.370000E-8	0.001711
5.375000E-8	0.001859
5.380000E-8	0.002250
5.385000E-8	0.002469
5.390000E-8	0.002938
5.395000E-8	0.003375
5.400000E-8	0.003461
5.405000E-8	0.003742
5.410000E-8	0.003883
5.415000E-8	0.004180
5.420000E-8	0.003992
5.425000E-8	0.004078
5.430000E-8	0.003984
5.435000E-8	0.003672
5.440000E-8	0.003453
5.445000E-8	0.003094
5.450000E-8	0.002680
5.455000E-8	0.002477
5.460000E-8	0.002180
5.465000E-8	0.002094
5.470000E-8	0.001969
5.475000E-8	0.001773
5.480000E-8	0.001578
5.485000E-8	0.001539
5.490000E-8	0.001531
5.495000E-8	0.001609
5.500000E-8	0.001813
5.505000E-8	0.001930
5.510000E-8	0.002141
5.515000E-8	0.002430
5.520000E-8	0.002828
5.525000E-8	0.002914
5.530000E-8	0.003102
5.535000E-8	0.003453
5.540000E-8	0.003648
5.545000E-8	0.003656
5.550000E-8	0.003789
5.555000E-8	0.003734
5.560000E-8	0.003547
5.565000E-8	0.003305
5.570000E-8	0.003117
5.575000E-8	0.003180
5.580000E-8	0.002992
5.585000E-8	0.002664
5.590000E-8	0.002234
5.595000E-8	0.001883
5.600000E-8	0.001539
5.605000E-8	0.001367
5.610000E-8	0.001352
5.615000E-8	0.001422
5.620000E-8	0.001344
5.625000E-8	0.001523
5.630000E-8	0.001930
5.635000E-8	0.002125
5.640000E-8	0.002648
5.645000E-8	0.002898
5.650000E-8	0.003063
5.655000E-8	0.003242
5.660000E-8	0.003445
5.665000E-8	0.003672
5.670000E-8	0.003617
5.675000E-8	0.003633
5.680000E-8	0.003609
5.685000E-8	0.003672
5.690000E-8	0.003508
5.695000E-8	0.003414
5.700000E-8	0.003438
5.705000E-8	0.003289
5.710000E-8	0.003102
5.715000E-8	0.002789
5.720000E-8	0.002523
5.725000E-8	0.002367
5.730000E-8	0.002047
5.735000E-8	0.001898
5.740000E-8	0.001625
5.745000E-8	0.001391
5.750000E-8	0.001531
5.755000E-8	0.001641
5.760000E-8	0.001500
5.765000E-8	0.001492
5.770000E-8	0.001875
5.775000E-8	0.002031
5.780000E-8	0.002234
5.785000E-8	0.002492
5.790000E-8	0.002969
5.795000E-8	0.003141
5.800000E-8	0.003312
5.805000E-8	0.003672
5.810000E-8	0.003633
5.815000E-8	0.003820
5.820000E-8	0.003641
5.825000E-8	0.003430
5.830000E-8	0.003063
5.835000E-8	0.002930
5.840000E-8	0.002453
5.845000E-8	0.002211
5.850000E-8	0.001992
5.855000E-8	0.001977
5.860000E-8	0.001797
5.865000E-8	0.001672
5.870000E-8	0.001734
5.875000E-8	0.001977
5.880000E-8	0.001813
5.885000E-8	0.002008
5.890000E-8	0.001969
5.895000E-8	0.002172
5.900000E-8	0.002164
5.905000E-8	0.002414
5.910000E-8	0.002437
5.915000E-8	0.002812
5.920000E-8	0.002750
5.925000E-8	0.002914
5.930000E-8	0.002953
5.935000E-8	0.003164
5.940000E-8	0.003172
5.945000E-8	0.003461
5.950000E-8	0.003438
5.955000E-8	0.003328
5.960000E-8	0.003227
5.965000E-8	0.003273
5.970000E-8	0.003016
5.975000E-8	0.002820
5.980000E-8	0.002875
5.985000E-8	0.002570
5.990000E-8	0.002227
5.995000E-8	0.002102
6.000000E-8	0.002109
6.005000E-8	0.002063
6.010000E-8	0.001906
6.015000E-8	0.001914
6.020000E-8	0.001977
6.025000E-8	0.001906
6.030000E-8	0.002273
6.035000E-8	0.002375
6.040000E-8	0.002727
6.045000E-8	0.003109
6.050000E-8	0.003273
6.055000E-8	0.003594
6.060000E-8	0.003711
6.065000E-8	0.003805
6.070000E-8	0.003805
6.075000E-8	0.003953
6.080000E-8	0.003750
6.085000E-8	0.003664
6.090000E-8	0.003555
6.095000E-8	0.003656
6.100000E-8	0.003703
6.105000E-8	0.003422
6.110000E-8	0.003016
6.115000E-8	0.002719
6.120000E-8	0.002523
6.125000E-8	0.002227
6.130000E-8	0.002125
6.135000E-8	0.001984
6.140000E-8	0.001836
6.145000E-8	0.001883
6.150000E-8	0.001805
6.155000E-8	0.001953
6.160000E-8	0.001977
6.165000E-8	0.002117
6.170000E-8	0.002430
6.175000E-8	0.002625
6.180000E-8	0.002992
6.185000E-8	0.003031
6.190000E-8	0.003109
6.195000E-8	0.003203
6.200000E-8	0.003117
6.205000E-8	0.003305
6.210000E-8	0.003289
6.215000E-8	0.003406
6.220000E-8	0.003359
6.225000E-8	0.003359
6.230000E-8	0.003305
6.235000E-8	0.003164
6.240000E-8	0.002961
6.245000E-8	0.002586
6.250000E-8	0.002484
6.255000E-8	0.002328
6.260000E-8	0.002156
6.265000E-8	0.002188
6.270000E-8	0.002133
6.275000E-8	0.001953
6.280000E-8	0.002070
6.285000E-8	0.002250
6.290000E-8	0.002359
6.295000E-8	0.002586
6.300000E-8	0.002617
6.305000E-8	0.002789
6.310000E-8	0.002805
6.315000E-8	0.003039
6.320000E-8	0.003086
6.325000E-8	0.003125
6.330000E-8	0.003297
6.335000E-8	0.003492
6.340000E-8	0.003609
6.345000E-8	0.003602
6.350000E-8	0.003750
6.355000E-8	0.003625
6.360000E-8	0.003305
6.365000E-8	0.003109
6.370000E-8	0.002805
6.375000E-8	0.002617
6.380000E-8	0.002445
6.385000E-8	0.002516
6.390000E-8	0.002117
6.395000E-8	0.002234
6.400000E-8	0.002211
6.405000E-8	0.002461
6.410000E-8	0.002422
6.415000E-8	0.002695
6.420000E-8	0.002453
6.425000E-8	0.002633
6.430000E-8	0.002680
6.435000E-8	0.002789
6.440000E-8	0.002859
6.445000E-8	0.002922
6.450000E-8	0.003070
6.455000E-8	0.003281
6.460000E-8	0.003219
6.465000E-8	0.003375
6.470000E-8	0.003445
6.475000E-8	0.003602
6.480000E-8	0.003531
6.485000E-8	0.003484
6.490000E-8	0.003305
6.495000E-8	0.003445
6.500000E-8	0.003031
6.505000E-8	0.002797
6.510000E-8	0.002680
6.515000E-8	0.002289
6.520000E-8	0.002172
6.525000E-8	0.002078
6.530000E-8	0.001898
6.535000E-8	0.001859
6.540000E-8	0.001937
6.545000E-8	0.001969
6.550000E-8	0.002063
6.555000E-8	0.002297
6.560000E-8	0.002508
6.565000E-8	0.002781
6.570000E-8	0.002938
6.575000E-8	0.003258
6.580000E-8	0.003344
6.585000E-8	0.003461
6.590000E-8	0.003633
6.595000E-8	0.003797
6.600000E-8	0.003805
6.605000E-8	0.003836
6.610000E-8	0.003773
6.615000E-8	0.003625
6.620000E-8	0.003516
6.625000E-8	0.003211
6.630000E-8	0.003078
6.635000E-8	0.002922
6.640000E-8	0.002742
6.645000E-8	0.002422
6.650000E-8	0.002125
6.655000E-8	0.002305
6.660000E-8	0.002063
6.665000E-8	0.001969
6.670000E-8	0.001953
6.675000E-8	0.002102
6.680000E-8	0.002055
6.685000E-8	0.002188
6.690000E-8	0.002234
6.695000E-8	0.002594
6.700000E-8	0.002672
6.705000E-8	0.002953
6.710000E-8	0.003063
6.715000E-8	0.003047
6.720000E-8	0.003086
6.725000E-8	0.003211
6.730000E-8	0.003469
6.735000E-8	0.003305
6.740000E-8	0.003539
6.745000E-8	0.003563
6.750000E-8	0.003547
6.755000E-8	0.003375
6.760000E-8	0.003242
6.765000E-8	0.003078
6.770000E-8	0.002820
6.775000E-8	0.002797
6.780000E-8	0.002391
6.785000E-8	0.002391
6.790000E-8	0.002367
6.795000E-8	0.002242
6.800000E-8	0.002242
6.805000E-8	0.002148
6.810000E-8	0.002305
6.815000E-8	0.002508
6.820000E-8	0.002422
6.825000E-8	0.002508
6.830000E-8	0.002672
6.835000E-8	0.002641
6.840000E-8	0.002867
6.845000E-8	0.002961
6.850000E-8	0.003023
6.855000E-8	0.003008
6.860000E-8	0.003367
6.865000E-8	0.003156
6.870000E-8	0.003258
6.875000E-8	0.003180
6.880000E-8	0.003266
6.885000E-8	0.003148
6.890000E-8	0.002938
6.895000E-8	0.002938
6.900000E-8	0.002836
6.905000E-8	0.002617
6.910000E-8	0.002547
6.915000E-8	0.002391
6.920000E-8	0.002336
6.925000E-8	0.002070
6.930000E-8	0.002063
6.935000E-8	0.002219
6.940000E-8	0.002117
6.945000E-8	0.002156
6.950000E-8	0.002125
6.955000E-8	0.002320
6.960000E-8	0.002617
6.965000E-8	0.002688
6.970000E-8	0.002805
6.975000E-8	0.003008
6.980000E-8	0.002883
6.985000E-8	0.003219
6.990000E-8	0.003461
6.995000E-8	0.003312
7.000000E-8	0.003312
7.005000E-8	0.003188
7.010000E-8	0.003414
7.015000E-8	0.003109
7.020000E-8	0.002859
7.025000E-8	0.002750
7.030000E-8	0.002406
7.035000E-8	0.002352
7.040000E-8	0.002125
7.045000E-8	0.002031
7.050000E-8	0.002047
7.055000E-8	0.002242
7.060000E-8	0.002180
7.065000E-8	0.002195
7.070000E-8	0.002398
7.075000E-8	0.002633
7.080000E-8	0.002820
7.085000E-8	0.002914
7.090000E-8	0.002906
7.095000E-8	0.002977
7.100000E-8	0.002969
7.105000E-8	0.003008
7.110000E-8	0.003094
7.115000E-8	0.003156
7.120000E-8	0.003273
7.125000E-8	0.003211
7.130000E-8	0.003320
7.135000E-8	0.003125
7.140000E-8	0.003148
7.145000E-8	0.002969
7.150000E-8	0.002758
7.155000E-8	0.002797
7.160000E-8	0.002734
7.165000E-8	0.002688
7.170000E-8	0.002641
7.175000E-8	0.002437
7.180000E-8	0.002469
7.185000E-8	0.002406
7.190000E-8	0.002453
7.195000E-8	0.002367
7.200000E-8	0.002430
7.205000E-8	0.002547
7.210000E-8	0.002508
7.215000E-8	0.002758
7.220000E-8	0.002969
7.225000E-8	0.003008
7.230000E-8	0.003008
7.235000E-8	0.003023
7.240000E-8	0.003156
7.245000E-8	0.003328
7.250000E-8	0.003305
7.255000E-8	0.003188
7.260000E-8	0.003320
7.265000E-8	0.003109
7.270000E-8	0.002914
7.275000E-8	0.002953
7.280000E-8	0.002695
7.285000E-8	0.002734
7.290000E-8	0.002555
7.295000E-8	0.002594
7.300000E-8	0.002594
7.305000E-8	0.002750
7.310000E-8	0.002563
7.315000E-8	0.002352
7.320000E-8	0.002312
7.325000E-8	0.002297
7.330000E-8	0.002266
7.335000E-8	0.002242
7.340000E-8	0.002461
7.345000E-8	0.002719
7.350000E-8	0.002461
7.355000E-8	0.002703
7.360000E-8	0.002828
7.365000E-8	0.002688
7.370000E-8	0.002820
7.375000E-8	0.002836
7.380000E-8	0.003031
7.385000E-8	0.003078
7.390000E-8	0.003008
7.395000E-8	0.003063
7.400000E-8	0.002891
7.405000E-8	0.002898
7.410000E-8	0.002641
7.415000E-8	0.002688
7.420000E-8	0.002625
7.425000E-8	0.002594
7.430000E-8	0.002336
7.435000E-8	0.002516
7.440000E-8	0.002523
7.445000E-8	0.002547
7.450000E-8	0.002453
7.455000E-8	0.002547
7.460000E-8	0.002352
7.465000E-8	0.002539
7.470000E-8	0.002437
7.475000E-8	0.002406
7.480000E-8	0.002406
7.485000E-8	0.002414
7.490000E-8	0.002266
7.495000E-8	0.002375
7.500000E-8	0.002672
7.505000E-8	0.002820
7.510000E-8	0.003094
7.515000E-8	0.003391
7.520000E-8	0.003211
7.525000E-8	0.003250
7.530000E-8	0.003148
7.535000E-8	0.003344
7.540000E-8	0.003336
7.545000E-8	0.003328
7.550000E-8	0.003180
7.555000E-8	0.003195
7.560000E-8	0.002828
7.565000E-8	0.002711
7.570000E-8	0.002422
7.575000E-8	0.002219
7.580000E-8	0.002336
7.585000E-8	0.002234
7.590000E-8	0.002063
7.595000E-8	0.002117
7.600000E-8	0.002250
7.605000E-8	0.002344
7.610000E-8	0.002461
7.615000E-8	0.002477
7.620000E-8	0.002852
7.625000E-8	0.003078
7.630000E-8	0.003203
7.635000E-8	0.003305
7.640000E-8	0.003500
7.645000E-8	0.003391
7.650000E-8	0.003438
7.655000E-8	0.003336
7.660000E-8	0.003445
7.665000E-8	0.003320
7.670000E-8	0.003289
7.675000E-8	0.003164
7.680000E-8	0.002789
7.685000E-8	0.002820
7.690000E-8	0.002781
7.695000E-8	0.002563
7.700000E-8	0.002281
7.705000E-8	0.002234
7.710000E-8	0.002297
7.715000E-8	0.002203
7.720000E-8	0.001977
7.725000E-8	0.002148
7.730000E-8	0.002320
7.735000E-8	0.002453
7.740000E-8	0.002469
7.745000E-8	0.002789
7.750000E-8	0.002883
7.755000E-8	0.003219
7.760000E-8	0.003312
7.765000E-8	0.003289
7.770000E-8	0.003094
7.775000E-8	0.003406
7.780000E-8	0.003250
7.785000E-8	0.003164
7.790000E-8	0.002938
7.795000E-8	0.002812
7.800000E-8	0.002625
7.805000E-8	0.002703
7.810000E-8	0.002563
7.815000E-8	0.002508
7.820000E-8	0.002328
7.825000E-8	0.002250
7.830000E-8	0.002258
7.835000E-8	0.002211
7.840000E-8	0.002234
7.845000E-8	0.001961
7.850000E-8	0.002055
7.855000E-8	0.002250
7.860000E-8	0.002320
7.865000E-8	0.002406
7.870000E-8	0.002445
7.875000E-8	0.002766
7.880000E-8	0.002406
7.885000E-8	0.002844
7.890000E-8	0.002844
7.895000E-8	0.003141
7.900000E-8	0.003242
7.905000E-8	0.003117
7.910000E-8	0.003234
7.915000E-8	0.003180
7.920000E-8	0.003094
7.925000E-8	0.003172
7.930000E-8	0.003172
7.935000E-8	0.003039
7.940000E-8	0.002961
7.945000E-8	0.002797
7.950000E-8	0.002758
7.955000E-8	0.002641
7.960000E-8	0.002508
7.965000E-8	0.002547
7.970000E-8	0.002633
7.975000E-8	0.002578
7.980000E-8	0.002680
7.985000E-8	0.002766
7.990000E-8	0.002664
7.995000E-8	0.002789
8.000000E-8	0.002836
8.005000E-8	0.002898
8.010000E-8	0.002859
8.015000E-8	0.003328
8.020000E-8	0.003117
8.025000E-8	0.003359
8.030000E-8	0.003180
8.035000E-8	0.003086
8.040000E-8	0.003242
8.045000E-8	0.003117
8.050000E-8	0.003047
8.055000E-8	0.002898
8.060000E-8	0.002703
8.065000E-8	0.002805
8.070000E-8	0.002594
8.075000E-8	0.002563
8.080000E-8	0.002305
8.085000E-8	0.002242
8.090000E-8	0.002070
8.095000E-8	0.002148
8.100000E-8	0.002336
8.105000E-8	0.002461
8.110000E-8	0.002570
8.115000E-8	0.002461
8.120000E-8	0.002531
8.125000E-8	0.002641
8.130000E-8	0.002625
8.135000E-8	0.002938
8.140000E-8	0.002961
8.145000E-8	0.002922
8.150000E-8	0.002984
8.155000E-8	0.003133
8.160000E-8	0.003172
8.165000E-8	0.003211
8.170000E-8	0.003055
8.175000E-8	0.003133
8.180000E-8	0.002820
8.185000E-8	0.002852
8.190000E-8	0.002680
8.195000E-8	0.002430
8.200000E-8	0.002414
8.205000E-8	0.002375
8.210000E-8	0.002320
8.215000E-8	0.002359
8.220000E-8	0.002328
8.225000E-8	0.002500
8.230000E-8	0.002586
8.235000E-8	0.002719
8.240000E-8	0.002734
8.245000E-8	0.002711
8.250000E-8	0.002867
8.255000E-8	0.003055
8.260000E-8	0.003000
8.265000E-8	0.003047
8.270000E-8	0.003016
8.275000E-8	0.002953
8.280000E-8	0.002883
8.285000E-8	0.002797
8.290000E-8	0.002805
8.295000E-8	0.003031
8.300000E-8	0.003016
8.305000E-8	0.002930
8.310000E-8	0.002844
8.315000E-8	0.003023
8.320000E-8	0.002898
8.325000E-8	0.002906
8.330000E-8	0.002719
8.335000E-8	0.002734
8.340000E-8	0.002492
8.345000E-8	0.002523
8.350000E-8	0.002500
8.355000E-8	0.002453
8.360000E-8	0.002281
8.365000E-8	0.002328
8.370000E-8	0.002117
8.375000E-8	0.002078
8.380000E-8	0.002227
8.385000E-8	0.002312
8.390000E-8	0.002203
8.395000E-8	0.002594
8.400000E-8	0.002766
8.405000E-8	0.002625
8.410000E-8	0.002656
8.415000E-8	0.002672
8.420000E-8	0.002859
8.425000E-8	0.002891
8.430000E-8	0.003016
8.435000E-8	0.002992
8.440000E-8	0.002945
8.445000E-8	0.002797
8.450000E-8	0.002969
8.455000E-8	0.002773
8.460000E-8	0.002680
8.465000E-8	0.002297
8.470000E-8	0.002289
8.475000E-8	0.002281
8.480000E-8	0.002219
8.485000E-8	0.002180
8.490000E-8	0.002094
8.495000E-8	0.002352
8.500000E-8	0.002477
8.505000E-8	0.002445
8.510000E-8	0.002445
8.515000E-8	0.002430
8.520000E-8	0.002516
8.525000E-8	0.002477
8.530000E-8	0.002742
8.535000E-8	0.002703
8.540000E-8	0.002633
8.545000E-8	0.002703
8.550000E-8	0.002914
8.555000E-8	0.002898
8.560000E-8	0.002609
8.565000E-8	0.002617
8.570000E-8	0.002578
8.575000E-8	0.002703
8.580000E-8	0.002641
8.585000E-8	0.002656
8.590000E-8	0.002477
8.595000E-8	0.002469
8.600000E-8	0.002531
8.605000E-8	0.002563
8.610000E-8	0.002359
8.615000E-8	0.002211
8.620000E-8	0.002328
8.625000E-8	0.002234
8.630000E-8	0.002336
8.635000E-8	0.002484
8.640000E-8	0.002336
8.645000E-8	0.002242
8.650000E-8	0.002227
8.655000E-8	0.002430
8.660000E-8	0.002383
8.665000E-8	0.002641
8.670000E-8	0.002563
8.675000E-8	0.002828
8.680000E-8	0.002828
8.685000E-8	0.002641
8.690000E-8	0.002602
8.695000E-8	0.002555
8.700000E-8	0.002664
8.705000E-8	0.002703
8.710000E-8	0.002633
8.715000E-8	0.002602
8.720000E-8	0.002656
8.725000E-8	0.002688
8.730000E-8	0.002703
8.735000E-8	0.002719
8.740000E-8	0.002734
8.745000E-8	0.002906
8.750000E-8	0.002812
8.755000E-8	0.002750
8.760000E-8	0.002570
8.765000E-8	0.002453
8.770000E-8	0.002422
8.775000E-8	0.002508
8.780000E-8	0.002508
8.785000E-8	0.002563
8.790000E-8	0.002359
8.795000E-8	0.002469
8.800000E-8	0.002523
8.805000E-8	0.002680
8.810000E-8	0.002672
8.815000E-8	0.002977
8.820000E-8	0.003047
8.825000E-8	0.003125
8.830000E-8	0.002953
8.835000E-8	0.003102
8.840000E-8	0.002883
8.845000E-8	0.003102
8.850000E-8	0.003000
8.855000E-8	0.002875
8.860000E-8	0.002805
8.865000E-8	0.002812
8.870000E-8	0.002828
8.875000E-8	0.002914
8.880000E-8	0.002703
8.885000E-8	0.002648
8.890000E-8	0.002750
8.895000E-8	0.002906
8.900000E-8	0.002664
8.905000E-8	0.002508
8.910000E-8	0.002602
8.915000E-8	0.002688
8.920000E-8	0.002570
8.925000E-8	0.002664
8.930000E-8	0.002766
8.935000E-8	0.002703
8.940000E-8	0.002750
8.945000E-8	0.002828
8.950000E-8	0.002789
8.955000E-8	0.002945
8.960000E-8	0.002836
8.965000E-8	0.002766
8.970000E-8	0.002820
8.975000E-8	0.002844
8.980000E-8	0.002867
8.985000E-8	0.002938
8.990000E-8	0.002805
8.995000E-8	0.002594
9.000000E-8	0.002680
9.005000E-8	0.002656
9.010000E-8	0.002461
9.015000E-8	0.002500
9.020000E-8	0.002602
9.025000E-8	0.002547
9.030000E-8	0.002539
9.035000E-8	0.002703
9.040000E-8	0.002703
9.045000E-8	0.002656
9.050000E-8	0.002711
9.055000E-8	0.002789
9.060000E-8	0.002594
9.065000E-8	0.002805
9.070000E-8	0.002922
9.075000E-8	0.002930
9.080000E-8	0.002875
9.085000E-8	0.002852
9.090000E-8	0.002867
9.095000E-8	0.002984
9.100000E-8	0.002812
9.105000E-8	0.002961
9.110000E-8	0.002828
9.115000E-8	0.002852
9.120000E-8	0.002586
9.125000E-8	0.002406
9.130000E-8	0.002352
9.135000E-8	0.002297
9.140000E-8	0.002234
9.145000E-8	0.002234
9.150000E-8	0.002563
9.155000E-8	0.002531
9.160000E-8	0.002437
9.165000E-8	0.002352
9.170000E-8	0.002688
9.175000E-8	0.002891
9.180000E-8	0.002742
9.185000E-8	0.002922
9.190000E-8	0.002961
9.195000E-8	0.002836
9.200000E-8	0.003133
9.205000E-8	0.002977
9.210000E-8	0.002961
9.215000E-8	0.002945
9.220000E-8	0.002914
9.225000E-8	0.003078
9.230000E-8	0.003125
9.235000E-8	0.003109
9.240000E-8	0.002883
9.245000E-8	0.002602
9.250000E-8	0.002742
9.255000E-8	0.002609
9.260000E-8	0.002500
9.265000E-8	0.002570
9.270000E-8	0.002492
9.275000E-8	0.002469
9.280000E-8	0.002258
9.285000E-8	0.002539
9.290000E-8	0.002437
9.295000E-8	0.002586
9.300000E-8	0.002750
9.305000E-8	0.002695
9.310000E-8	0.002594
9.315000E-8	0.002867
9.320000E-8	0.002602
9.325000E-8	0.002734
9.330000E-8	0.002734
9.335000E-8	0.002867
9.340000E-8	0.002828
9.345000E-8	0.002953
9.350000E-8	0.002852
9.355000E-8	0.002766
9.360000E-8	0.002797
9.365000E-8	0.002906
9.370000E-8	0.002648
9.375000E-8	0.002719
9.380000E-8	0.002789
9.385000E-8	0.002766
9.390000E-8	0.002758
9.395000E-8	0.002930
9.400000E-8	0.002898
9.405000E-8	0.003047
9.410000E-8	0.003000
9.415000E-8	0.002852
9.420000E-8	0.002992
9.425000E-8	0.002727
9.430000E-8	0.002672
9.435000E-8	0.002695
9.440000E-8	0.002734
9.445000E-8	0.002609
9.450000E-8	0.002555
9.455000E-8	0.002711
9.460000E-8	0.002594
9.465000E-8	0.002555
9.470000E-8	0.002461
9.475000E-8	0.002508
9.480000E-8	0.002531
9.485000E-8	0.002578
9.490000E-8	0.002602
9.495000E-8	0.002539
9.500000E-8	0.002734
9.505000E-8	0.002664
9.510000E-8	0.002586
9.515000E-8	0.002406
9.520000E-8	0.002328
9.525000E-8	0.002383
9.530000E-8	0.002398
9.535000E-8	0.002492
9.540000E-8	0.002484
9.545000E-8	0.002453
9.550000E-8	0.002289
9.555000E-8	0.002281
9.560000E-8	0.002367
9.565000E-8	0.002422
9.570000E-8	0.002445
9.575000E-8	0.002563
9.580000E-8	0.002586
9.585000E-8	0.002734
9.590000E-8	0.002664
9.595000E-8	0.002820
9.600000E-8	0.002789
9.605000E-8	0.002961
9.610000E-8	0.002750
9.615000E-8	0.003023
9.620000E-8	0.003039
9.625000E-8	0.003016
9.630000E-8	0.003063
9.635000E-8	0.003000
9.640000E-8	0.002812
9.645000E-8	0.002844
9.650000E-8	0.002750
9.655000E-8	0.002820
9.660000E-8	0.002602
9.665000E-8	0.002508
9.670000E-8	0.002609
9.675000E-8	0.002812
9.680000E-8	0.002844
9.685000E-8	0.002789
9.690000E-8	0.002930
9.695000E-8	0.002805
9.700000E-8	0.002914
9.705000E-8	0.002891
9.710000E-8	0.002883
9.715000E-8	0.003039
9.720000E-8	0.002859
9.725000E-8	0.002789
9.730000E-8	0.002734
9.735000E-8	0.002805
9.740000E-8	0.002812
9.745000E-8	0.002898
9.750000E-8	0.002922
9.755000E-8	0.002719
9.760000E-8	0.002859
9.765000E-8	0.002977
9.770000E-8	0.002922
9.775000E-8	0.002961
9.780000E-8	0.002867
9.785000E-8	0.002914
9.790000E-8	0.002789
9.795000E-8	0.002523
9.800000E-8	0.002422
9.805000E-8	0.002539
9.810000E-8	0.002523
9.815000E-8	0.002430
9.820000E-8	0.002250
9.825000E-8	0.002172
9.830000E-8	0.002328
9.835000E-8	0.002609
9.840000E-8	0.002844
9.845000E-8	0.002875
9.850000E-8	0.002820
9.855000E-8	0.003172
9.860000E-8	0.003398
9.865000E-8	0.003336
9.870000E-8	0.003328
9.875000E-8	0.003203
9.880000E-8	0.003266
9.885000E-8	0.003172
9.890000E-8	0.002992
9.895000E-8	0.002867
9.900000E-8	0.002742
9.905000E-8	0.002773
9.910000E-8	0.002367
9.915000E-8	0.002570
9.920000E-8	0.002523
9.925000E-8	0.002578
9.930000E-8	0.002352
9.935000E-8	0.002414
9.940000E-8	0.002664
9.945000E-8	0.002500
9.950000E-8	0.002758
9.955000E-8	0.002711
9.960000E-8	0.003008
9.965000E-8	0.003070
9.970000E-8	0.003117
9.975000E-8	0.003141
9.980000E-8	0.003047
9.985000E-8	0.003039
9.990000E-8	0.002969
9.995000E-8	0.003063
