LabVIEW Measurement	
Writer_Version	2
Reader_Version	2
Separator	Tab
Decimal_Separator	.
Multi_Headings	No
X_Columns	Multi
Time_Pref	Relative
Operator	TG lab
Date	2015/03/06
Time	15:55:38.8450069427490234375
***End_of_Header***	
	
Channels	1	
Samples	2000	
Date	1903/12/31	
Time	19:00:00	
X_Dimension	Time	
X0	0.0000000000000000E+0	
Delta_X	5.000000E-11	
***End_of_Header***		
X_Value	Untitled	Comment
0.000000	0.002322
5.000000E-11	0.002428
1.000000E-10	0.002488
1.500000E-10	0.002578
2.000000E-10	0.002528
2.500000E-10	0.002616
3.000000E-10	0.002531
3.500000E-10	0.002547
4.000000E-10	0.002484
4.500000E-10	0.002425
5.000000E-10	0.002406
5.500000E-10	0.002281
6.000000E-10	0.002188
6.500000E-10	0.002294
7.000000E-10	0.002237
7.500000E-10	0.002275
8.000000E-10	0.002153
8.500000E-10	0.002213
9.000000E-10	0.002122
9.500000E-10	0.002234
1.000000E-9	0.002191
1.050000E-9	0.002278
1.100000E-9	0.002147
1.150000E-9	0.002134
1.200000E-9	0.001941
1.250000E-9	0.001991
1.300000E-9	0.001897
1.350000E-9	0.001963
1.400000E-9	0.001891
1.450000E-9	0.002000
1.500000E-9	0.001947
1.550000E-9	0.002063
1.600000E-9	0.002109
1.650000E-9	0.002162
1.700000E-9	0.002097
1.750000E-9	0.002069
1.800000E-9	0.002122
1.850000E-9	0.002200
1.900000E-9	0.002197
1.950000E-9	0.002297
2.000000E-9	0.002406
2.050000E-9	0.002444
2.100000E-9	0.002369
2.150000E-9	0.002509
2.200000E-9	0.002528
2.250000E-9	0.002581
2.300000E-9	0.002506
2.350000E-9	0.002553
2.400000E-9	0.002475
2.450000E-9	0.002422
2.500000E-9	0.002394
2.550000E-9	0.002531
2.600000E-9	0.002356
2.650000E-9	0.002397
2.700000E-9	0.002269
2.750000E-9	0.002209
2.800000E-9	0.002103
2.850000E-9	0.002109
2.900000E-9	0.002119
2.950000E-9	0.002081
3.000000E-9	0.002125
3.050000E-9	0.002141
3.100000E-9	0.002194
3.150000E-9	0.002316
3.200000E-9	0.002375
3.250000E-9	0.002538
3.300000E-9	0.002584
3.350000E-9	0.002641
3.400000E-9	0.002625
3.450000E-9	0.002653
3.500000E-9	0.002456
3.550000E-9	0.002587
3.600000E-9	0.002456
3.650000E-9	0.002494
3.700000E-9	0.002378
3.750000E-9	0.002384
3.800000E-9	0.002366
3.850000E-9	0.002497
3.900000E-9	0.002397
3.950000E-9	0.002419
4.000000E-9	0.002428
4.050000E-9	0.002528
4.100000E-9	0.002413
4.150000E-9	0.002419
4.200000E-9	0.002416
4.250000E-9	0.002447
4.300000E-9	0.002306
4.350000E-9	0.002231
4.400000E-9	0.002253
4.450000E-9	0.002169
4.500000E-9	0.002300
4.550000E-9	0.002431
4.600000E-9	0.002519
4.650000E-9	0.002613
4.700000E-9	0.002725
4.750000E-9	0.002728
4.800000E-9	0.002819
4.850000E-9	0.002791
4.900000E-9	0.002881
4.950000E-9	0.002931
5.000000E-9	0.002863
5.050000E-9	0.003019
5.100000E-9	0.003034
5.150000E-9	0.003106
5.200000E-9	0.003019
5.250000E-9	0.003022
5.300000E-9	0.003031
5.350000E-9	0.003119
5.400000E-9	0.002981
5.450000E-9	0.003003
5.500000E-9	0.002988
5.550000E-9	0.002953
5.600000E-9	0.003072
5.650000E-9	0.003175
5.700000E-9	0.003200
5.750000E-9	0.003316
5.800000E-9	0.003319
5.850000E-9	0.003269
5.900000E-9	0.003403
5.950000E-9	0.003359
6.000000E-9	0.003272
6.050000E-9	0.003188
6.100000E-9	0.003162
6.150000E-9	0.003122
6.200000E-9	0.002925
6.250000E-9	0.002922
6.300000E-9	0.002916
6.350000E-9	0.002963
6.400000E-9	0.002981
6.450000E-9	0.003166
6.500000E-9	0.003191
6.550000E-9	0.003228
6.600000E-9	0.003309
6.650000E-9	0.003378
6.700000E-9	0.003388
6.750000E-9	0.003434
6.800000E-9	0.003338
6.850000E-9	0.003547
6.900000E-9	0.003575
6.950000E-9	0.003728
7.000000E-9	0.003831
7.050000E-9	0.004147
7.100000E-9	0.004284
7.150000E-9	0.004666
7.200000E-9	0.004919
7.250000E-9	0.005359
7.300000E-9	0.005828
7.350000E-9	0.006525
7.400000E-9	0.007256
7.450000E-9	0.008159
7.500000E-9	0.009147
7.550000E-9	0.010178
7.600000E-9	0.011394
7.650000E-9	0.012656
7.700000E-9	0.013959
7.750000E-9	0.015141
7.800000E-9	0.016075
7.850000E-9	0.017056
7.900000E-9	0.017941
7.950000E-9	0.018672
8.000000E-9	0.019444
8.050000E-9	0.020344
8.100000E-9	0.021425
8.150000E-9	0.022688
8.200000E-9	0.024069
8.250000E-9	0.025631
8.300000E-9	0.026991
8.350000E-9	0.028322
8.400000E-9	0.029553
8.450000E-9	0.030334
8.500000E-9	0.030653
8.550000E-9	0.030588
8.600000E-9	0.029928
8.650000E-9	0.028734
8.700000E-9	0.026928
8.750000E-9	0.025181
8.800000E-9	0.023113
8.850000E-9	0.021244
8.900000E-9	0.019366
8.950000E-9	0.018194
9.000000E-9	0.017166
9.050000E-9	0.016475
9.100000E-9	0.016278
9.150000E-9	0.016659
9.200000E-9	0.017175
9.250000E-9	0.017781
9.300000E-9	0.018569
9.350000E-9	0.019122
9.400000E-9	0.019328
9.450000E-9	0.019650
9.500000E-9	0.019288
9.550000E-9	0.018781
9.600000E-9	0.017875
9.650000E-9	0.016822
9.700000E-9	0.015441
9.750000E-9	0.014106
9.800000E-9	0.012778
9.850000E-9	0.011647
9.900000E-9	0.010606
9.950000E-9	0.009806
1.000000E-8	0.009325
1.005000E-8	0.009222
1.010000E-8	0.009359
1.015000E-8	0.009816
1.020000E-8	0.010378
1.025000E-8	0.011100
1.030000E-8	0.011725
1.035000E-8	0.012409
1.040000E-8	0.012859
1.045000E-8	0.013084
1.050000E-8	0.013059
1.055000E-8	0.012837
1.060000E-8	0.012219
1.065000E-8	0.011331
1.070000E-8	0.010388
1.075000E-8	0.009437
1.080000E-8	0.008334
1.085000E-8	0.007544
1.090000E-8	0.006784
1.095000E-8	0.006291
1.100000E-8	0.006103
1.105000E-8	0.006175
1.110000E-8	0.006531
1.115000E-8	0.006919
1.120000E-8	0.007450
1.125000E-8	0.008166
1.130000E-8	0.008731
1.135000E-8	0.009269
1.140000E-8	0.009437
1.145000E-8	0.009506
1.150000E-8	0.009272
1.155000E-8	0.008931
1.160000E-8	0.008241
1.165000E-8	0.007513
1.170000E-8	0.006550
1.175000E-8	0.005747
1.180000E-8	0.004931
1.185000E-8	0.004269
1.190000E-8	0.003716
1.195000E-8	0.003463
1.200000E-8	0.003472
1.205000E-8	0.003725
1.210000E-8	0.004075
1.215000E-8	0.004625
1.220000E-8	0.005291
1.225000E-8	0.006041
1.230000E-8	0.006516
1.235000E-8	0.007006
1.240000E-8	0.007222
1.245000E-8	0.007222
1.250000E-8	0.007097
1.255000E-8	0.006691
1.260000E-8	0.006069
1.265000E-8	0.005438
1.270000E-8	0.004725
1.275000E-8	0.004003
1.280000E-8	0.003291
1.285000E-8	0.002775
1.290000E-8	0.002225
1.295000E-8	0.002072
1.300000E-8	0.002147
1.305000E-8	0.002413
1.310000E-8	0.002816
1.315000E-8	0.003366
1.320000E-8	0.004047
1.325000E-8	0.004709
1.330000E-8	0.005288
1.335000E-8	0.005809
1.340000E-8	0.006234
1.345000E-8	0.006469
1.350000E-8	0.006406
1.355000E-8	0.006122
1.360000E-8	0.005622
1.365000E-8	0.005019
1.370000E-8	0.004203
1.375000E-8	0.003541
1.380000E-8	0.002803
1.385000E-8	0.002216
1.390000E-8	0.001809
1.395000E-8	0.001675
1.400000E-8	0.001656
1.405000E-8	0.002016
1.410000E-8	0.002469
1.415000E-8	0.003156
1.420000E-8	0.003850
1.425000E-8	0.004500
1.430000E-8	0.005200
1.435000E-8	0.005700
1.440000E-8	0.006019
1.445000E-8	0.006194
1.450000E-8	0.005922
1.455000E-8	0.005647
1.460000E-8	0.004997
1.465000E-8	0.004234
1.470000E-8	0.003350
1.475000E-8	0.002597
1.480000E-8	0.001878
1.485000E-8	0.001291
1.490000E-8	0.000963
1.495000E-8	0.000900
1.500000E-8	0.001094
1.505000E-8	0.001641
1.510000E-8	0.002372
1.515000E-8	0.003222
1.520000E-8	0.003944
1.525000E-8	0.004691
1.530000E-8	0.005256
1.535000E-8	0.005678
1.540000E-8	0.005731
1.545000E-8	0.005591
1.550000E-8	0.005131
1.555000E-8	0.004475
1.560000E-8	0.003634
1.565000E-8	0.002872
1.570000E-8	0.002169
1.575000E-8	0.001481
1.580000E-8	0.000972
1.585000E-8	0.000691
1.590000E-8	0.000653
1.595000E-8	0.000888
1.600000E-8	0.001306
1.605000E-8	0.001975
1.610000E-8	0.002616
1.615000E-8	0.003494
1.620000E-8	0.004241
1.625000E-8	0.004931
1.630000E-8	0.005247
1.635000E-8	0.005475
1.640000E-8	0.005378
1.645000E-8	0.005250
1.650000E-8	0.004775
1.655000E-8	0.004019
1.660000E-8	0.003231
1.665000E-8	0.002459
1.670000E-8	0.001734
1.675000E-8	0.001216
1.680000E-8	0.000719
1.685000E-8	0.000575
1.690000E-8	0.000616
1.695000E-8	0.001028
1.700000E-8	0.001513
1.705000E-8	0.002141
1.710000E-8	0.002866
1.715000E-8	0.003622
1.720000E-8	0.004331
1.725000E-8	0.004888
1.730000E-8	0.005153
1.735000E-8	0.005153
1.740000E-8	0.005072
1.745000E-8	0.004594
1.750000E-8	0.003931
1.755000E-8	0.003200
1.760000E-8	0.002463
1.765000E-8	0.001753
1.770000E-8	0.001031
1.775000E-8	0.000522
1.780000E-8	0.000269
1.785000E-8	0.000203
1.790000E-8	0.000434
1.795000E-8	0.000950
1.800000E-8	0.001481
1.805000E-8	0.002231
1.810000E-8	0.002938
1.815000E-8	0.003663
1.820000E-8	0.004188
1.825000E-8	0.004619
1.830000E-8	0.004744
1.835000E-8	0.004666
1.840000E-8	0.004419
1.845000E-8	0.003959
1.850000E-8	0.003328
1.855000E-8	0.002494
1.860000E-8	0.001797
1.865000E-8	0.001225
1.870000E-8	0.000716
1.875000E-8	0.000491
1.880000E-8	0.000291
1.885000E-8	0.000500
1.890000E-8	0.000803
1.895000E-8	0.001434
1.900000E-8	0.002028
1.905000E-8	0.002781
1.910000E-8	0.003450
1.915000E-8	0.004091
1.920000E-8	0.004478
1.925000E-8	0.004794
1.930000E-8	0.004747
1.935000E-8	0.004544
1.940000E-8	0.004134
1.945000E-8	0.003528
1.950000E-8	0.002847
1.955000E-8	0.002272
1.960000E-8	0.001678
1.965000E-8	0.001178
1.970000E-8	0.000691
1.975000E-8	0.000488
1.980000E-8	0.000591
1.985000E-8	0.000838
1.990000E-8	0.001266
1.995000E-8	0.001756
2.000000E-8	0.002338
2.005000E-8	0.003147
2.010000E-8	0.003653
2.015000E-8	0.004153
2.020000E-8	0.004537
2.025000E-8	0.004788
2.030000E-8	0.004750
2.035000E-8	0.004541
2.040000E-8	0.004003
2.045000E-8	0.003503
2.050000E-8	0.002878
2.055000E-8	0.002275
2.060000E-8	0.001581
2.065000E-8	0.001034
2.070000E-8	0.000591
2.075000E-8	0.000453
2.080000E-8	0.000494
2.085000E-8	0.000834
2.090000E-8	0.001122
2.095000E-8	0.001687
2.100000E-8	0.002313
2.105000E-8	0.002963
2.110000E-8	0.003591
2.115000E-8	0.003934
2.120000E-8	0.004178
2.125000E-8	0.004375
2.130000E-8	0.004222
2.135000E-8	0.003947
2.140000E-8	0.003506
2.145000E-8	0.002897
2.150000E-8	0.002309
2.155000E-8	0.001575
2.160000E-8	0.001069
2.165000E-8	0.000603
2.170000E-8	0.000344
2.175000E-8	0.000241
2.180000E-8	0.000316
2.185000E-8	0.000775
2.190000E-8	0.001300
2.195000E-8	0.001950
2.200000E-8	0.002569
2.205000E-8	0.003378
2.210000E-8	0.003884
2.215000E-8	0.004428
2.220000E-8	0.004594
2.225000E-8	0.004619
2.230000E-8	0.004262
2.235000E-8	0.003922
2.240000E-8	0.003303
2.245000E-8	0.002572
2.250000E-8	0.001969
2.255000E-8	0.001319
2.260000E-8	0.000894
2.265000E-8	0.000559
2.270000E-8	0.000347
2.275000E-8	0.000441
2.280000E-8	0.000741
2.285000E-8	0.001228
2.290000E-8	0.001809
2.295000E-8	0.002428
2.300000E-8	0.003050
2.305000E-8	0.003653
2.310000E-8	0.004138
2.315000E-8	0.004447
2.320000E-8	0.004588
2.325000E-8	0.004500
2.330000E-8	0.004172
2.335000E-8	0.003769
2.340000E-8	0.003053
2.345000E-8	0.002328
2.350000E-8	0.001634
2.355000E-8	0.000891
2.360000E-8	0.000338
2.365000E-8	6.562500E-5
2.370000E-8	-0.000116
2.375000E-8	-3.750000E-5
2.380000E-8	0.000225
2.385000E-8	0.000953
2.390000E-8	0.001716
2.395000E-8	0.002450
2.400000E-8	0.003134
2.405000E-8	0.003741
2.410000E-8	0.004125
2.415000E-8	0.004244
2.420000E-8	0.004244
2.425000E-8	0.004091
2.430000E-8	0.003691
2.435000E-8	0.002963
2.440000E-8	0.002172
2.445000E-8	0.001541
2.450000E-8	0.000984
2.455000E-8	0.000556
2.460000E-8	0.000294
2.465000E-8	0.000313
2.470000E-8	0.000503
2.475000E-8	0.000853
2.480000E-8	0.001406
2.485000E-8	0.002050
2.490000E-8	0.002734
2.495000E-8	0.003356
2.500000E-8	0.003741
2.505000E-8	0.004166
2.510000E-8	0.004291
2.515000E-8	0.004419
2.520000E-8	0.004184
2.525000E-8	0.003788
2.530000E-8	0.003313
2.535000E-8	0.002706
2.540000E-8	0.002097
2.545000E-8	0.001453
2.550000E-8	0.000909
2.555000E-8	0.000609
2.560000E-8	0.000397
2.565000E-8	0.000347
2.570000E-8	0.000513
2.575000E-8	0.000947
2.580000E-8	0.001313
2.585000E-8	0.002003
2.590000E-8	0.002622
2.595000E-8	0.003197
2.600000E-8	0.003609
2.605000E-8	0.004009
2.610000E-8	0.004019
2.615000E-8	0.003844
2.620000E-8	0.003625
2.625000E-8	0.003156
2.630000E-8	0.002575
2.635000E-8	0.002081
2.640000E-8	0.001484
2.645000E-8	0.001084
2.650000E-8	0.000628
2.655000E-8	0.000394
2.660000E-8	0.000359
2.665000E-8	0.000403
2.670000E-8	0.000681
2.675000E-8	0.001175
2.680000E-8	0.001809
2.685000E-8	0.002497
2.690000E-8	0.003047
2.695000E-8	0.003538
2.700000E-8	0.003859
2.705000E-8	0.004109
2.710000E-8	0.004044
2.715000E-8	0.003913
2.720000E-8	0.003366
2.725000E-8	0.002891
2.730000E-8	0.002291
2.735000E-8	0.001722
2.740000E-8	0.001244
2.745000E-8	0.000844
2.750000E-8	0.000544
2.755000E-8	0.000375
2.760000E-8	0.000325
2.765000E-8	0.000641
2.770000E-8	0.001022
2.775000E-8	0.001509
2.780000E-8	0.002113
2.785000E-8	0.002619
2.790000E-8	0.003094
2.795000E-8	0.003525
2.800000E-8	0.003772
2.805000E-8	0.003981
2.810000E-8	0.004047
2.815000E-8	0.003919
2.820000E-8	0.003628
2.825000E-8	0.003181
2.830000E-8	0.002669
2.835000E-8	0.002203
2.840000E-8	0.001716
2.845000E-8	0.001331
2.850000E-8	0.000981
2.855000E-8	0.000897
2.860000E-8	0.000925
2.865000E-8	0.001028
2.870000E-8	0.001437
2.875000E-8	0.001825
2.880000E-8	0.002291
2.885000E-8	0.002769
2.890000E-8	0.003113
2.895000E-8	0.003422
2.900000E-8	0.003675
2.905000E-8	0.003766
2.910000E-8	0.003666
2.915000E-8	0.003366
2.920000E-8	0.002863
2.925000E-8	0.002328
2.930000E-8	0.001844
2.935000E-8	0.001291
2.940000E-8	0.000834
2.945000E-8	0.000553
2.950000E-8	0.000394
2.955000E-8	0.000412
2.960000E-8	0.000609
2.965000E-8	0.001072
2.970000E-8	0.001638
2.975000E-8	0.002263
2.980000E-8	0.002781
2.985000E-8	0.003375
2.990000E-8	0.003769
2.995000E-8	0.004034
3.000000E-8	0.004038
3.005000E-8	0.003950
3.010000E-8	0.003678
3.015000E-8	0.003303
3.020000E-8	0.002891
3.025000E-8	0.002369
3.030000E-8	0.001850
3.035000E-8	0.001406
3.040000E-8	0.001091
3.045000E-8	0.000931
3.050000E-8	0.000844
3.055000E-8	0.001000
3.060000E-8	0.001244
3.065000E-8	0.001678
3.070000E-8	0.002138
3.075000E-8	0.002628
3.080000E-8	0.003119
3.085000E-8	0.003525
3.090000E-8	0.003897
3.095000E-8	0.004016
3.100000E-8	0.004013
3.105000E-8	0.003988
3.110000E-8	0.003581
3.115000E-8	0.003072
3.120000E-8	0.002662
3.125000E-8	0.002228
3.130000E-8	0.001644
3.135000E-8	0.001409
3.140000E-8	0.001138
3.145000E-8	0.001088
3.150000E-8	0.001081
3.155000E-8	0.001331
3.160000E-8	0.001672
3.165000E-8	0.002087
3.170000E-8	0.002544
3.175000E-8	0.002856
3.180000E-8	0.003222
3.185000E-8	0.003509
3.190000E-8	0.003672
3.195000E-8	0.003678
3.200000E-8	0.003500
3.205000E-8	0.003347
3.210000E-8	0.002997
3.215000E-8	0.002500
3.220000E-8	0.002038
3.225000E-8	0.001650
3.230000E-8	0.001281
3.235000E-8	0.001072
3.240000E-8	0.000869
3.245000E-8	0.000928
3.250000E-8	0.001084
3.255000E-8	0.001344
3.260000E-8	0.001597
3.265000E-8	0.002178
3.270000E-8	0.002550
3.275000E-8	0.002913
3.280000E-8	0.003100
3.285000E-8	0.003497
3.290000E-8	0.003459
3.295000E-8	0.003375
3.300000E-8	0.003153
3.305000E-8	0.002853
3.310000E-8	0.002466
3.315000E-8	0.002109
3.320000E-8	0.001678
3.325000E-8	0.001356
3.330000E-8	0.000981
3.335000E-8	0.000859
3.340000E-8	0.000906
3.345000E-8	0.000963
3.350000E-8	0.001150
3.355000E-8	0.001544
3.360000E-8	0.001913
3.365000E-8	0.002422
3.370000E-8	0.002872
3.375000E-8	0.003216
3.380000E-8	0.003397
3.385000E-8	0.003597
3.390000E-8	0.003603
3.395000E-8	0.003613
3.400000E-8	0.003381
3.405000E-8	0.003075
3.410000E-8	0.002813
3.415000E-8	0.002566
3.420000E-8	0.002081
3.425000E-8	0.001750
3.430000E-8	0.001472
3.435000E-8	0.001353
3.440000E-8	0.001369
3.445000E-8	0.001472
3.450000E-8	0.001563
3.455000E-8	0.001919
3.460000E-8	0.002166
3.465000E-8	0.002709
3.470000E-8	0.003072
3.475000E-8	0.003419
3.480000E-8	0.003675
3.485000E-8	0.003747
3.490000E-8	0.003741
3.495000E-8	0.003663
3.500000E-8	0.003384
3.505000E-8	0.003094
3.510000E-8	0.002634
3.515000E-8	0.002250
3.520000E-8	0.001844
3.525000E-8	0.001644
3.530000E-8	0.001316
3.535000E-8	0.001134
3.540000E-8	0.001150
3.545000E-8	0.001259
3.550000E-8	0.001469
3.555000E-8	0.001813
3.560000E-8	0.002156
3.565000E-8	0.002578
3.570000E-8	0.002909
3.575000E-8	0.003234
3.580000E-8	0.003478
3.585000E-8	0.003484
3.590000E-8	0.003394
3.595000E-8	0.003219
3.600000E-8	0.002906
3.605000E-8	0.002512
3.610000E-8	0.002047
3.615000E-8	0.001781
3.620000E-8	0.001331
3.625000E-8	0.001091
3.630000E-8	0.000822
3.635000E-8	0.000753
3.640000E-8	0.000869
3.645000E-8	0.001100
3.650000E-8	0.001391
3.655000E-8	0.001850
3.660000E-8	0.002159
3.665000E-8	0.002622
3.670000E-8	0.002972
3.675000E-8	0.003216
3.680000E-8	0.003350
3.685000E-8	0.003288
3.690000E-8	0.003300
3.695000E-8	0.003059
3.700000E-8	0.002587
3.705000E-8	0.002350
3.710000E-8	0.001944
3.715000E-8	0.001609
3.720000E-8	0.001247
3.725000E-8	0.001159
3.730000E-8	0.001006
3.735000E-8	0.001059
3.740000E-8	0.001228
3.745000E-8	0.001684
3.750000E-8	0.001897
3.755000E-8	0.002291
3.760000E-8	0.002700
3.765000E-8	0.003188
3.770000E-8	0.003344
3.775000E-8	0.003572
3.780000E-8	0.003619
3.785000E-8	0.003653
3.790000E-8	0.003372
3.795000E-8	0.003000
3.800000E-8	0.002662
3.805000E-8	0.002284
3.810000E-8	0.001941
3.815000E-8	0.001500
3.820000E-8	0.001247
3.825000E-8	0.001178
3.830000E-8	0.001053
3.835000E-8	0.001172
3.840000E-8	0.001394
3.845000E-8	0.001725
3.850000E-8	0.002097
3.855000E-8	0.002466
3.860000E-8	0.002828
3.865000E-8	0.003288
3.870000E-8	0.003447
3.875000E-8	0.003509
3.880000E-8	0.003494
3.885000E-8	0.003403
3.890000E-8	0.003119
3.895000E-8	0.002763
3.900000E-8	0.002316
3.905000E-8	0.001991
3.910000E-8	0.001541
3.915000E-8	0.001272
3.920000E-8	0.001069
3.925000E-8	0.000944
3.930000E-8	0.001144
3.935000E-8	0.001344
3.940000E-8	0.001450
3.945000E-8	0.001769
3.950000E-8	0.002106
3.955000E-8	0.002553
3.960000E-8	0.002781
3.965000E-8	0.003063
3.970000E-8	0.003144
3.975000E-8	0.003203
3.980000E-8	0.003059
3.985000E-8	0.002856
3.990000E-8	0.002694
3.995000E-8	0.002338
4.000000E-8	0.001984
4.005000E-8	0.001650
4.010000E-8	0.001437
4.015000E-8	0.001309
4.020000E-8	0.001172
4.025000E-8	0.001244
4.030000E-8	0.001375
4.035000E-8	0.001734
4.040000E-8	0.001994
4.045000E-8	0.002400
4.050000E-8	0.002744
4.055000E-8	0.003147
4.060000E-8	0.003381
4.065000E-8	0.003641
4.070000E-8	0.003681
4.075000E-8	0.003584
4.080000E-8	0.003372
4.085000E-8	0.003159
4.090000E-8	0.002850
4.095000E-8	0.002556
4.100000E-8	0.002244
4.105000E-8	0.001844
4.110000E-8	0.001556
4.115000E-8	0.001453
4.120000E-8	0.001406
4.125000E-8	0.001494
4.130000E-8	0.001519
4.135000E-8	0.001759
4.140000E-8	0.001922
4.145000E-8	0.002259
4.150000E-8	0.002359
4.155000E-8	0.002678
4.160000E-8	0.002888
4.165000E-8	0.002994
4.170000E-8	0.003116
4.175000E-8	0.003038
4.180000E-8	0.002813
4.185000E-8	0.002625
4.190000E-8	0.002466
4.195000E-8	0.002178
4.200000E-8	0.001853
4.205000E-8	0.001619
4.210000E-8	0.001388
4.215000E-8	0.001378
4.220000E-8	0.001319
4.225000E-8	0.001437
4.230000E-8	0.001550
4.235000E-8	0.001884
4.240000E-8	0.002175
4.245000E-8	0.002509
4.250000E-8	0.002866
4.255000E-8	0.003209
4.260000E-8	0.003403
4.265000E-8	0.003509
4.270000E-8	0.003397
4.275000E-8	0.003322
4.280000E-8	0.003072
4.285000E-8	0.002669
4.290000E-8	0.002288
4.295000E-8	0.002000
4.300000E-8	0.001644
4.305000E-8	0.001397
4.310000E-8	0.001088
4.315000E-8	0.001059
4.320000E-8	0.001144
4.325000E-8	0.001362
4.330000E-8	0.001644
4.335000E-8	0.002041
4.340000E-8	0.002347
4.345000E-8	0.002688
4.350000E-8	0.003044
4.355000E-8	0.003328
4.360000E-8	0.003403
4.365000E-8	0.003481
4.370000E-8	0.003497
4.375000E-8	0.003294
4.380000E-8	0.002997
4.385000E-8	0.002641
4.390000E-8	0.002228
4.395000E-8	0.002038
4.400000E-8	0.001669
4.405000E-8	0.001597
4.410000E-8	0.001481
4.415000E-8	0.001656
4.420000E-8	0.001834
4.425000E-8	0.002034
4.430000E-8	0.002297
4.435000E-8	0.002666
4.440000E-8	0.003012
4.445000E-8	0.003319
4.450000E-8	0.003478
4.455000E-8	0.003609
4.460000E-8	0.003553
4.465000E-8	0.003531
4.470000E-8	0.003269
4.475000E-8	0.002944
4.480000E-8	0.002691
4.485000E-8	0.002334
4.490000E-8	0.002091
4.495000E-8	0.001791
4.500000E-8	0.001622
4.505000E-8	0.001534
4.510000E-8	0.001422
4.515000E-8	0.001475
4.520000E-8	0.001525
4.525000E-8	0.001759
4.530000E-8	0.001928
4.535000E-8	0.002234
4.540000E-8	0.002500
4.545000E-8	0.002859
4.550000E-8	0.002931
4.555000E-8	0.003097
4.560000E-8	0.003025
4.565000E-8	0.002922
4.570000E-8	0.002816
4.575000E-8	0.002659
4.580000E-8	0.002197
4.585000E-8	0.002003
4.590000E-8	0.001713
4.595000E-8	0.001450
4.600000E-8	0.001219
4.605000E-8	0.001331
4.610000E-8	0.001428
4.615000E-8	0.001653
4.620000E-8	0.001775
4.625000E-8	0.002147
4.630000E-8	0.002500
4.635000E-8	0.002844
4.640000E-8	0.003022
4.645000E-8	0.003109
4.650000E-8	0.003131
4.655000E-8	0.003094
4.660000E-8	0.003016
4.665000E-8	0.002913
4.670000E-8	0.002669
4.675000E-8	0.002437
4.680000E-8	0.002178
4.685000E-8	0.001881
4.690000E-8	0.001706
4.695000E-8	0.001631
4.700000E-8	0.001553
4.705000E-8	0.001631
4.710000E-8	0.001644
4.715000E-8	0.001891
4.720000E-8	0.001956
4.725000E-8	0.002153
4.730000E-8	0.002409
4.735000E-8	0.002681
4.740000E-8	0.002984
4.745000E-8	0.003016
4.750000E-8	0.003022
4.755000E-8	0.002956
4.760000E-8	0.002813
4.765000E-8	0.002575
4.770000E-8	0.002188
4.775000E-8	0.001941
4.780000E-8	0.001669
4.785000E-8	0.001594
4.790000E-8	0.001353
4.795000E-8	0.001341
4.800000E-8	0.001372
4.805000E-8	0.001478
4.810000E-8	0.001684
4.815000E-8	0.001966
4.820000E-8	0.002159
4.825000E-8	0.002534
4.830000E-8	0.002853
4.835000E-8	0.003109
4.840000E-8	0.003094
4.845000E-8	0.003125
4.850000E-8	0.003109
4.855000E-8	0.003125
4.860000E-8	0.002966
4.865000E-8	0.002788
4.870000E-8	0.002466
4.875000E-8	0.002269
4.880000E-8	0.002000
4.885000E-8	0.001769
4.890000E-8	0.001528
4.895000E-8	0.001484
4.900000E-8	0.001519
4.905000E-8	0.001691
4.910000E-8	0.001897
4.915000E-8	0.002122
4.920000E-8	0.002363
4.925000E-8	0.002662
4.930000E-8	0.002819
4.935000E-8	0.002994
4.940000E-8	0.003134
4.945000E-8	0.003106
4.950000E-8	0.003028
4.955000E-8	0.002994
4.960000E-8	0.002856
4.965000E-8	0.002681
4.970000E-8	0.002428
4.975000E-8	0.002188
4.980000E-8	0.001928
4.985000E-8	0.001753
4.990000E-8	0.001641
4.995000E-8	0.001697
5.000000E-8	0.001687
5.005000E-8	0.001784
5.010000E-8	0.002006
5.015000E-8	0.002216
5.020000E-8	0.002325
5.025000E-8	0.002584
5.030000E-8	0.002703
5.035000E-8	0.002959
5.040000E-8	0.003078
5.045000E-8	0.003166
5.050000E-8	0.003044
5.055000E-8	0.002947
5.060000E-8	0.002647
5.065000E-8	0.002406
5.070000E-8	0.002237
5.075000E-8	0.002009
5.080000E-8	0.001797
5.085000E-8	0.001788
5.090000E-8	0.001713
5.095000E-8	0.001678
5.100000E-8	0.001666
5.105000E-8	0.001738
5.110000E-8	0.001859
5.115000E-8	0.002256
5.120000E-8	0.002519
5.125000E-8	0.002719
5.130000E-8	0.002953
5.135000E-8	0.003141
5.140000E-8	0.003075
5.145000E-8	0.002941
5.150000E-8	0.002800
5.155000E-8	0.002672
5.160000E-8	0.002359
5.165000E-8	0.002050
5.170000E-8	0.001847
5.175000E-8	0.001706
5.180000E-8	0.001509
5.185000E-8	0.001491
5.190000E-8	0.001469
5.195000E-8	0.001516
5.200000E-8	0.001759
5.205000E-8	0.001975
5.210000E-8	0.002169
5.215000E-8	0.002459
5.220000E-8	0.002606
5.225000E-8	0.002791
5.230000E-8	0.002894
5.235000E-8	0.002875
5.240000E-8	0.002763
5.245000E-8	0.002672
5.250000E-8	0.002463
5.255000E-8	0.002150
5.260000E-8	0.001903
5.265000E-8	0.001681
5.270000E-8	0.001622
5.275000E-8	0.001541
5.280000E-8	0.001503
5.285000E-8	0.001516
5.290000E-8	0.001506
5.295000E-8	0.001744
5.300000E-8	0.001741
5.305000E-8	0.002022
5.310000E-8	0.002172
5.315000E-8	0.002369
5.320000E-8	0.002456
5.325000E-8	0.002466
5.330000E-8	0.002484
5.335000E-8	0.002425
5.340000E-8	0.002237
5.345000E-8	0.002162
5.350000E-8	0.002059
5.355000E-8	0.001806
5.360000E-8	0.001669
5.365000E-8	0.001606
5.370000E-8	0.001406
5.375000E-8	0.001403
5.380000E-8	0.001369
5.385000E-8	0.001531
5.390000E-8	0.001603
5.395000E-8	0.001669
5.400000E-8	0.001788
5.405000E-8	0.002041
5.410000E-8	0.002216
5.415000E-8	0.002394
5.420000E-8	0.002572
5.425000E-8	0.002756
5.430000E-8	0.002916
5.435000E-8	0.002991
5.440000E-8	0.003000
5.445000E-8	0.002934
5.450000E-8	0.002766
5.455000E-8	0.002594
5.460000E-8	0.002322
5.465000E-8	0.002219
5.470000E-8	0.002000
5.475000E-8	0.001803
5.480000E-8	0.001744
5.485000E-8	0.001625
5.490000E-8	0.001672
5.495000E-8	0.001750
5.500000E-8	0.001847
5.505000E-8	0.002153
5.510000E-8	0.002384
5.515000E-8	0.002587
5.520000E-8	0.002647
5.525000E-8	0.002947
5.530000E-8	0.002947
5.535000E-8	0.002850
5.540000E-8	0.002869
5.545000E-8	0.002756
5.550000E-8	0.002531
5.555000E-8	0.002225
5.560000E-8	0.002169
5.565000E-8	0.002006
5.570000E-8	0.001875
5.575000E-8	0.001831
5.580000E-8	0.001831
5.585000E-8	0.001859
5.590000E-8	0.001956
5.595000E-8	0.002031
5.600000E-8	0.002113
5.605000E-8	0.002297
5.610000E-8	0.002381
5.615000E-8	0.002441
5.620000E-8	0.002497
5.625000E-8	0.002622
5.630000E-8	0.002600
5.635000E-8	0.002500
5.640000E-8	0.002406
5.645000E-8	0.002459
5.650000E-8	0.002169
5.655000E-8	0.002116
5.660000E-8	0.001900
5.665000E-8	0.001759
5.670000E-8	0.001700
5.675000E-8	0.001644
5.680000E-8	0.001581
5.685000E-8	0.001666
5.690000E-8	0.001781
5.695000E-8	0.002006
5.700000E-8	0.002094
5.705000E-8	0.002184
5.710000E-8	0.002359
5.715000E-8	0.002544
5.720000E-8	0.002572
5.725000E-8	0.002713
5.730000E-8	0.002694
5.735000E-8	0.002597
5.740000E-8	0.002525
5.745000E-8	0.002519
5.750000E-8	0.002244
5.755000E-8	0.002188
5.760000E-8	0.002031
5.765000E-8	0.002016
5.770000E-8	0.001888
5.775000E-8	0.001834
5.780000E-8	0.001975
5.785000E-8	0.001988
5.790000E-8	0.002031
5.795000E-8	0.002219
5.800000E-8	0.002272
5.805000E-8	0.002266
5.810000E-8	0.002463
5.815000E-8	0.002516
5.820000E-8	0.002531
5.825000E-8	0.002528
5.830000E-8	0.002331
5.835000E-8	0.002313
5.840000E-8	0.002131
5.845000E-8	0.002147
5.850000E-8	0.001934
5.855000E-8	0.001772
5.860000E-8	0.001806
5.865000E-8	0.001859
5.870000E-8	0.001753
5.875000E-8	0.001809
5.880000E-8	0.001928
5.885000E-8	0.002119
5.890000E-8	0.002313
5.895000E-8	0.002409
5.900000E-8	0.002475
5.905000E-8	0.002619
5.910000E-8	0.002650
5.915000E-8	0.002734
5.920000E-8	0.002559
5.925000E-8	0.002447
5.930000E-8	0.002356
5.935000E-8	0.002213
5.940000E-8	0.002106
5.945000E-8	0.001978
5.950000E-8	0.001878
5.955000E-8	0.001881
5.960000E-8	0.001794
5.965000E-8	0.001875
5.970000E-8	0.001913
5.975000E-8	0.001972
5.980000E-8	0.001969
5.985000E-8	0.002200
5.990000E-8	0.002234
5.995000E-8	0.002375
6.000000E-8	0.002528
6.005000E-8	0.002591
6.010000E-8	0.002647
6.015000E-8	0.002722
6.020000E-8	0.002591
6.025000E-8	0.002644
6.030000E-8	0.002563
6.035000E-8	0.002609
6.040000E-8	0.002450
6.045000E-8	0.002450
6.050000E-8	0.002259
6.055000E-8	0.002194
6.060000E-8	0.002150
6.065000E-8	0.002162
6.070000E-8	0.002178
6.075000E-8	0.002219
6.080000E-8	0.002266
6.085000E-8	0.002228
6.090000E-8	0.002297
6.095000E-8	0.002447
6.100000E-8	0.002563
6.105000E-8	0.002728
6.110000E-8	0.002725
6.115000E-8	0.002856
6.120000E-8	0.002900
6.125000E-8	0.002791
6.130000E-8	0.002722
6.135000E-8	0.002666
6.140000E-8	0.002506
6.145000E-8	0.002416
6.150000E-8	0.002231
6.155000E-8	0.002128
6.160000E-8	0.001975
6.165000E-8	0.001813
6.170000E-8	0.001772
6.175000E-8	0.001706
6.180000E-8	0.001759
6.185000E-8	0.001894
6.190000E-8	0.002016
6.195000E-8	0.002213
6.200000E-8	0.002200
6.205000E-8	0.002334
6.210000E-8	0.002422
6.215000E-8	0.002506
6.220000E-8	0.002566
6.225000E-8	0.002419
6.230000E-8	0.002334
6.235000E-8	0.002281
6.240000E-8	0.002172
6.245000E-8	0.002075
6.250000E-8	0.001900
6.255000E-8	0.001859
6.260000E-8	0.001819
6.265000E-8	0.001728
6.270000E-8	0.001813
6.275000E-8	0.001978
6.280000E-8	0.002059
6.285000E-8	0.002184
6.290000E-8	0.002388
6.295000E-8	0.002694
6.300000E-8	0.002872
6.305000E-8	0.002978
6.310000E-8	0.003097
6.315000E-8	0.003025
6.320000E-8	0.002956
6.325000E-8	0.002894
6.330000E-8	0.002722
6.335000E-8	0.002669
6.340000E-8	0.002466
6.345000E-8	0.002322
6.350000E-8	0.002253
6.355000E-8	0.002184
6.360000E-8	0.001959
6.365000E-8	0.002069
6.370000E-8	0.002188
6.375000E-8	0.002319
6.380000E-8	0.002288
6.385000E-8	0.002600
6.390000E-8	0.002606
6.395000E-8	0.002763
6.400000E-8	0.002716
6.405000E-8	0.002650
6.410000E-8	0.002563
6.415000E-8	0.002419
6.420000E-8	0.002266
6.425000E-8	0.002259
6.430000E-8	0.002150
6.435000E-8	0.002038
6.440000E-8	0.002047
6.445000E-8	0.002028
6.450000E-8	0.002063
6.455000E-8	0.002094
6.460000E-8	0.001981
6.465000E-8	0.002106
6.470000E-8	0.002119
6.475000E-8	0.002341
6.480000E-8	0.002375
6.485000E-8	0.002481
6.490000E-8	0.002534
6.495000E-8	0.002628
6.500000E-8	0.002563
6.505000E-8	0.002675
6.510000E-8	0.002644
6.515000E-8	0.002634
6.520000E-8	0.002538
6.525000E-8	0.002503
6.530000E-8	0.002347
6.535000E-8	0.002234
6.540000E-8	0.002162
6.545000E-8	0.002059
6.550000E-8	0.002081
6.555000E-8	0.002034
6.560000E-8	0.002012
6.565000E-8	0.002150
6.570000E-8	0.002256
6.575000E-8	0.002338
6.580000E-8	0.002453
6.585000E-8	0.002634
6.590000E-8	0.002675
6.595000E-8	0.002850
6.600000E-8	0.002863
6.605000E-8	0.002788
6.610000E-8	0.002753
6.615000E-8	0.002656
6.620000E-8	0.002456
6.625000E-8	0.002259
6.630000E-8	0.002181
6.635000E-8	0.002087
6.640000E-8	0.001881
6.645000E-8	0.001828
6.650000E-8	0.001881
6.655000E-8	0.001906
6.660000E-8	0.001903
6.665000E-8	0.001916
6.670000E-8	0.002144
6.675000E-8	0.002259
6.680000E-8	0.002369
6.685000E-8	0.002472
6.690000E-8	0.002516
6.695000E-8	0.002725
6.700000E-8	0.002728
6.705000E-8	0.002706
6.710000E-8	0.002516
6.715000E-8	0.002437
6.720000E-8	0.002237
6.725000E-8	0.002138
6.730000E-8	0.002012
6.735000E-8	0.001947
6.740000E-8	0.001872
6.745000E-8	0.001900
6.750000E-8	0.001866
6.755000E-8	0.001888
6.760000E-8	0.002022
6.765000E-8	0.002178
6.770000E-8	0.002269
6.775000E-8	0.002434
6.780000E-8	0.002509
6.785000E-8	0.002666
6.790000E-8	0.002653
6.795000E-8	0.002631
6.800000E-8	0.002531
6.805000E-8	0.002441
6.810000E-8	0.002319
6.815000E-8	0.002306
6.820000E-8	0.002309
6.825000E-8	0.002162
6.830000E-8	0.002028
6.835000E-8	0.002009
6.840000E-8	0.001900
6.845000E-8	0.001922
6.850000E-8	0.001937
6.855000E-8	0.002059
6.860000E-8	0.002197
6.865000E-8	0.002356
6.870000E-8	0.002325
6.875000E-8	0.002581
6.880000E-8	0.002591
6.885000E-8	0.002684
6.890000E-8	0.002775
6.895000E-8	0.002888
6.900000E-8	0.002775
6.905000E-8	0.002813
6.910000E-8	0.002581
6.915000E-8	0.002437
6.920000E-8	0.002331
6.925000E-8	0.002203
6.930000E-8	0.002072
6.935000E-8	0.002113
6.940000E-8	0.002069
6.945000E-8	0.002100
6.950000E-8	0.002219
6.955000E-8	0.002309
6.960000E-8	0.002284
6.965000E-8	0.002491
6.970000E-8	0.002453
6.975000E-8	0.002534
6.980000E-8	0.002563
6.985000E-8	0.002563
6.990000E-8	0.002553
6.995000E-8	0.002559
7.000000E-8	0.002400
7.005000E-8	0.002309
7.010000E-8	0.002334
7.015000E-8	0.002356
7.020000E-8	0.002203
7.025000E-8	0.002087
7.030000E-8	0.002028
7.035000E-8	0.002106
7.040000E-8	0.002078
7.045000E-8	0.002103
7.050000E-8	0.002162
7.055000E-8	0.002209
7.060000E-8	0.002281
7.065000E-8	0.002259
7.070000E-8	0.002391
7.075000E-8	0.002566
7.080000E-8	0.002547
7.085000E-8	0.002584
7.090000E-8	0.002469
7.095000E-8	0.002322
7.100000E-8	0.002156
7.105000E-8	0.002091
7.110000E-8	0.001956
7.115000E-8	0.001878
7.120000E-8	0.001903
7.125000E-8	0.001937
7.130000E-8	0.001984
7.135000E-8	0.002109
7.140000E-8	0.002063
7.145000E-8	0.002197
7.150000E-8	0.002250
7.155000E-8	0.002325
7.160000E-8	0.002356
7.165000E-8	0.002450
7.170000E-8	0.002484
7.175000E-8	0.002525
7.180000E-8	0.002541
7.185000E-8	0.002556
7.190000E-8	0.002422
7.195000E-8	0.002381
7.200000E-8	0.002331
7.205000E-8	0.002381
7.210000E-8	0.002297
7.215000E-8	0.002200
7.220000E-8	0.002125
7.225000E-8	0.002231
7.230000E-8	0.002284
7.235000E-8	0.002272
7.240000E-8	0.002331
7.245000E-8	0.002397
7.250000E-8	0.002322
7.255000E-8	0.002350
7.260000E-8	0.002406
7.265000E-8	0.002556
7.270000E-8	0.002472
7.275000E-8	0.002453
7.280000E-8	0.002434
7.285000E-8	0.002431
7.290000E-8	0.002384
7.295000E-8	0.002419
7.300000E-8	0.002388
7.305000E-8	0.002259
7.310000E-8	0.002203
7.315000E-8	0.002056
7.320000E-8	0.002131
7.325000E-8	0.002066
7.330000E-8	0.001931
7.335000E-8	0.001803
7.340000E-8	0.001734
7.345000E-8	0.001791
7.350000E-8	0.001841
7.355000E-8	0.002009
7.360000E-8	0.002072
7.365000E-8	0.002203
7.370000E-8	0.002178
7.375000E-8	0.002316
7.380000E-8	0.002347
7.385000E-8	0.002447
7.390000E-8	0.002453
7.395000E-8	0.002419
7.400000E-8	0.002306
7.405000E-8	0.002391
7.410000E-8	0.002338
7.415000E-8	0.002284
7.420000E-8	0.002263
7.425000E-8	0.002237
7.430000E-8	0.002047
7.435000E-8	0.002116
7.440000E-8	0.002153
7.445000E-8	0.002250
7.450000E-8	0.002150
7.455000E-8	0.002172
7.460000E-8	0.002169
7.465000E-8	0.002350
7.470000E-8	0.002372
7.475000E-8	0.002397
7.480000E-8	0.002278
7.485000E-8	0.002309
7.490000E-8	0.002316
7.495000E-8	0.002356
7.500000E-8	0.002309
7.505000E-8	0.002319
7.510000E-8	0.002231
7.515000E-8	0.002216
7.520000E-8	0.002169
7.525000E-8	0.001991
7.530000E-8	0.001941
7.535000E-8	0.001988
7.540000E-8	0.002038
7.545000E-8	0.002078
7.550000E-8	0.001944
7.555000E-8	0.002153
7.560000E-8	0.002263
7.565000E-8	0.002363
7.570000E-8	0.002375
7.575000E-8	0.002419
7.580000E-8	0.002356
7.585000E-8	0.002341
7.590000E-8	0.002253
7.595000E-8	0.002197
7.600000E-8	0.002097
7.605000E-8	0.002063
7.610000E-8	0.001913
7.615000E-8	0.001828
7.620000E-8	0.001778
7.625000E-8	0.001741
7.630000E-8	0.001741
7.635000E-8	0.001809
7.640000E-8	0.001809
7.645000E-8	0.001878
7.650000E-8	0.001978
7.655000E-8	0.002034
7.660000E-8	0.002125
7.665000E-8	0.002219
7.670000E-8	0.002156
7.675000E-8	0.002253
7.680000E-8	0.002322
7.685000E-8	0.002434
7.690000E-8	0.002397
7.695000E-8	0.002472
7.700000E-8	0.002344
7.705000E-8	0.002316
7.710000E-8	0.002222
7.715000E-8	0.002175
7.720000E-8	0.002144
7.725000E-8	0.002100
7.730000E-8	0.002103
7.735000E-8	0.002166
7.740000E-8	0.002250
7.745000E-8	0.002328
7.750000E-8	0.002375
7.755000E-8	0.002456
7.760000E-8	0.002603
7.765000E-8	0.002647
7.770000E-8	0.002694
7.775000E-8	0.002709
7.780000E-8	0.002616
7.785000E-8	0.002541
7.790000E-8	0.002484
7.795000E-8	0.002494
7.800000E-8	0.002322
7.805000E-8	0.002281
7.810000E-8	0.002156
7.815000E-8	0.002156
7.820000E-8	0.002119
7.825000E-8	0.002087
7.830000E-8	0.002109
7.835000E-8	0.002153
7.840000E-8	0.002203
7.845000E-8	0.002278
7.850000E-8	0.002322
7.855000E-8	0.002328
7.860000E-8	0.002353
7.865000E-8	0.002394
7.870000E-8	0.002359
7.875000E-8	0.002428
7.880000E-8	0.002344
7.885000E-8	0.002313
7.890000E-8	0.002206
7.895000E-8	0.002162
7.900000E-8	0.002038
7.905000E-8	0.002016
7.910000E-8	0.002012
7.915000E-8	0.002078
7.920000E-8	0.002069
7.925000E-8	0.002162
7.930000E-8	0.002237
7.935000E-8	0.002388
7.940000E-8	0.002369
7.945000E-8	0.002391
7.950000E-8	0.002522
7.955000E-8	0.002569
7.960000E-8	0.002641
7.965000E-8	0.002778
7.970000E-8	0.002772
7.975000E-8	0.002800
7.980000E-8	0.002791
7.985000E-8	0.002753
7.990000E-8	0.002569
7.995000E-8	0.002528
8.000000E-8	0.002409
8.005000E-8	0.002269
8.010000E-8	0.002156
8.015000E-8	0.002119
8.020000E-8	0.002128
8.025000E-8	0.002094
8.030000E-8	0.002153
8.035000E-8	0.002266
8.040000E-8	0.002263
8.045000E-8	0.002450
8.050000E-8	0.002388
8.055000E-8	0.002488
8.060000E-8	0.002497
8.065000E-8	0.002634
8.070000E-8	0.002594
8.075000E-8	0.002584
8.080000E-8	0.002497
8.085000E-8	0.002541
8.090000E-8	0.002306
8.095000E-8	0.002403
8.100000E-8	0.002434
8.105000E-8	0.002325
8.110000E-8	0.002322
8.115000E-8	0.002244
8.120000E-8	0.002181
8.125000E-8	0.002200
8.130000E-8	0.002169
8.135000E-8	0.002162
8.140000E-8	0.002241
8.145000E-8	0.002244
8.150000E-8	0.002259
8.155000E-8	0.002281
8.160000E-8	0.002444
8.165000E-8	0.002584
8.170000E-8	0.002578
8.175000E-8	0.002578
8.180000E-8	0.002544
8.185000E-8	0.002491
8.190000E-8	0.002437
8.195000E-8	0.002397
8.200000E-8	0.002388
8.205000E-8	0.002237
8.210000E-8	0.002178
8.215000E-8	0.001991
8.220000E-8	0.001941
8.225000E-8	0.002012
8.230000E-8	0.001991
8.235000E-8	0.002081
8.240000E-8	0.002109
8.245000E-8	0.002306
8.250000E-8	0.002319
8.255000E-8	0.002488
8.260000E-8	0.002366
8.265000E-8	0.002363
8.270000E-8	0.002366
8.275000E-8	0.002384
8.280000E-8	0.002263
8.285000E-8	0.002234
8.290000E-8	0.002028
8.295000E-8	0.002012
8.300000E-8	0.002031
8.305000E-8	0.002044
8.310000E-8	0.002069
8.315000E-8	0.002081
8.320000E-8	0.002231
8.325000E-8	0.002303
8.330000E-8	0.002369
8.335000E-8	0.002437
8.340000E-8	0.002428
8.345000E-8	0.002488
8.350000E-8	0.002512
8.355000E-8	0.002481
8.360000E-8	0.002466
8.365000E-8	0.002328
8.370000E-8	0.002347
8.375000E-8	0.002281
8.380000E-8	0.002278
8.385000E-8	0.002297
8.390000E-8	0.002263
8.395000E-8	0.002319
8.400000E-8	0.002381
8.405000E-8	0.002450
8.410000E-8	0.002444
8.415000E-8	0.002459
8.420000E-8	0.002341
8.425000E-8	0.002475
8.430000E-8	0.002388
8.435000E-8	0.002472
8.440000E-8	0.002466
8.445000E-8	0.002456
8.450000E-8	0.002300
8.455000E-8	0.002328
8.460000E-8	0.002162
8.465000E-8	0.002309
8.470000E-8	0.002203
8.475000E-8	0.002172
8.480000E-8	0.002100
8.485000E-8	0.002166
8.490000E-8	0.002200
8.495000E-8	0.002059
8.500000E-8	0.001991
8.505000E-8	0.002047
8.510000E-8	0.002075
8.515000E-8	0.002150
8.520000E-8	0.002087
8.525000E-8	0.002087
8.530000E-8	0.002122
8.535000E-8	0.002153
8.540000E-8	0.002162
8.545000E-8	0.002256
8.550000E-8	0.002156
8.555000E-8	0.002244
8.560000E-8	0.002281
8.565000E-8	0.002331
8.570000E-8	0.002366
8.575000E-8	0.002422
8.580000E-8	0.002413
8.585000E-8	0.002578
8.590000E-8	0.002656
8.595000E-8	0.002616
8.600000E-8	0.002509
8.605000E-8	0.002494
8.610000E-8	0.002372
8.615000E-8	0.002322
8.620000E-8	0.002209
8.625000E-8	0.002294
8.630000E-8	0.002209
8.635000E-8	0.002291
8.640000E-8	0.002203
8.645000E-8	0.002381
8.650000E-8	0.002437
8.655000E-8	0.002322
8.660000E-8	0.002234
8.665000E-8	0.002241
8.670000E-8	0.002175
8.675000E-8	0.002284
8.680000E-8	0.002197
8.685000E-8	0.002228
8.690000E-8	0.002134
8.695000E-8	0.002153
8.700000E-8	0.002128
8.705000E-8	0.002200
8.710000E-8	0.002153
8.715000E-8	0.002194
8.720000E-8	0.002191
8.725000E-8	0.002200
8.730000E-8	0.002272
8.735000E-8	0.002228
8.740000E-8	0.002338
8.745000E-8	0.002328
8.750000E-8	0.002225
8.755000E-8	0.002247
8.760000E-8	0.002162
8.765000E-8	0.002153
8.770000E-8	0.002131
8.775000E-8	0.002288
8.780000E-8	0.002213
8.785000E-8	0.002181
8.790000E-8	0.002297
8.795000E-8	0.002359
8.800000E-8	0.002259
8.805000E-8	0.002309
8.810000E-8	0.002313
8.815000E-8	0.002384
8.820000E-8	0.002328
8.825000E-8	0.002347
8.830000E-8	0.002331
8.835000E-8	0.002300
8.840000E-8	0.002300
8.845000E-8	0.002372
8.850000E-8	0.002347
8.855000E-8	0.002394
8.860000E-8	0.002375
8.865000E-8	0.002419
8.870000E-8	0.002328
8.875000E-8	0.002278
8.880000E-8	0.002272
8.885000E-8	0.002222
8.890000E-8	0.002231
8.895000E-8	0.002288
8.900000E-8	0.002225
8.905000E-8	0.002216
8.910000E-8	0.002209
8.915000E-8	0.002119
8.920000E-8	0.002131
8.925000E-8	0.002116
8.930000E-8	0.002166
8.935000E-8	0.002069
8.940000E-8	0.002147
8.945000E-8	0.002241
8.950000E-8	0.002219
8.955000E-8	0.002306
8.960000E-8	0.002266
8.965000E-8	0.002244
8.970000E-8	0.002300
8.975000E-8	0.002288
8.980000E-8	0.002256
8.985000E-8	0.002291
8.990000E-8	0.002353
8.995000E-8	0.002328
9.000000E-8	0.002338
9.005000E-8	0.002303
9.010000E-8	0.002353
9.015000E-8	0.002459
9.020000E-8	0.002444
9.025000E-8	0.002453
9.030000E-8	0.002478
9.035000E-8	0.002484
9.040000E-8	0.002447
9.045000E-8	0.002394
9.050000E-8	0.002353
9.055000E-8	0.002350
9.060000E-8	0.002303
9.065000E-8	0.002237
9.070000E-8	0.002194
9.075000E-8	0.002253
9.080000E-8	0.002175
9.085000E-8	0.002228
9.090000E-8	0.002291
9.095000E-8	0.002297
9.100000E-8	0.002353
9.105000E-8	0.002388
9.110000E-8	0.002303
9.115000E-8	0.002306
9.120000E-8	0.002338
9.125000E-8	0.002384
9.130000E-8	0.002341
9.135000E-8	0.002322
9.140000E-8	0.002384
9.145000E-8	0.002450
9.150000E-8	0.002422
9.155000E-8	0.002494
9.160000E-8	0.002587
9.165000E-8	0.002575
9.170000E-8	0.002541
9.175000E-8	0.002559
9.180000E-8	0.002512
9.185000E-8	0.002563
9.190000E-8	0.002538
9.195000E-8	0.002512
9.200000E-8	0.002522
9.205000E-8	0.002469
9.210000E-8	0.002622
9.215000E-8	0.002666
9.220000E-8	0.002594
9.225000E-8	0.002594
9.230000E-8	0.002656
9.235000E-8	0.002697
9.240000E-8	0.002634
9.245000E-8	0.002691
9.250000E-8	0.002669
9.255000E-8	0.002669
9.260000E-8	0.002488
9.265000E-8	0.002478
9.270000E-8	0.002353
9.275000E-8	0.002319
9.280000E-8	0.002309
9.285000E-8	0.002328
9.290000E-8	0.002331
9.295000E-8	0.002328
9.300000E-8	0.002319
9.305000E-8	0.002375
9.310000E-8	0.002288
9.315000E-8	0.002394
9.320000E-8	0.002300
9.325000E-8	0.002347
9.330000E-8	0.002359
9.335000E-8	0.002203
9.340000E-8	0.002206
9.345000E-8	0.002259
9.350000E-8	0.002159
9.355000E-8	0.002247
9.360000E-8	0.002281
9.365000E-8	0.002338
9.370000E-8	0.002297
9.375000E-8	0.002350
9.380000E-8	0.002159
9.385000E-8	0.002156
9.390000E-8	0.002116
9.395000E-8	0.002106
9.400000E-8	0.002153
9.405000E-8	0.002097
9.410000E-8	0.002188
9.415000E-8	0.002244
9.420000E-8	0.002281
9.425000E-8	0.002253
9.430000E-8	0.002216
9.435000E-8	0.002184
9.440000E-8	0.002097
9.445000E-8	0.002122
9.450000E-8	0.002231
9.455000E-8	0.002244
9.460000E-8	0.002263
9.465000E-8	0.002216
9.470000E-8	0.002297
9.475000E-8	0.002316
9.480000E-8	0.002078
9.485000E-8	0.002153
9.490000E-8	0.002072
9.495000E-8	0.002081
9.500000E-8	0.002119
9.505000E-8	0.002138
9.510000E-8	0.002003
9.515000E-8	0.002025
9.520000E-8	0.002100
9.525000E-8	0.002191
9.530000E-8	0.002116
9.535000E-8	0.002188
9.540000E-8	0.002294
9.545000E-8	0.002303
9.550000E-8	0.002234
9.555000E-8	0.002231
9.560000E-8	0.002216
9.565000E-8	0.002256
9.570000E-8	0.002147
9.575000E-8	0.002250
9.580000E-8	0.002141
9.585000E-8	0.002213
9.590000E-8	0.002284
9.595000E-8	0.002172
9.600000E-8	0.002144
9.605000E-8	0.002156
9.610000E-8	0.002209
9.615000E-8	0.002244
9.620000E-8	0.002209
9.625000E-8	0.002269
9.630000E-8	0.002266
9.635000E-8	0.002366
9.640000E-8	0.002313
9.645000E-8	0.002359
9.650000E-8	0.002272
9.655000E-8	0.002406
9.660000E-8	0.002281
9.665000E-8	0.002313
9.670000E-8	0.002269
9.675000E-8	0.002194
9.680000E-8	0.002031
9.685000E-8	0.001984
9.690000E-8	0.001884
9.695000E-8	0.001853
9.700000E-8	0.001875
9.705000E-8	0.001853
9.710000E-8	0.001819
9.715000E-8	0.001919
9.720000E-8	0.001972
9.725000E-8	0.002059
9.730000E-8	0.002069
9.735000E-8	0.002303
9.740000E-8	0.002244
9.745000E-8	0.002275
9.750000E-8	0.002266
9.755000E-8	0.002281
9.760000E-8	0.002353
9.765000E-8	0.002316
9.770000E-8	0.002166
9.775000E-8	0.002300
9.780000E-8	0.002375
9.785000E-8	0.002350
9.790000E-8	0.002247
9.795000E-8	0.002228
9.800000E-8	0.002259
9.805000E-8	0.002309
9.810000E-8	0.002378
9.815000E-8	0.002384
9.820000E-8	0.002334
9.825000E-8	0.002341
9.830000E-8	0.002247
9.835000E-8	0.002159
9.840000E-8	0.002169
9.845000E-8	0.002222
9.850000E-8	0.002206
9.855000E-8	0.002288
9.860000E-8	0.002266
9.865000E-8	0.002253
9.870000E-8	0.002275
9.875000E-8	0.002369
9.880000E-8	0.002363
9.885000E-8	0.002313
9.890000E-8	0.002272
9.895000E-8	0.002322
9.900000E-8	0.002363
9.905000E-8	0.002378
9.910000E-8	0.002413
9.915000E-8	0.002463
9.920000E-8	0.002378
9.925000E-8	0.002403
9.930000E-8	0.002338
9.935000E-8	0.002463
9.940000E-8	0.002253
9.945000E-8	0.002228
9.950000E-8	0.002103
9.955000E-8	0.002172
9.960000E-8	0.002066
9.965000E-8	0.002125
9.970000E-8	0.002191
9.975000E-8	0.002200
9.980000E-8	0.002219
9.985000E-8	0.002463
9.990000E-8	0.002469
9.995000E-8	0.002453
