LabVIEW Measurement	
Writer_Version	2
Reader_Version	2
Separator	Tab
Decimal_Separator	.
Multi_Headings	No
X_Columns	Multi
Time_Pref	Relative
Operator	TG lab
Date	2015/03/06
Time	15:46:28.2835168838500976563
***End_of_Header***	
	
Channels	1	
Samples	2000	
Date	1903/12/31	
Time	19:00:00	
X_Dimension	Time	
X0	0.0000000000000000E+0	
Delta_X	5.000000E-11	
***End_of_Header***		
X_Value	Untitled	Comment
0.000000	0.002227
5.000000E-11	0.002292
1.000000E-10	0.002311
1.500000E-10	0.002409
2.000000E-10	0.002384
2.500000E-10	0.002422
3.000000E-10	0.002448
3.500000E-10	0.002452
4.000000E-10	0.002378
4.500000E-10	0.002317
5.000000E-10	0.002295
5.500000E-10	0.002250
6.000000E-10	0.002183
6.500000E-10	0.002159
7.000000E-10	0.002177
7.500000E-10	0.002133
8.000000E-10	0.002150
8.500000E-10	0.002230
9.000000E-10	0.002266
9.500000E-10	0.002289
1.000000E-9	0.002367
1.050000E-9	0.002395
1.100000E-9	0.002419
1.150000E-9	0.002442
1.200000E-9	0.002336
1.250000E-9	0.002391
1.300000E-9	0.002347
1.350000E-9	0.002298
1.400000E-9	0.002233
1.450000E-9	0.002184
1.500000E-9	0.002053
1.550000E-9	0.002067
1.600000E-9	0.001994
1.650000E-9	0.002034
1.700000E-9	0.002031
1.750000E-9	0.002084
1.800000E-9	0.002087
1.850000E-9	0.002111
1.900000E-9	0.002217
1.950000E-9	0.002230
2.000000E-9	0.002216
2.050000E-9	0.002270
2.100000E-9	0.002236
2.150000E-9	0.002255
2.200000E-9	0.002247
2.250000E-9	0.002284
2.300000E-9	0.002256
2.350000E-9	0.002363
2.400000E-9	0.002356
2.450000E-9	0.002373
2.500000E-9	0.002384
2.550000E-9	0.002523
2.600000E-9	0.002478
2.650000E-9	0.002463
2.700000E-9	0.002444
2.750000E-9	0.002430
2.800000E-9	0.002338
2.850000E-9	0.002267
2.900000E-9	0.002230
2.950000E-9	0.002289
3.000000E-9	0.002200
3.050000E-9	0.002241
3.100000E-9	0.002245
3.150000E-9	0.002269
3.200000E-9	0.002270
3.250000E-9	0.002289
3.300000E-9	0.002328
3.350000E-9	0.002275
3.400000E-9	0.002317
3.450000E-9	0.002333
3.500000E-9	0.002247
3.550000E-9	0.002330
3.600000E-9	0.002252
3.650000E-9	0.002338
3.700000E-9	0.002217
3.750000E-9	0.002331
3.800000E-9	0.002322
3.850000E-9	0.002389
3.900000E-9	0.002331
3.950000E-9	0.002433
4.000000E-9	0.002477
4.050000E-9	0.002488
4.100000E-9	0.002469
4.150000E-9	0.002398
4.200000E-9	0.002302
4.250000E-9	0.002255
4.300000E-9	0.002228
4.350000E-9	0.002162
4.400000E-9	0.002162
4.450000E-9	0.002198
4.500000E-9	0.002253
4.550000E-9	0.002339
4.600000E-9	0.002347
4.650000E-9	0.002450
4.700000E-9	0.002542
4.750000E-9	0.002481
4.800000E-9	0.002450
4.850000E-9	0.002361
4.900000E-9	0.002273
4.950000E-9	0.002152
5.000000E-9	0.002109
5.050000E-9	0.002031
5.100000E-9	0.001927
5.150000E-9	0.001937
5.200000E-9	0.001889
5.250000E-9	0.001831
5.300000E-9	0.001872
5.350000E-9	0.001906
5.400000E-9	0.001925
5.450000E-9	0.001953
5.500000E-9	0.002045
5.550000E-9	0.002142
5.600000E-9	0.002256
5.650000E-9	0.002377
5.700000E-9	0.002467
5.750000E-9	0.002578
5.800000E-9	0.002683
5.850000E-9	0.002763
5.900000E-9	0.002878
5.950000E-9	0.002977
6.000000E-9	0.003067
6.050000E-9	0.003206
6.100000E-9	0.003431
6.150000E-9	0.003714
6.200000E-9	0.003961
6.250000E-9	0.004338
6.300000E-9	0.004713
6.350000E-9	0.005178
6.400000E-9	0.005536
6.450000E-9	0.005913
6.500000E-9	0.006170
6.550000E-9	0.006342
6.600000E-9	0.006387
6.650000E-9	0.006330
6.700000E-9	0.006077
6.750000E-9	0.005739
6.800000E-9	0.005314
6.850000E-9	0.004939
6.900000E-9	0.004466
6.950000E-9	0.004145
7.000000E-9	0.003839
7.050000E-9	0.003644
7.100000E-9	0.003631
7.150000E-9	0.003681
7.200000E-9	0.003764
7.250000E-9	0.004013
7.300000E-9	0.004270
7.350000E-9	0.004605
7.400000E-9	0.004970
7.450000E-9	0.005408
7.500000E-9	0.005825
7.550000E-9	0.006230
7.600000E-9	0.006652
7.650000E-9	0.006894
7.700000E-9	0.006891
7.750000E-9	0.006666
7.800000E-9	0.006013
7.850000E-9	0.004897
7.900000E-9	0.003261
7.950000E-9	0.001125
8.000000E-9	-0.001492
8.050000E-9	-0.004577
8.100000E-9	-0.007864
8.150000E-9	-0.011398
8.200000E-9	-0.015003
8.250000E-9	-0.018395
8.300000E-9	-0.021586
8.350000E-9	-0.024242
8.400000E-9	-0.026392
8.450000E-9	-0.027894
8.500000E-9	-0.028720
8.550000E-9	-0.028887
8.600000E-9	-0.028538
8.650000E-9	-0.027558
8.700000E-9	-0.026116
8.750000E-9	-0.024314
8.800000E-9	-0.022313
8.850000E-9	-0.020217
8.900000E-9	-0.018442
8.950000E-9	-0.016756
9.000000E-9	-0.015655
9.050000E-9	-0.015005
9.100000E-9	-0.014823
9.150000E-9	-0.015044
9.200000E-9	-0.015692
9.250000E-9	-0.016541
9.300000E-9	-0.017461
9.350000E-9	-0.018250
9.400000E-9	-0.018763
9.450000E-9	-0.019000
9.500000E-9	-0.018902
9.550000E-9	-0.018359
9.600000E-9	-0.017487
9.650000E-9	-0.016266
9.700000E-9	-0.014888
9.750000E-9	-0.013230
9.800000E-9	-0.011681
9.850000E-9	-0.010178
9.900000E-9	-0.008966
9.950000E-9	-0.007959
1.000000E-8	-0.007284
1.005000E-8	-0.006927
1.010000E-8	-0.006966
1.015000E-8	-0.007358
1.020000E-8	-0.007978
1.025000E-8	-0.008784
1.030000E-8	-0.009687
1.035000E-8	-0.010442
1.040000E-8	-0.011005
1.045000E-8	-0.011344
1.050000E-8	-0.011292
1.055000E-8	-0.010886
1.060000E-8	-0.010133
1.065000E-8	-0.009098
1.070000E-8	-0.007867
1.075000E-8	-0.006403
1.080000E-8	-0.005044
1.085000E-8	-0.003752
1.090000E-8	-0.002723
1.095000E-8	-0.002019
1.100000E-8	-0.001661
1.105000E-8	-0.001658
1.110000E-8	-0.001948
1.115000E-8	-0.002517
1.120000E-8	-0.003370
1.125000E-8	-0.004230
1.130000E-8	-0.005091
1.135000E-8	-0.005848
1.140000E-8	-0.006372
1.145000E-8	-0.006667
1.150000E-8	-0.006700
1.155000E-8	-0.006373
1.160000E-8	-0.005858
1.165000E-8	-0.005058
1.170000E-8	-0.004094
1.175000E-8	-0.003102
1.180000E-8	-0.002153
1.185000E-8	-0.001267
1.190000E-8	-0.000620
1.195000E-8	-0.000181
1.200000E-8	-1.093750E-5
1.205000E-8	-0.000172
1.210000E-8	-0.000558
1.215000E-8	-0.001098
1.220000E-8	-0.001816
1.225000E-8	-0.002534
1.230000E-8	-0.003236
1.235000E-8	-0.003802
1.240000E-8	-0.004325
1.245000E-8	-0.004433
1.250000E-8	-0.004381
1.255000E-8	-0.004052
1.260000E-8	-0.003516
1.265000E-8	-0.002755
1.270000E-8	-0.001903
1.275000E-8	-0.000958
1.280000E-8	-0.000106
1.285000E-8	0.000661
1.290000E-8	0.001266
1.295000E-8	0.001609
1.300000E-8	0.001717
1.305000E-8	0.001563
1.310000E-8	0.001173
1.315000E-8	0.000589
1.320000E-8	-0.000108
1.325000E-8	-0.000898
1.330000E-8	-0.001603
1.335000E-8	-0.002233
1.340000E-8	-0.002703
1.345000E-8	-0.002892
1.350000E-8	-0.002916
1.355000E-8	-0.002620
1.360000E-8	-0.002042
1.365000E-8	-0.001366
1.370000E-8	-0.000442
1.375000E-8	0.000484
1.380000E-8	0.001375
1.385000E-8	0.002175
1.390000E-8	0.002780
1.395000E-8	0.003158
1.400000E-8	0.003195
1.405000E-8	0.003014
1.410000E-8	0.002527
1.415000E-8	0.001852
1.420000E-8	0.000992
1.425000E-8	8.437500E-5
1.430000E-8	-0.000809
1.435000E-8	-0.001472
1.440000E-8	-0.001952
1.445000E-8	-0.002211
1.450000E-8	-0.002113
1.455000E-8	-0.001767
1.460000E-8	-0.001138
1.465000E-8	-0.000286
1.470000E-8	0.000673
1.475000E-8	0.001713
1.480000E-8	0.002625
1.485000E-8	0.003356
1.490000E-8	0.003791
1.495000E-8	0.004039
1.500000E-8	0.003838
1.505000E-8	0.003395
1.510000E-8	0.002673
1.515000E-8	0.001772
1.520000E-8	0.000752
1.525000E-8	-0.000239
1.530000E-8	-0.001128
1.535000E-8	-0.001791
1.540000E-8	-0.002216
1.545000E-8	-0.002253
1.550000E-8	-0.002072
1.555000E-8	-0.001564
1.560000E-8	-0.000753
1.565000E-8	0.000244
1.570000E-8	0.001294
1.575000E-8	0.002292
1.580000E-8	0.003178
1.585000E-8	0.003872
1.590000E-8	0.004258
1.595000E-8	0.004302
1.600000E-8	0.004000
1.605000E-8	0.003452
1.610000E-8	0.002609
1.615000E-8	0.001627
1.620000E-8	0.000592
1.625000E-8	-0.000381
1.630000E-8	-0.001119
1.635000E-8	-0.001603
1.640000E-8	-0.001759
1.645000E-8	-0.001584
1.650000E-8	-0.001102
1.655000E-8	-0.000298
1.660000E-8	0.000675
1.665000E-8	0.001733
1.670000E-8	0.002798
1.675000E-8	0.003695
1.680000E-8	0.004330
1.685000E-8	0.004706
1.690000E-8	0.004734
1.695000E-8	0.004570
1.700000E-8	0.003941
1.705000E-8	0.003248
1.710000E-8	0.002386
1.715000E-8	0.001473
1.720000E-8	0.000552
1.725000E-8	-0.000114
1.730000E-8	-0.000734
1.735000E-8	-0.000883
1.740000E-8	-0.000914
1.745000E-8	-0.000625
1.750000E-8	-4.687500E-5
1.755000E-8	0.000645
1.760000E-8	0.001480
1.765000E-8	0.002342
1.770000E-8	0.003147
1.775000E-8	0.003781
1.780000E-8	0.004191
1.785000E-8	0.004350
1.790000E-8	0.004294
1.795000E-8	0.003916
1.800000E-8	0.003300
1.805000E-8	0.002534
1.810000E-8	0.001656
1.815000E-8	0.000792
1.820000E-8	2.968750E-5
1.825000E-8	-0.000561
1.830000E-8	-0.000903
1.835000E-8	-0.000955
1.840000E-8	-0.000850
1.845000E-8	-0.000358
1.850000E-8	0.000286
1.855000E-8	0.001189
1.860000E-8	0.001975
1.865000E-8	0.002836
1.870000E-8	0.003556
1.875000E-8	0.004164
1.880000E-8	0.004488
1.885000E-8	0.004561
1.890000E-8	0.004386
1.895000E-8	0.003873
1.900000E-8	0.003195
1.905000E-8	0.002359
1.910000E-8	0.001489
1.915000E-8	0.000778
1.920000E-8	4.218750E-5
1.925000E-8	-0.000428
1.930000E-8	-0.000661
1.935000E-8	-0.000578
1.940000E-8	-0.000317
1.945000E-8	0.000192
1.950000E-8	0.000916
1.955000E-8	0.001764
1.960000E-8	0.002577
1.965000E-8	0.003409
1.970000E-8	0.004067
1.975000E-8	0.004605
1.980000E-8	0.004767
1.985000E-8	0.004706
1.990000E-8	0.004342
1.995000E-8	0.003892
2.000000E-8	0.003128
2.005000E-8	0.002339
2.010000E-8	0.001452
2.015000E-8	0.000666
2.020000E-8	4.375000E-5
2.025000E-8	-0.000383
2.030000E-8	-0.000567
2.035000E-8	-0.000395
2.040000E-8	-9.062500E-5
2.045000E-8	0.000528
2.050000E-8	0.001225
2.055000E-8	0.002045
2.060000E-8	0.002783
2.065000E-8	0.003525
2.070000E-8	0.004003
2.075000E-8	0.004375
2.080000E-8	0.004478
2.085000E-8	0.004359
2.090000E-8	0.003931
2.095000E-8	0.003350
2.100000E-8	0.002633
2.105000E-8	0.001848
2.110000E-8	0.001033
2.115000E-8	0.000389
2.120000E-8	-0.000217
2.125000E-8	-0.000583
2.130000E-8	-0.000661
2.135000E-8	-0.000422
2.140000E-8	2.343750E-5
2.145000E-8	0.000677
2.150000E-8	0.001433
2.155000E-8	0.002220
2.160000E-8	0.003094
2.165000E-8	0.003798
2.170000E-8	0.004361
2.175000E-8	0.004609
2.180000E-8	0.004594
2.185000E-8	0.004363
2.190000E-8	0.003758
2.195000E-8	0.003117
2.200000E-8	0.002272
2.205000E-8	0.001417
2.210000E-8	0.000608
2.215000E-8	1.406250E-5
2.220000E-8	-0.000450
2.225000E-8	-0.000559
2.230000E-8	-0.000503
2.235000E-8	-9.687500E-5
2.240000E-8	0.000441
2.245000E-8	0.001147
2.250000E-8	0.002000
2.255000E-8	0.002856
2.260000E-8	0.003700
2.265000E-8	0.004345
2.270000E-8	0.004752
2.275000E-8	0.004916
2.280000E-8	0.004863
2.285000E-8	0.004503
2.290000E-8	0.003881
2.295000E-8	0.003050
2.300000E-8	0.002125
2.305000E-8	0.001242
2.310000E-8	0.000438
2.315000E-8	-0.000131
2.320000E-8	-0.000527
2.325000E-8	-0.000598
2.330000E-8	-0.000303
2.335000E-8	0.000166
2.340000E-8	0.000892
2.345000E-8	0.001745
2.350000E-8	0.002586
2.355000E-8	0.003398
2.360000E-8	0.004067
2.365000E-8	0.004513
2.370000E-8	0.004759
2.375000E-8	0.004680
2.380000E-8	0.004253
2.385000E-8	0.003714
2.390000E-8	0.002930
2.395000E-8	0.002100
2.400000E-8	0.001225
2.405000E-8	0.000420
2.410000E-8	-0.000206
2.415000E-8	-0.000541
2.420000E-8	-0.000745
2.425000E-8	-0.000481
2.430000E-8	-6.406250E-5
2.435000E-8	0.000612
2.440000E-8	0.001344
2.445000E-8	0.002173
2.450000E-8	0.002972
2.455000E-8	0.003653
2.460000E-8	0.004155
2.465000E-8	0.004414
2.470000E-8	0.004333
2.475000E-8	0.004122
2.480000E-8	0.003761
2.485000E-8	0.003161
2.490000E-8	0.002445
2.495000E-8	0.001717
2.500000E-8	0.001063
2.505000E-8	0.000473
2.510000E-8	0.000125
2.515000E-8	5.625000E-5
2.520000E-8	0.000225
2.525000E-8	0.000605
2.530000E-8	0.001211
2.535000E-8	0.001941
2.540000E-8	0.002702
2.545000E-8	0.003484
2.550000E-8	0.004070
2.555000E-8	0.004569
2.560000E-8	0.004884
2.565000E-8	0.004923
2.570000E-8	0.004606
2.575000E-8	0.004173
2.580000E-8	0.003583
2.585000E-8	0.002925
2.590000E-8	0.002169
2.595000E-8	0.001483
2.600000E-8	0.000848
2.605000E-8	0.000394
2.610000E-8	8.906250E-5
2.615000E-8	7.187500E-5
2.620000E-8	0.000248
2.625000E-8	0.000650
2.630000E-8	0.001183
2.635000E-8	0.001866
2.640000E-8	0.002516
2.645000E-8	0.003203
2.650000E-8	0.003816
2.655000E-8	0.004208
2.660000E-8	0.004403
2.665000E-8	0.004397
2.670000E-8	0.004200
2.675000E-8	0.003789
2.680000E-8	0.003242
2.685000E-8	0.002577
2.690000E-8	0.001845
2.695000E-8	0.001159
2.700000E-8	0.000566
2.705000E-8	0.000139
2.710000E-8	-0.000169
2.715000E-8	-0.000177
2.720000E-8	2.500000E-5
2.725000E-8	0.000489
2.730000E-8	0.001031
2.735000E-8	0.001747
2.740000E-8	0.002467
2.745000E-8	0.003111
2.750000E-8	0.003642
2.755000E-8	0.004013
2.760000E-8	0.004203
2.765000E-8	0.004148
2.770000E-8	0.003825
2.775000E-8	0.003370
2.780000E-8	0.002747
2.785000E-8	0.002133
2.790000E-8	0.001425
2.795000E-8	0.000845
2.800000E-8	0.000447
2.805000E-8	0.000200
2.810000E-8	0.000119
2.815000E-8	0.000291
2.820000E-8	0.000572
2.825000E-8	0.001072
2.830000E-8	0.001658
2.835000E-8	0.002294
2.840000E-8	0.002889
2.845000E-8	0.003464
2.850000E-8	0.003892
2.855000E-8	0.004177
2.860000E-8	0.004194
2.865000E-8	0.004041
2.870000E-8	0.003766
2.875000E-8	0.003308
2.880000E-8	0.002688
2.885000E-8	0.002134
2.890000E-8	0.001520
2.895000E-8	0.001006
2.900000E-8	0.000589
2.905000E-8	0.000444
2.910000E-8	0.000402
2.915000E-8	0.000634
2.920000E-8	0.000934
2.925000E-8	0.001456
2.930000E-8	0.002003
2.935000E-8	0.002603
2.940000E-8	0.003103
2.945000E-8	0.003559
2.950000E-8	0.003950
2.955000E-8	0.004077
2.960000E-8	0.003948
2.965000E-8	0.003722
2.970000E-8	0.003308
2.975000E-8	0.002753
2.980000E-8	0.002109
2.985000E-8	0.001481
2.990000E-8	0.000923
2.995000E-8	0.000467
3.000000E-8	0.000183
3.005000E-8	5.156250E-5
3.010000E-8	0.000158
3.015000E-8	0.000564
3.020000E-8	0.000945
3.025000E-8	0.001588
3.030000E-8	0.002195
3.035000E-8	0.002875
3.040000E-8	0.003392
3.045000E-8	0.003831
3.050000E-8	0.004083
3.055000E-8	0.004158
3.060000E-8	0.004005
3.065000E-8	0.003714
3.070000E-8	0.003202
3.075000E-8	0.002625
3.080000E-8	0.001937
3.085000E-8	0.001411
3.090000E-8	0.000959
3.095000E-8	0.000598
3.100000E-8	0.000394
3.105000E-8	0.000552
3.110000E-8	0.000714
3.115000E-8	0.001194
3.120000E-8	0.001652
3.125000E-8	0.002286
3.130000E-8	0.002816
3.135000E-8	0.003303
3.140000E-8	0.003777
3.145000E-8	0.004042
3.150000E-8	0.004183
3.155000E-8	0.004141
3.160000E-8	0.003866
3.165000E-8	0.003575
3.170000E-8	0.003087
3.175000E-8	0.002534
3.180000E-8	0.001945
3.185000E-8	0.001422
3.190000E-8	0.000984
3.195000E-8	0.000630
3.200000E-8	0.000488
3.205000E-8	0.000528
3.210000E-8	0.000731
3.215000E-8	0.001047
3.220000E-8	0.001514
3.225000E-8	0.002017
3.230000E-8	0.002509
3.235000E-8	0.003047
3.240000E-8	0.003478
3.245000E-8	0.003758
3.250000E-8	0.003761
3.255000E-8	0.003631
3.260000E-8	0.003372
3.265000E-8	0.002892
3.270000E-8	0.002408
3.275000E-8	0.001931
3.280000E-8	0.001441
3.285000E-8	0.001042
3.290000E-8	0.000728
3.295000E-8	0.000670
3.300000E-8	0.000742
3.305000E-8	0.000956
3.310000E-8	0.001392
3.315000E-8	0.001863
3.320000E-8	0.002392
3.325000E-8	0.002939
3.330000E-8	0.003388
3.335000E-8	0.003725
3.340000E-8	0.003913
3.345000E-8	0.003972
3.350000E-8	0.003842
3.355000E-8	0.003577
3.360000E-8	0.003180
3.365000E-8	0.002666
3.370000E-8	0.002198
3.375000E-8	0.001708
3.380000E-8	0.001225
3.385000E-8	0.000900
3.390000E-8	0.000692
3.395000E-8	0.000606
3.400000E-8	0.000680
3.405000E-8	0.000952
3.410000E-8	0.001294
3.415000E-8	0.001763
3.420000E-8	0.002230
3.425000E-8	0.002736
3.430000E-8	0.003203
3.435000E-8	0.003575
3.440000E-8	0.003764
3.445000E-8	0.003881
3.450000E-8	0.003772
3.455000E-8	0.003483
3.460000E-8	0.003055
3.465000E-8	0.002578
3.470000E-8	0.001973
3.475000E-8	0.001495
3.480000E-8	0.001042
3.485000E-8	0.000777
3.490000E-8	0.000575
3.495000E-8	0.000552
3.500000E-8	0.000670
3.505000E-8	0.001020
3.510000E-8	0.001419
3.515000E-8	0.001959
3.520000E-8	0.002408
3.525000E-8	0.002880
3.530000E-8	0.003239
3.535000E-8	0.003514
3.540000E-8	0.003638
3.545000E-8	0.003703
3.550000E-8	0.003480
3.555000E-8	0.003102
3.560000E-8	0.002722
3.565000E-8	0.002247
3.570000E-8	0.001800
3.575000E-8	0.001420
3.580000E-8	0.000970
3.585000E-8	0.000769
3.590000E-8	0.000683
3.595000E-8	0.000772
3.600000E-8	0.000950
3.605000E-8	0.001320
3.610000E-8	0.001633
3.615000E-8	0.002144
3.620000E-8	0.002583
3.625000E-8	0.002972
3.630000E-8	0.003241
3.635000E-8	0.003512
3.640000E-8	0.003475
3.645000E-8	0.003383
3.650000E-8	0.003188
3.655000E-8	0.002898
3.660000E-8	0.002492
3.665000E-8	0.002053
3.670000E-8	0.001548
3.675000E-8	0.001055
3.680000E-8	0.000748
3.685000E-8	0.000612
3.690000E-8	0.000553
3.695000E-8	0.000717
3.700000E-8	0.000973
3.705000E-8	0.001459
3.710000E-8	0.001958
3.715000E-8	0.002589
3.720000E-8	0.003089
3.725000E-8	0.003531
3.730000E-8	0.003863
3.735000E-8	0.004005
3.740000E-8	0.003900
3.745000E-8	0.003725
3.750000E-8	0.003291
3.755000E-8	0.002850
3.760000E-8	0.002338
3.765000E-8	0.001877
3.770000E-8	0.001414
3.775000E-8	0.001044
3.780000E-8	0.000817
3.785000E-8	0.000748
3.790000E-8	0.000861
3.795000E-8	0.001200
3.800000E-8	0.001566
3.805000E-8	0.002061
3.810000E-8	0.002541
3.815000E-8	0.002966
3.820000E-8	0.003297
3.825000E-8	0.003605
3.830000E-8	0.003734
3.835000E-8	0.003656
3.840000E-8	0.003528
3.845000E-8	0.003214
3.850000E-8	0.002881
3.855000E-8	0.002436
3.860000E-8	0.002050
3.865000E-8	0.001691
3.870000E-8	0.001330
3.875000E-8	0.001095
3.880000E-8	0.000959
3.885000E-8	0.001022
3.890000E-8	0.001138
3.895000E-8	0.001358
3.900000E-8	0.001722
3.905000E-8	0.002134
3.910000E-8	0.002458
3.915000E-8	0.002891
3.920000E-8	0.003250
3.925000E-8	0.003469
3.930000E-8	0.003578
3.935000E-8	0.003544
3.940000E-8	0.003330
3.945000E-8	0.003006
3.950000E-8	0.002587
3.955000E-8	0.002084
3.960000E-8	0.001644
3.965000E-8	0.001236
3.970000E-8	0.000863
3.975000E-8	0.000739
3.980000E-8	0.000727
3.985000E-8	0.000920
3.990000E-8	0.001306
3.995000E-8	0.001631
4.000000E-8	0.002105
4.005000E-8	0.002552
4.010000E-8	0.002942
4.015000E-8	0.003300
4.020000E-8	0.003480
4.025000E-8	0.003534
4.030000E-8	0.003430
4.035000E-8	0.003306
4.040000E-8	0.003064
4.045000E-8	0.002791
4.050000E-8	0.002397
4.055000E-8	0.002127
4.060000E-8	0.001772
4.065000E-8	0.001464
4.070000E-8	0.001328
4.075000E-8	0.001222
4.080000E-8	0.001286
4.085000E-8	0.001486
4.090000E-8	0.001644
4.095000E-8	0.001963
4.100000E-8	0.002323
4.105000E-8	0.002686
4.110000E-8	0.002981
4.115000E-8	0.003255
4.120000E-8	0.003395
4.125000E-8	0.003498
4.130000E-8	0.003473
4.135000E-8	0.003406
4.140000E-8	0.003138
4.145000E-8	0.002836
4.150000E-8	0.002427
4.155000E-8	0.002031
4.160000E-8	0.001619
4.165000E-8	0.001436
4.170000E-8	0.001273
4.175000E-8	0.001217
4.180000E-8	0.001256
4.185000E-8	0.001414
4.190000E-8	0.001630
4.195000E-8	0.002028
4.200000E-8	0.002327
4.205000E-8	0.002733
4.210000E-8	0.003038
4.215000E-8	0.003308
4.220000E-8	0.003495
4.225000E-8	0.003512
4.230000E-8	0.003478
4.235000E-8	0.003280
4.240000E-8	0.002958
4.245000E-8	0.002584
4.250000E-8	0.002162
4.255000E-8	0.001792
4.260000E-8	0.001406
4.265000E-8	0.001122
4.270000E-8	0.000964
4.275000E-8	0.000920
4.280000E-8	0.001027
4.285000E-8	0.001281
4.290000E-8	0.001619
4.295000E-8	0.002006
4.300000E-8	0.002448
4.305000E-8	0.002830
4.310000E-8	0.003080
4.315000E-8	0.003306
4.320000E-8	0.003408
4.325000E-8	0.003320
4.330000E-8	0.003069
4.335000E-8	0.002839
4.340000E-8	0.002403
4.345000E-8	0.002028
4.350000E-8	0.001591
4.355000E-8	0.001294
4.360000E-8	0.001042
4.365000E-8	0.000852
4.370000E-8	0.000886
4.375000E-8	0.001050
4.380000E-8	0.001187
4.385000E-8	0.001506
4.390000E-8	0.001864
4.395000E-8	0.002278
4.400000E-8	0.002603
4.405000E-8	0.002888
4.410000E-8	0.003136
4.415000E-8	0.003245
4.420000E-8	0.003305
4.425000E-8	0.003177
4.430000E-8	0.002973
4.435000E-8	0.002720
4.440000E-8	0.002403
4.445000E-8	0.002105
4.450000E-8	0.001716
4.455000E-8	0.001533
4.460000E-8	0.001306
4.465000E-8	0.001236
4.470000E-8	0.001233
4.475000E-8	0.001339
4.480000E-8	0.001542
4.485000E-8	0.001888
4.490000E-8	0.002173
4.495000E-8	0.002550
4.500000E-8	0.002916
4.505000E-8	0.003167
4.510000E-8	0.003386
4.515000E-8	0.003473
4.520000E-8	0.003423
4.525000E-8	0.003250
4.530000E-8	0.003048
4.535000E-8	0.002613
4.540000E-8	0.002209
4.545000E-8	0.001836
4.550000E-8	0.001380
4.555000E-8	0.001133
4.560000E-8	0.000970
4.565000E-8	0.001077
4.570000E-8	0.001117
4.575000E-8	0.001466
4.580000E-8	0.001783
4.585000E-8	0.002213
4.590000E-8	0.002617
4.595000E-8	0.003075
4.600000E-8	0.003320
4.605000E-8	0.003516
4.610000E-8	0.003645
4.615000E-8	0.003584
4.620000E-8	0.003294
4.625000E-8	0.003063
4.630000E-8	0.002730
4.635000E-8	0.002380
4.640000E-8	0.002003
4.645000E-8	0.001725
4.650000E-8	0.001503
4.655000E-8	0.001430
4.660000E-8	0.001334
4.665000E-8	0.001409
4.670000E-8	0.001539
4.675000E-8	0.001788
4.680000E-8	0.002017
4.685000E-8	0.002359
4.690000E-8	0.002672
4.695000E-8	0.002855
4.700000E-8	0.002986
4.705000E-8	0.003050
4.710000E-8	0.003063
4.715000E-8	0.003020
4.720000E-8	0.002847
4.725000E-8	0.002659
4.730000E-8	0.002411
4.735000E-8	0.002231
4.740000E-8	0.001900
4.745000E-8	0.001714
4.750000E-8	0.001534
4.755000E-8	0.001408
4.760000E-8	0.001330
4.765000E-8	0.001331
4.770000E-8	0.001364
4.775000E-8	0.001595
4.780000E-8	0.001734
4.785000E-8	0.001930
4.790000E-8	0.002159
4.795000E-8	0.002366
4.800000E-8	0.002497
4.805000E-8	0.002639
4.810000E-8	0.002667
4.815000E-8	0.002648
4.820000E-8	0.002505
4.825000E-8	0.002377
4.830000E-8	0.002133
4.835000E-8	0.001933
4.840000E-8	0.001717
4.845000E-8	0.001592
4.850000E-8	0.001492
4.855000E-8	0.001520
4.860000E-8	0.001647
4.865000E-8	0.001830
4.870000E-8	0.001933
4.875000E-8	0.002208
4.880000E-8	0.002420
4.885000E-8	0.002634
4.890000E-8	0.002845
4.895000E-8	0.002939
4.900000E-8	0.002972
4.905000E-8	0.003012
4.910000E-8	0.002894
4.915000E-8	0.002723
4.920000E-8	0.002527
4.925000E-8	0.002273
4.930000E-8	0.002028
4.935000E-8	0.001867
4.940000E-8	0.001633
4.945000E-8	0.001538
4.950000E-8	0.001483
4.955000E-8	0.001502
4.960000E-8	0.001553
4.965000E-8	0.001728
4.970000E-8	0.001948
4.975000E-8	0.002138
4.980000E-8	0.002409
4.985000E-8	0.002606
4.990000E-8	0.002786
4.995000E-8	0.002930
5.000000E-8	0.003000
5.005000E-8	0.002927
5.010000E-8	0.002823
5.015000E-8	0.002652
5.020000E-8	0.002408
5.025000E-8	0.002184
5.030000E-8	0.001834
5.035000E-8	0.001614
5.040000E-8	0.001391
5.045000E-8	0.001305
5.050000E-8	0.001288
5.055000E-8	0.001302
5.060000E-8	0.001456
5.065000E-8	0.001684
5.070000E-8	0.001908
5.075000E-8	0.002169
5.080000E-8	0.002453
5.085000E-8	0.002698
5.090000E-8	0.002816
5.095000E-8	0.002959
5.100000E-8	0.002939
5.105000E-8	0.002841
5.110000E-8	0.002717
5.115000E-8	0.002536
5.120000E-8	0.002237
5.125000E-8	0.002086
5.130000E-8	0.001794
5.135000E-8	0.001630
5.140000E-8	0.001483
5.145000E-8	0.001394
5.150000E-8	0.001430
5.155000E-8	0.001488
5.160000E-8	0.001606
5.165000E-8	0.001808
5.170000E-8	0.002023
5.175000E-8	0.002305
5.180000E-8	0.002566
5.185000E-8	0.002797
5.190000E-8	0.002891
5.195000E-8	0.003027
5.200000E-8	0.002945
5.205000E-8	0.002909
5.210000E-8	0.002720
5.215000E-8	0.002483
5.220000E-8	0.002155
5.225000E-8	0.001864
5.230000E-8	0.001548
5.235000E-8	0.001367
5.240000E-8	0.001142
5.245000E-8	0.001064
5.250000E-8	0.001091
5.255000E-8	0.001273
5.260000E-8	0.001461
5.265000E-8	0.001716
5.270000E-8	0.002080
5.275000E-8	0.002328
5.280000E-8	0.002594
5.285000E-8	0.002788
5.290000E-8	0.002853
5.295000E-8	0.002828
5.300000E-8	0.002747
5.305000E-8	0.002558
5.310000E-8	0.002431
5.315000E-8	0.002308
5.320000E-8	0.002102
5.325000E-8	0.001967
5.330000E-8	0.001794
5.335000E-8	0.001755
5.340000E-8	0.001644
5.345000E-8	0.001697
5.350000E-8	0.001722
5.355000E-8	0.001848
5.360000E-8	0.001975
5.365000E-8	0.002072
5.370000E-8	0.002302
5.375000E-8	0.002441
5.380000E-8	0.002591
5.385000E-8	0.002686
5.390000E-8	0.002777
5.395000E-8	0.002772
5.400000E-8	0.002723
5.405000E-8	0.002659
5.410000E-8	0.002492
5.415000E-8	0.002391
5.420000E-8	0.002123
5.425000E-8	0.002017
5.430000E-8	0.001823
5.435000E-8	0.001764
5.440000E-8	0.001722
5.445000E-8	0.001744
5.450000E-8	0.001825
5.455000E-8	0.001944
5.460000E-8	0.002094
5.465000E-8	0.002309
5.470000E-8	0.002508
5.475000E-8	0.002634
5.480000E-8	0.002780
5.485000E-8	0.002906
5.490000E-8	0.002933
5.495000E-8	0.002914
5.500000E-8	0.002819
5.505000E-8	0.002694
5.510000E-8	0.002584
5.515000E-8	0.002441
5.520000E-8	0.002227
5.525000E-8	0.002128
5.530000E-8	0.001961
5.535000E-8	0.001964
5.540000E-8	0.001852
5.545000E-8	0.001877
5.550000E-8	0.001928
5.555000E-8	0.002091
5.560000E-8	0.002200
5.565000E-8	0.002352
5.570000E-8	0.002569
5.575000E-8	0.002733
5.580000E-8	0.002889
5.585000E-8	0.002919
5.590000E-8	0.002925
5.595000E-8	0.002872
5.600000E-8	0.002684
5.605000E-8	0.002583
5.610000E-8	0.002269
5.615000E-8	0.002016
5.620000E-8	0.001823
5.625000E-8	0.001642
5.630000E-8	0.001505
5.635000E-8	0.001503
5.640000E-8	0.001491
5.645000E-8	0.001625
5.650000E-8	0.001761
5.655000E-8	0.001883
5.660000E-8	0.002019
5.665000E-8	0.002161
5.670000E-8	0.002316
5.675000E-8	0.002369
5.680000E-8	0.002442
5.685000E-8	0.002483
5.690000E-8	0.002497
5.695000E-8	0.002416
5.700000E-8	0.002283
5.705000E-8	0.002080
5.710000E-8	0.001953
5.715000E-8	0.001831
5.720000E-8	0.001709
5.725000E-8	0.001617
5.730000E-8	0.001495
5.735000E-8	0.001566
5.740000E-8	0.001566
5.745000E-8	0.001656
5.750000E-8	0.001798
5.755000E-8	0.001970
5.760000E-8	0.002134
5.765000E-8	0.002306
5.770000E-8	0.002475
5.775000E-8	0.002669
5.780000E-8	0.002677
5.785000E-8	0.002659
5.790000E-8	0.002641
5.795000E-8	0.002591
5.800000E-8	0.002439
5.805000E-8	0.002327
5.810000E-8	0.002114
5.815000E-8	0.002009
5.820000E-8	0.001897
5.825000E-8	0.001861
5.830000E-8	0.001792
5.835000E-8	0.001813
5.840000E-8	0.001908
5.845000E-8	0.001944
5.850000E-8	0.001986
5.855000E-8	0.002127
5.860000E-8	0.002166
5.865000E-8	0.002230
5.870000E-8	0.002300
5.875000E-8	0.002370
5.880000E-8	0.002358
5.885000E-8	0.002352
5.890000E-8	0.002281
5.895000E-8	0.002184
5.900000E-8	0.002063
5.905000E-8	0.001989
5.910000E-8	0.001777
5.915000E-8	0.001661
5.920000E-8	0.001555
5.925000E-8	0.001458
5.930000E-8	0.001427
5.935000E-8	0.001489
5.940000E-8	0.001650
5.945000E-8	0.001850
5.950000E-8	0.002055
5.955000E-8	0.002339
5.960000E-8	0.002589
5.965000E-8	0.002833
5.970000E-8	0.002930
5.975000E-8	0.002988
5.980000E-8	0.002989
5.985000E-8	0.002886
5.990000E-8	0.002681
5.995000E-8	0.002502
6.000000E-8	0.002325
6.005000E-8	0.002175
6.010000E-8	0.001969
6.015000E-8	0.001897
6.020000E-8	0.001819
6.025000E-8	0.001823
6.030000E-8	0.001816
6.035000E-8	0.001914
6.040000E-8	0.002027
6.045000E-8	0.002191
6.050000E-8	0.002269
6.055000E-8	0.002417
6.060000E-8	0.002495
6.065000E-8	0.002580
6.070000E-8	0.002639
6.075000E-8	0.002742
6.080000E-8	0.002775
6.085000E-8	0.002698
6.090000E-8	0.002642
6.095000E-8	0.002533
6.100000E-8	0.002458
6.105000E-8	0.002355
6.110000E-8	0.002200
6.115000E-8	0.002156
6.120000E-8	0.001973
6.125000E-8	0.001920
6.130000E-8	0.001844
6.135000E-8	0.001934
6.140000E-8	0.001988
6.145000E-8	0.002077
6.150000E-8	0.002123
6.155000E-8	0.002250
6.160000E-8	0.002358
6.165000E-8	0.002442
6.170000E-8	0.002422
6.175000E-8	0.002373
6.180000E-8	0.002216
6.185000E-8	0.002003
6.190000E-8	0.001858
6.195000E-8	0.001667
6.200000E-8	0.001544
6.205000E-8	0.001389
6.210000E-8	0.001300
6.215000E-8	0.001273
6.220000E-8	0.001370
6.225000E-8	0.001464
6.230000E-8	0.001611
6.235000E-8	0.001820
6.240000E-8	0.002041
6.245000E-8	0.002278
6.250000E-8	0.002478
6.255000E-8	0.002675
6.260000E-8	0.002756
6.265000E-8	0.002828
6.270000E-8	0.002859
6.275000E-8	0.002734
6.280000E-8	0.002527
6.285000E-8	0.002325
6.290000E-8	0.002127
6.295000E-8	0.002044
6.300000E-8	0.001842
6.305000E-8	0.001823
6.310000E-8	0.001803
6.315000E-8	0.001817
6.320000E-8	0.001836
6.325000E-8	0.001953
6.330000E-8	0.002038
6.335000E-8	0.002086
6.340000E-8	0.002255
6.345000E-8	0.002291
6.350000E-8	0.002341
6.355000E-8	0.002423
6.360000E-8	0.002472
6.365000E-8	0.002503
6.370000E-8	0.002497
6.375000E-8	0.002508
6.380000E-8	0.002477
6.385000E-8	0.002408
6.390000E-8	0.002248
6.395000E-8	0.002089
6.400000E-8	0.002014
6.405000E-8	0.001900
6.410000E-8	0.001898
6.415000E-8	0.001875
6.420000E-8	0.001945
6.425000E-8	0.002027
6.430000E-8	0.002145
6.435000E-8	0.002273
6.440000E-8	0.002425
6.445000E-8	0.002544
6.450000E-8	0.002609
6.455000E-8	0.002686
6.460000E-8	0.002648
6.465000E-8	0.002583
6.470000E-8	0.002441
6.475000E-8	0.002330
6.480000E-8	0.002139
6.485000E-8	0.001970
6.490000E-8	0.001881
6.495000E-8	0.001803
6.500000E-8	0.001681
6.505000E-8	0.001652
6.510000E-8	0.001694
6.515000E-8	0.001748
6.520000E-8	0.001842
6.525000E-8	0.001931
6.530000E-8	0.002006
6.535000E-8	0.002158
6.540000E-8	0.002223
6.545000E-8	0.002327
6.550000E-8	0.002394
6.555000E-8	0.002561
6.560000E-8	0.002527
6.565000E-8	0.002556
6.570000E-8	0.002523
6.575000E-8	0.002477
6.580000E-8	0.002327
6.585000E-8	0.002164
6.590000E-8	0.002014
6.595000E-8	0.001884
6.600000E-8	0.001742
6.605000E-8	0.001713
6.610000E-8	0.001700
6.615000E-8	0.001681
6.620000E-8	0.001780
6.625000E-8	0.002009
6.630000E-8	0.002148
6.635000E-8	0.002350
6.640000E-8	0.002586
6.645000E-8	0.002773
6.650000E-8	0.002964
6.655000E-8	0.003036
6.660000E-8	0.003002
6.665000E-8	0.002983
6.670000E-8	0.002839
6.675000E-8	0.002713
6.680000E-8	0.002506
6.685000E-8	0.002361
6.690000E-8	0.002191
6.695000E-8	0.002145
6.700000E-8	0.002025
6.705000E-8	0.001892
6.710000E-8	0.002012
6.715000E-8	0.002113
6.720000E-8	0.002159
6.725000E-8	0.002283
6.730000E-8	0.002398
6.735000E-8	0.002473
6.740000E-8	0.002502
6.745000E-8	0.002614
6.750000E-8	0.002527
6.755000E-8	0.002572
6.760000E-8	0.002491
6.765000E-8	0.002419
6.770000E-8	0.002322
6.775000E-8	0.002266
6.780000E-8	0.002162
6.785000E-8	0.002039
6.790000E-8	0.001989
6.795000E-8	0.001958
6.800000E-8	0.001955
6.805000E-8	0.001980
6.810000E-8	0.002091
6.815000E-8	0.002178
6.820000E-8	0.002194
6.825000E-8	0.002242
6.830000E-8	0.002316
6.835000E-8	0.002389
6.840000E-8	0.002425
6.845000E-8	0.002398
6.850000E-8	0.002350
6.855000E-8	0.002420
6.860000E-8	0.002309
6.865000E-8	0.002247
6.870000E-8	0.002147
6.875000E-8	0.002125
6.880000E-8	0.002033
6.885000E-8	0.001947
6.890000E-8	0.001878
6.895000E-8	0.001770
6.900000E-8	0.001711
6.905000E-8	0.001769
6.910000E-8	0.001836
6.915000E-8	0.001922
6.920000E-8	0.002011
6.925000E-8	0.002175
6.930000E-8	0.002345
6.935000E-8	0.002430
6.940000E-8	0.002520
6.945000E-8	0.002608
6.950000E-8	0.002589
6.955000E-8	0.002584
6.960000E-8	0.002522
6.965000E-8	0.002453
6.970000E-8	0.002391
6.975000E-8	0.002322
6.980000E-8	0.002202
6.985000E-8	0.002150
6.990000E-8	0.002011
6.995000E-8	0.001956
7.000000E-8	0.001864
7.005000E-8	0.001869
7.010000E-8	0.001836
7.015000E-8	0.001895
7.020000E-8	0.001981
7.025000E-8	0.002061
7.030000E-8	0.002148
7.035000E-8	0.002228
7.040000E-8	0.002325
7.045000E-8	0.002417
7.050000E-8	0.002419
7.055000E-8	0.002441
7.060000E-8	0.002380
7.065000E-8	0.002358
7.070000E-8	0.002258
7.075000E-8	0.002180
7.080000E-8	0.002003
7.085000E-8	0.001864
7.090000E-8	0.001759
7.095000E-8	0.001747
7.100000E-8	0.001638
7.105000E-8	0.001669
7.110000E-8	0.001667
7.115000E-8	0.001777
7.120000E-8	0.001797
7.125000E-8	0.002017
7.130000E-8	0.002152
7.135000E-8	0.002272
7.140000E-8	0.002395
7.145000E-8	0.002552
7.150000E-8	0.002520
7.155000E-8	0.002517
7.160000E-8	0.002491
7.165000E-8	0.002417
7.170000E-8	0.002336
7.175000E-8	0.002252
7.180000E-8	0.002184
7.185000E-8	0.002083
7.190000E-8	0.002039
7.195000E-8	0.002083
7.200000E-8	0.002022
7.205000E-8	0.002064
7.210000E-8	0.002086
7.215000E-8	0.002198
7.220000E-8	0.002280
7.225000E-8	0.002411
7.230000E-8	0.002458
7.235000E-8	0.002525
7.240000E-8	0.002505
7.245000E-8	0.002583
7.250000E-8	0.002553
7.255000E-8	0.002578
7.260000E-8	0.002498
7.265000E-8	0.002445
7.270000E-8	0.002306
7.275000E-8	0.002202
7.280000E-8	0.002067
7.285000E-8	0.001967
7.290000E-8	0.001825
7.295000E-8	0.001834
7.300000E-8	0.001873
7.305000E-8	0.001981
7.310000E-8	0.002033
7.315000E-8	0.002213
7.320000E-8	0.002348
7.325000E-8	0.002559
7.330000E-8	0.002667
7.335000E-8	0.002752
7.340000E-8	0.002789
7.345000E-8	0.002748
7.350000E-8	0.002678
7.355000E-8	0.002587
7.360000E-8	0.002342
7.365000E-8	0.002198
7.370000E-8	0.002023
7.375000E-8	0.001897
7.380000E-8	0.001794
7.385000E-8	0.001783
7.390000E-8	0.001789
7.395000E-8	0.001870
7.400000E-8	0.001970
7.405000E-8	0.002078
7.410000E-8	0.002186
7.415000E-8	0.002292
7.420000E-8	0.002408
7.425000E-8	0.002488
7.430000E-8	0.002456
7.435000E-8	0.002495
7.440000E-8	0.002477
7.445000E-8	0.002492
7.450000E-8	0.002475
7.455000E-8	0.002417
7.460000E-8	0.002345
7.465000E-8	0.002311
7.470000E-8	0.002288
7.475000E-8	0.002278
7.480000E-8	0.002208
7.485000E-8	0.002228
7.490000E-8	0.002241
7.495000E-8	0.002317
7.500000E-8	0.002381
7.505000E-8	0.002452
7.510000E-8	0.002534
7.515000E-8	0.002575
7.520000E-8	0.002581
7.525000E-8	0.002597
7.530000E-8	0.002567
7.535000E-8	0.002548
7.540000E-8	0.002463
7.545000E-8	0.002402
7.550000E-8	0.002280
7.555000E-8	0.002203
7.560000E-8	0.002027
7.565000E-8	0.001944
7.570000E-8	0.001886
7.575000E-8	0.001852
7.580000E-8	0.001809
7.585000E-8	0.001781
7.590000E-8	0.001850
7.595000E-8	0.001969
7.600000E-8	0.002119
7.605000E-8	0.002288
7.610000E-8	0.002452
7.615000E-8	0.002620
7.620000E-8	0.002723
7.625000E-8	0.002800
7.630000E-8	0.002834
7.635000E-8	0.002794
7.640000E-8	0.002695
7.645000E-8	0.002467
7.650000E-8	0.002242
7.655000E-8	0.002047
7.660000E-8	0.001858
7.665000E-8	0.001800
7.670000E-8	0.001697
7.675000E-8	0.001661
7.680000E-8	0.001697
7.685000E-8	0.001811
7.690000E-8	0.001867
7.695000E-8	0.002050
7.700000E-8	0.002166
7.705000E-8	0.002244
7.710000E-8	0.002323
7.715000E-8	0.002425
7.720000E-8	0.002439
7.725000E-8	0.002478
7.730000E-8	0.002502
7.735000E-8	0.002527
7.740000E-8	0.002489
7.745000E-8	0.002519
7.750000E-8	0.002398
7.755000E-8	0.002388
7.760000E-8	0.002323
7.765000E-8	0.002280
7.770000E-8	0.002213
7.775000E-8	0.002162
7.780000E-8	0.002106
7.785000E-8	0.002133
7.790000E-8	0.002092
7.795000E-8	0.002053
7.800000E-8	0.002178
7.805000E-8	0.002186
7.810000E-8	0.002245
7.815000E-8	0.002280
7.820000E-8	0.002330
7.825000E-8	0.002342
7.830000E-8	0.002330
7.835000E-8	0.002453
7.840000E-8	0.002358
7.845000E-8	0.002330
7.850000E-8	0.002245
7.855000E-8	0.002192
7.860000E-8	0.002091
7.865000E-8	0.001980
7.870000E-8	0.001959
7.875000E-8	0.001914
7.880000E-8	0.001878
7.885000E-8	0.001972
7.890000E-8	0.002025
7.895000E-8	0.002131
7.900000E-8	0.002128
7.905000E-8	0.002220
7.910000E-8	0.002166
7.915000E-8	0.002183
7.920000E-8	0.002077
7.925000E-8	0.002145
7.930000E-8	0.002087
7.935000E-8	0.002047
7.940000E-8	0.001983
7.945000E-8	0.001959
7.950000E-8	0.001936
7.955000E-8	0.001859
7.960000E-8	0.001891
7.965000E-8	0.001838
7.970000E-8	0.001867
7.975000E-8	0.001847
7.980000E-8	0.001867
7.985000E-8	0.001909
7.990000E-8	0.001878
7.995000E-8	0.001894
8.000000E-8	0.001964
8.005000E-8	0.002108
8.010000E-8	0.002116
8.015000E-8	0.002141
8.020000E-8	0.002186
8.025000E-8	0.002230
8.030000E-8	0.002267
8.035000E-8	0.002266
8.040000E-8	0.002277
8.045000E-8	0.002278
8.050000E-8	0.002291
8.055000E-8	0.002344
8.060000E-8	0.002366
8.065000E-8	0.002359
8.070000E-8	0.002327
8.075000E-8	0.002377
8.080000E-8	0.002389
8.085000E-8	0.002383
8.090000E-8	0.002425
8.095000E-8	0.002514
8.100000E-8	0.002527
8.105000E-8	0.002591
8.110000E-8	0.002603
8.115000E-8	0.002636
8.120000E-8	0.002567
8.125000E-8	0.002522
8.130000E-8	0.002392
8.135000E-8	0.002292
8.140000E-8	0.002153
8.145000E-8	0.001988
8.150000E-8	0.001877
8.155000E-8	0.001753
8.160000E-8	0.001677
8.165000E-8	0.001692
8.170000E-8	0.001687
8.175000E-8	0.001769
8.180000E-8	0.001811
8.185000E-8	0.001936
8.190000E-8	0.001961
8.195000E-8	0.002066
8.200000E-8	0.002142
8.205000E-8	0.002133
8.210000E-8	0.002267
8.215000E-8	0.002317
8.220000E-8	0.002255
8.225000E-8	0.002380
8.230000E-8	0.002430
8.235000E-8	0.002445
8.240000E-8	0.002433
8.245000E-8	0.002358
8.250000E-8	0.002331
8.255000E-8	0.002363
8.260000E-8	0.002272
8.265000E-8	0.002230
8.270000E-8	0.002186
8.275000E-8	0.002177
8.280000E-8	0.002105
8.285000E-8	0.002003
8.290000E-8	0.001972
8.295000E-8	0.001972
8.300000E-8	0.002023
8.305000E-8	0.002061
8.310000E-8	0.002073
8.315000E-8	0.002077
8.320000E-8	0.002039
8.325000E-8	0.002044
8.330000E-8	0.002083
8.335000E-8	0.002006
8.340000E-8	0.002048
8.345000E-8	0.001997
8.350000E-8	0.001961
8.355000E-8	0.001997
8.360000E-8	0.002012
8.365000E-8	0.002073
8.370000E-8	0.002116
8.375000E-8	0.002241
8.380000E-8	0.002252
8.385000E-8	0.002402
8.390000E-8	0.002439
8.395000E-8	0.002484
8.400000E-8	0.002467
8.405000E-8	0.002434
8.410000E-8	0.002405
8.415000E-8	0.002323
8.420000E-8	0.002252
8.425000E-8	0.002162
8.430000E-8	0.002014
8.435000E-8	0.001981
8.440000E-8	0.001936
8.445000E-8	0.001945
8.450000E-8	0.001959
8.455000E-8	0.002027
8.460000E-8	0.002066
8.465000E-8	0.002169
8.470000E-8	0.002228
8.475000E-8	0.002272
8.480000E-8	0.002316
8.485000E-8	0.002334
8.490000E-8	0.002316
8.495000E-8	0.002358
8.500000E-8	0.002255
8.505000E-8	0.002195
8.510000E-8	0.002145
8.515000E-8	0.002063
8.520000E-8	0.002022
8.525000E-8	0.001995
8.530000E-8	0.001916
8.535000E-8	0.001942
8.540000E-8	0.001920
8.545000E-8	0.001948
8.550000E-8	0.001911
8.555000E-8	0.001953
8.560000E-8	0.002044
8.565000E-8	0.002156
8.570000E-8	0.002191
8.575000E-8	0.002227
8.580000E-8	0.002295
8.585000E-8	0.002327
8.590000E-8	0.002239
8.595000E-8	0.002225
8.600000E-8	0.002191
8.605000E-8	0.002066
8.610000E-8	0.002025
8.615000E-8	0.001948
8.620000E-8	0.001906
8.625000E-8	0.001909
8.630000E-8	0.001902
8.635000E-8	0.001942
8.640000E-8	0.002061
8.645000E-8	0.002111
8.650000E-8	0.002127
8.655000E-8	0.002222
8.660000E-8	0.002228
8.665000E-8	0.002178
8.670000E-8	0.002192
8.675000E-8	0.002200
8.680000E-8	0.002183
8.685000E-8	0.002195
8.690000E-8	0.002211
8.695000E-8	0.002297
8.700000E-8	0.002236
8.705000E-8	0.002309
8.710000E-8	0.002311
8.715000E-8	0.002270
8.720000E-8	0.002252
8.725000E-8	0.002248
8.730000E-8	0.002164
8.735000E-8	0.002136
8.740000E-8	0.002103
8.745000E-8	0.002102
8.750000E-8	0.002086
8.755000E-8	0.002106
8.760000E-8	0.002134
8.765000E-8	0.002200
8.770000E-8	0.002247
8.775000E-8	0.002255
8.780000E-8	0.002203
8.785000E-8	0.002227
8.790000E-8	0.002175
8.795000E-8	0.002153
8.800000E-8	0.002145
8.805000E-8	0.002141
8.810000E-8	0.002116
8.815000E-8	0.002070
8.820000E-8	0.002063
8.825000E-8	0.002073
8.830000E-8	0.002038
8.835000E-8	0.001994
8.840000E-8	0.002006
8.845000E-8	0.001978
8.850000E-8	0.002005
8.855000E-8	0.002075
8.860000E-8	0.002073
8.865000E-8	0.002067
8.870000E-8	0.002188
8.875000E-8	0.002269
8.880000E-8	0.002308
8.885000E-8	0.002456
8.890000E-8	0.002533
8.895000E-8	0.002572
8.900000E-8	0.002670
8.905000E-8	0.002680
8.910000E-8	0.002655
8.915000E-8	0.002653
8.920000E-8	0.002561
8.925000E-8	0.002527
8.930000E-8	0.002395
8.935000E-8	0.002333
8.940000E-8	0.002209
8.945000E-8	0.002150
8.950000E-8	0.001997
8.955000E-8	0.002039
8.960000E-8	0.002042
8.965000E-8	0.002059
8.970000E-8	0.002048
8.975000E-8	0.002145
8.980000E-8	0.002188
8.985000E-8	0.002237
8.990000E-8	0.002261
8.995000E-8	0.002323
9.000000E-8	0.002363
9.005000E-8	0.002416
9.010000E-8	0.002336
9.015000E-8	0.002366
9.020000E-8	0.002306
9.025000E-8	0.002272
9.030000E-8	0.002245
9.035000E-8	0.002197
9.040000E-8	0.002202
9.045000E-8	0.002166
9.050000E-8	0.002172
9.055000E-8	0.002180
9.060000E-8	0.002208
9.065000E-8	0.002183
9.070000E-8	0.002197
9.075000E-8	0.002214
9.080000E-8	0.002130
9.085000E-8	0.002191
9.090000E-8	0.002200
9.095000E-8	0.002148
9.100000E-8	0.002147
9.105000E-8	0.002141
9.110000E-8	0.002091
9.115000E-8	0.002167
9.120000E-8	0.002158
9.125000E-8	0.002227
9.130000E-8	0.002200
9.135000E-8	0.002198
9.140000E-8	0.002223
9.145000E-8	0.002208
9.150000E-8	0.002145
9.155000E-8	0.002123
9.160000E-8	0.002130
9.165000E-8	0.002048
9.170000E-8	0.002012
9.175000E-8	0.002031
9.180000E-8	0.002045
9.185000E-8	0.002059
9.190000E-8	0.002017
9.195000E-8	0.002117
9.200000E-8	0.002069
9.205000E-8	0.002150
9.210000E-8	0.002106
9.215000E-8	0.002008
9.220000E-8	0.001998
9.225000E-8	0.001986
9.230000E-8	0.001975
9.235000E-8	0.001950
9.240000E-8	0.002002
9.245000E-8	0.002028
9.250000E-8	0.002125
9.255000E-8	0.002167
9.260000E-8	0.002227
9.265000E-8	0.002311
9.270000E-8	0.002314
9.275000E-8	0.002364
9.280000E-8	0.002434
9.285000E-8	0.002419
9.290000E-8	0.002373
9.295000E-8	0.002330
9.300000E-8	0.002339
9.305000E-8	0.002266
9.310000E-8	0.002227
9.315000E-8	0.002188
9.320000E-8	0.002217
9.325000E-8	0.002144
9.330000E-8	0.002166
9.335000E-8	0.002203
9.340000E-8	0.002256
9.345000E-8	0.002284
9.350000E-8	0.002313
9.355000E-8	0.002373
9.360000E-8	0.002359
9.365000E-8	0.002388
9.370000E-8	0.002330
9.375000E-8	0.002295
9.380000E-8	0.002338
9.385000E-8	0.002281
9.390000E-8	0.002178
9.395000E-8	0.002242
9.400000E-8	0.002234
9.405000E-8	0.002219
9.410000E-8	0.002122
9.415000E-8	0.002150
9.420000E-8	0.002098
9.425000E-8	0.002055
9.430000E-8	0.002050
9.435000E-8	0.001989
9.440000E-8	0.002011
9.445000E-8	0.002058
9.450000E-8	0.002086
9.455000E-8	0.002206
9.460000E-8	0.002170
9.465000E-8	0.002223
9.470000E-8	0.002248
9.475000E-8	0.002284
9.480000E-8	0.002363
9.485000E-8	0.002416
9.490000E-8	0.002388
9.495000E-8	0.002325
9.500000E-8	0.002237
9.505000E-8	0.002186
9.510000E-8	0.002016
9.515000E-8	0.001977
9.520000E-8	0.001902
9.525000E-8	0.001841
9.530000E-8	0.001808
9.535000E-8	0.001886
9.540000E-8	0.001948
9.545000E-8	0.002069
9.550000E-8	0.002142
9.555000E-8	0.002219
9.560000E-8	0.002250
9.565000E-8	0.002288
9.570000E-8	0.002308
9.575000E-8	0.002341
9.580000E-8	0.002288
9.585000E-8	0.002237
9.590000E-8	0.002141
9.595000E-8	0.002136
9.600000E-8	0.002053
9.605000E-8	0.001936
9.610000E-8	0.001930
9.615000E-8	0.001880
9.620000E-8	0.001770
9.625000E-8	0.001741
9.630000E-8	0.001719
9.635000E-8	0.001798
9.640000E-8	0.001877
9.645000E-8	0.001969
9.650000E-8	0.002084
9.655000E-8	0.002244
9.660000E-8	0.002306
9.665000E-8	0.002367
9.670000E-8	0.002345
9.675000E-8	0.002444
9.680000E-8	0.002386
9.685000E-8	0.002334
9.690000E-8	0.002289
9.695000E-8	0.002192
9.700000E-8	0.002089
9.705000E-8	0.002109
9.710000E-8	0.002155
9.715000E-8	0.002148
9.720000E-8	0.002125
9.725000E-8	0.002277
9.730000E-8	0.002283
9.735000E-8	0.002344
9.740000E-8	0.002317
9.745000E-8	0.002336
9.750000E-8	0.002269
9.755000E-8	0.002211
9.760000E-8	0.002056
9.765000E-8	0.002020
9.770000E-8	0.001853
9.775000E-8	0.001817
9.780000E-8	0.001736
9.785000E-8	0.001706
9.790000E-8	0.001675
9.795000E-8	0.001733
9.800000E-8	0.001698
9.805000E-8	0.001773
9.810000E-8	0.001841
9.815000E-8	0.001900
9.820000E-8	0.001894
9.825000E-8	0.001909
9.830000E-8	0.001945
9.835000E-8	0.001984
9.840000E-8	0.001928
9.845000E-8	0.001966
9.850000E-8	0.001902
9.855000E-8	0.001973
9.860000E-8	0.001970
9.865000E-8	0.002086
9.870000E-8	0.002055
9.875000E-8	0.002159
9.880000E-8	0.002170
9.885000E-8	0.002248
9.890000E-8	0.002219
9.895000E-8	0.002175
9.900000E-8	0.002155
9.905000E-8	0.002120
9.910000E-8	0.002102
9.915000E-8	0.002091
9.920000E-8	0.002005
9.925000E-8	0.002039
9.930000E-8	0.002080
9.935000E-8	0.002162
9.940000E-8	0.002202
9.945000E-8	0.002303
9.950000E-8	0.002355
9.955000E-8	0.002437
9.960000E-8	0.002475
9.965000E-8	0.002541
9.970000E-8	0.002488
9.975000E-8	0.002489
9.980000E-8	0.002361
9.985000E-8	0.002286
9.990000E-8	0.002208
9.995000E-8	0.002202
