LabVIEW Measurement	
Writer_Version	2
Reader_Version	2
Separator	Tab
Decimal_Separator	.
Multi_Headings	No
X_Columns	Multi
Time_Pref	Relative
Operator	TG lab
Date	2015/03/06
Time	16:27:13.1953577995300292969
***End_of_Header***	
	
Channels	1	
Samples	2000	
Date	2015/03/06	
Time	16:27:13.1953577995300292969	
X_Dimension	Time	
X0	0.0000000000000000E+0	
Delta_X	5.000000E-11	
***End_of_Header***		
X_Value	Untitled	Comment
0.000000	0.002134
5.000000E-11	0.002153
1.000000E-10	0.002109
1.500000E-10	0.002131
2.000000E-10	0.002041
2.500000E-10	0.001975
3.000000E-10	0.001937
3.500000E-10	0.001975
4.000000E-10	0.001888
4.500000E-10	0.001925
5.000000E-10	0.001900
5.500000E-10	0.001906
6.000000E-10	0.002087
6.500000E-10	0.002116
7.000000E-10	0.002103
7.500000E-10	0.002237
8.000000E-10	0.002200
8.500000E-10	0.002316
9.000000E-10	0.002400
9.500000E-10	0.002394
1.000000E-9	0.002328
1.050000E-9	0.002291
1.100000E-9	0.002100
1.150000E-9	0.002019
1.200000E-9	0.002034
1.250000E-9	0.001947
1.300000E-9	0.001937
1.350000E-9	0.002000
1.400000E-9	0.002047
1.450000E-9	0.002125
1.500000E-9	0.002072
1.550000E-9	0.002131
1.600000E-9	0.002069
1.650000E-9	0.002016
1.700000E-9	0.001953
1.750000E-9	0.001953
1.800000E-9	0.001859
1.850000E-9	0.001969
1.900000E-9	0.001928
1.950000E-9	0.001931
2.000000E-9	0.001881
2.050000E-9	0.001841
2.100000E-9	0.001850
2.150000E-9	0.002041
2.200000E-9	0.002119
2.250000E-9	0.002091
2.300000E-9	0.002184
2.350000E-9	0.002359
2.400000E-9	0.002322
2.450000E-9	0.002300
2.500000E-9	0.002319
2.550000E-9	0.002222
2.600000E-9	0.002109
2.650000E-9	0.002091
2.700000E-9	0.002081
2.750000E-9	0.002066
2.800000E-9	0.002038
2.850000E-9	0.001972
2.900000E-9	0.001934
2.950000E-9	0.001859
3.000000E-9	0.001856
3.050000E-9	0.001900
3.100000E-9	0.001934
3.150000E-9	0.001959
3.200000E-9	0.001922
3.250000E-9	0.001956
3.300000E-9	0.001906
3.350000E-9	0.001897
3.400000E-9	0.001894
3.450000E-9	0.002025
3.500000E-9	0.002025
3.550000E-9	0.002009
3.600000E-9	0.002081
3.650000E-9	0.002141
3.700000E-9	0.002241
3.750000E-9	0.002119
3.800000E-9	0.002141
3.850000E-9	0.002234
3.900000E-9	0.002328
3.950000E-9	0.002384
4.000000E-9	0.002328
4.050000E-9	0.002306
4.100000E-9	0.002322
4.150000E-9	0.002353
4.200000E-9	0.002313
4.250000E-9	0.002275
4.300000E-9	0.002188
4.350000E-9	0.002256
4.400000E-9	0.002213
4.450000E-9	0.002241
4.500000E-9	0.002188
4.550000E-9	0.002281
4.600000E-9	0.002322
4.650000E-9	0.002434
4.700000E-9	0.002575
4.750000E-9	0.002706
4.800000E-9	0.002666
4.850000E-9	0.002763
4.900000E-9	0.002856
4.950000E-9	0.002834
5.000000E-9	0.002744
5.050000E-9	0.002694
5.100000E-9	0.002772
5.150000E-9	0.002659
5.200000E-9	0.002628
5.250000E-9	0.002616
5.300000E-9	0.002644
5.350000E-9	0.002659
5.400000E-9	0.002722
5.450000E-9	0.002841
5.500000E-9	0.002713
5.550000E-9	0.002822
5.600000E-9	0.002947
5.650000E-9	0.002869
5.700000E-9	0.002959
5.750000E-9	0.003081
5.800000E-9	0.003059
5.850000E-9	0.003078
5.900000E-9	0.002941
5.950000E-9	0.002994
6.000000E-9	0.003028
6.050000E-9	0.003006
6.100000E-9	0.003059
6.150000E-9	0.003047
6.200000E-9	0.003172
6.250000E-9	0.003184
6.300000E-9	0.002991
6.350000E-9	0.003116
6.400000E-9	0.003047
6.450000E-9	0.002988
6.500000E-9	0.002994
6.550000E-9	0.002919
6.600000E-9	0.002903
6.650000E-9	0.002956
6.700000E-9	0.002994
6.750000E-9	0.003106
6.800000E-9	0.003103
6.850000E-9	0.003247
6.900000E-9	0.003369
6.950000E-9	0.003572
7.000000E-9	0.003606
7.050000E-9	0.003962
7.100000E-9	0.004131
7.150000E-9	0.004425
7.200000E-9	0.004738
7.250000E-9	0.005203
7.300000E-9	0.005656
7.350000E-9	0.006231
7.400000E-9	0.006838
7.450000E-9	0.007747
7.500000E-9	0.008594
7.550000E-9	0.009588
7.600000E-9	0.010766
7.650000E-9	0.011991
7.700000E-9	0.013072
7.750000E-9	0.014372
7.800000E-9	0.015416
7.850000E-9	0.016419
7.900000E-9	0.017344
7.950000E-9	0.018313
8.000000E-9	0.019203
8.050000E-9	0.020100
8.100000E-9	0.021081
8.150000E-9	0.022309
8.200000E-9	0.023459
8.250000E-9	0.024681
8.300000E-9	0.025938
8.350000E-9	0.027000
8.400000E-9	0.027831
8.450000E-9	0.028488
8.500000E-9	0.028753
8.550000E-9	0.028597
8.600000E-9	0.027819
8.650000E-9	0.026659
8.700000E-9	0.025297
8.750000E-9	0.023647
8.800000E-9	0.021766
8.850000E-9	0.020113
8.900000E-9	0.018375
8.950000E-9	0.017119
9.000000E-9	0.015994
9.050000E-9	0.015334
9.100000E-9	0.015059
9.150000E-9	0.015363
9.200000E-9	0.015666
9.250000E-9	0.016219
9.300000E-9	0.016934
9.350000E-9	0.017494
9.400000E-9	0.017903
9.450000E-9	0.018056
9.500000E-9	0.017763
9.550000E-9	0.017269
9.600000E-9	0.016581
9.650000E-9	0.015503
9.700000E-9	0.014253
9.750000E-9	0.013009
9.800000E-9	0.011759
9.850000E-9	0.010719
9.900000E-9	0.009769
9.950000E-9	0.009169
1.000000E-8	0.008772
1.005000E-8	0.008756
1.010000E-8	0.008884
1.015000E-8	0.009328
1.020000E-8	0.009816
1.025000E-8	0.010350
1.030000E-8	0.010972
1.035000E-8	0.011481
1.040000E-8	0.011888
1.045000E-8	0.012041
1.050000E-8	0.011838
1.055000E-8	0.011584
1.060000E-8	0.011097
1.065000E-8	0.010350
1.070000E-8	0.009659
1.075000E-8	0.008712
1.080000E-8	0.007772
1.085000E-8	0.006978
1.090000E-8	0.006288
1.095000E-8	0.005884
1.100000E-8	0.005656
1.105000E-8	0.005691
1.110000E-8	0.005981
1.115000E-8	0.006444
1.120000E-8	0.006969
1.125000E-8	0.007463
1.130000E-8	0.008025
1.135000E-8	0.008509
1.140000E-8	0.008806
1.145000E-8	0.008706
1.150000E-8	0.008584
1.155000E-8	0.008244
1.160000E-8	0.007713
1.165000E-8	0.007059
1.170000E-8	0.006191
1.175000E-8	0.005350
1.180000E-8	0.004613
1.185000E-8	0.003941
1.190000E-8	0.003428
1.195000E-8	0.003138
1.200000E-8	0.002959
1.205000E-8	0.003141
1.210000E-8	0.003453
1.215000E-8	0.004028
1.220000E-8	0.004484
1.225000E-8	0.005194
1.230000E-8	0.005756
1.235000E-8	0.006175
1.240000E-8	0.006563
1.245000E-8	0.006709
1.250000E-8	0.006709
1.255000E-8	0.006509
1.260000E-8	0.005988
1.265000E-8	0.005469
1.270000E-8	0.004822
1.275000E-8	0.004156
1.280000E-8	0.003347
1.285000E-8	0.002909
1.290000E-8	0.002400
1.295000E-8	0.002225
1.300000E-8	0.002228
1.305000E-8	0.002297
1.310000E-8	0.002641
1.315000E-8	0.003184
1.320000E-8	0.003738
1.325000E-8	0.004381
1.330000E-8	0.004903
1.335000E-8	0.005397
1.340000E-8	0.005684
1.345000E-8	0.005931
1.350000E-8	0.005800
1.355000E-8	0.005638
1.360000E-8	0.005084
1.365000E-8	0.004559
1.370000E-8	0.003925
1.375000E-8	0.003250
1.380000E-8	0.002550
1.385000E-8	0.002038
1.390000E-8	0.001625
1.395000E-8	0.001538
1.400000E-8	0.001484
1.405000E-8	0.001684
1.410000E-8	0.002128
1.415000E-8	0.002737
1.420000E-8	0.003309
1.425000E-8	0.004031
1.430000E-8	0.004675
1.435000E-8	0.005122
1.440000E-8	0.005500
1.445000E-8	0.005659
1.450000E-8	0.005491
1.455000E-8	0.005100
1.460000E-8	0.004669
1.465000E-8	0.004066
1.470000E-8	0.003200
1.475000E-8	0.002425
1.480000E-8	0.001641
1.485000E-8	0.001156
1.490000E-8	0.000775
1.495000E-8	0.000678
1.500000E-8	0.000709
1.505000E-8	0.001056
1.510000E-8	0.001575
1.515000E-8	0.002263
1.520000E-8	0.002816
1.525000E-8	0.003622
1.530000E-8	0.004188
1.535000E-8	0.004662
1.540000E-8	0.004831
1.545000E-8	0.005006
1.550000E-8	0.004731
1.555000E-8	0.004281
1.560000E-8	0.003766
1.565000E-8	0.003156
1.570000E-8	0.002484
1.575000E-8	0.001863
1.580000E-8	0.001234
1.585000E-8	0.000813
1.590000E-8	0.000547
1.595000E-8	0.000616
1.600000E-8	0.000863
1.605000E-8	0.001334
1.610000E-8	0.001928
1.615000E-8	0.002788
1.620000E-8	0.003434
1.625000E-8	0.004169
1.630000E-8	0.004759
1.635000E-8	0.005256
1.640000E-8	0.005244
1.645000E-8	0.005116
1.650000E-8	0.004741
1.655000E-8	0.004216
1.660000E-8	0.003506
1.665000E-8	0.002784
1.670000E-8	0.002047
1.675000E-8	0.001522
1.680000E-8	0.001000
1.685000E-8	0.000747
1.690000E-8	0.000641
1.695000E-8	0.000919
1.700000E-8	0.001434
1.705000E-8	0.002041
1.710000E-8	0.002603
1.715000E-8	0.003341
1.720000E-8	0.003925
1.725000E-8	0.004378
1.730000E-8	0.004703
1.735000E-8	0.004869
1.740000E-8	0.004672
1.745000E-8	0.004409
1.750000E-8	0.003909
1.755000E-8	0.003138
1.760000E-8	0.002344
1.765000E-8	0.001609
1.770000E-8	0.001028
1.775000E-8	0.000553
1.780000E-8	0.000141
1.785000E-8	0.000125
1.790000E-8	0.000300
1.795000E-8	0.000675
1.800000E-8	0.001300
1.805000E-8	0.001959
1.810000E-8	0.002719
1.815000E-8	0.003369
1.820000E-8	0.003981
1.825000E-8	0.004494
1.830000E-8	0.004662
1.835000E-8	0.004672
1.840000E-8	0.004306
1.845000E-8	0.003878
1.850000E-8	0.003316
1.855000E-8	0.002609
1.860000E-8	0.001909
1.865000E-8	0.001278
1.870000E-8	0.000684
1.875000E-8	0.000497
1.880000E-8	0.000222
1.885000E-8	0.000425
1.890000E-8	0.000641
1.895000E-8	0.001116
1.900000E-8	0.001756
1.905000E-8	0.002481
1.910000E-8	0.003144
1.915000E-8	0.003856
1.920000E-8	0.004303
1.925000E-8	0.004550
1.930000E-8	0.004519
1.935000E-8	0.004381
1.940000E-8	0.004081
1.945000E-8	0.003631
1.950000E-8	0.003125
1.955000E-8	0.002516
1.960000E-8	0.001963
1.965000E-8	0.001425
1.970000E-8	0.001084
1.975000E-8	0.000856
1.980000E-8	0.000691
1.985000E-8	0.000791
1.990000E-8	0.001122
1.995000E-8	0.001459
2.000000E-8	0.002000
2.005000E-8	0.002559
2.010000E-8	0.003063
2.015000E-8	0.003572
2.020000E-8	0.003797
2.025000E-8	0.004134
2.030000E-8	0.004125
2.035000E-8	0.003944
2.040000E-8	0.003547
2.045000E-8	0.003100
2.050000E-8	0.002556
2.055000E-8	0.001947
2.060000E-8	0.001272
2.065000E-8	0.000863
2.070000E-8	0.000581
2.075000E-8	0.000463
2.080000E-8	0.000513
2.085000E-8	0.000709
2.090000E-8	0.001059
2.095000E-8	0.001612
2.100000E-8	0.002003
2.105000E-8	0.002516
2.110000E-8	0.003059
2.115000E-8	0.003469
2.120000E-8	0.003716
2.125000E-8	0.003934
2.130000E-8	0.003894
2.135000E-8	0.003675
2.140000E-8	0.003400
2.145000E-8	0.002972
2.150000E-8	0.002406
2.155000E-8	0.001928
2.160000E-8	0.001419
2.165000E-8	0.000969
2.170000E-8	0.000531
2.175000E-8	0.000350
2.180000E-8	0.000384
2.185000E-8	0.000556
2.190000E-8	0.000881
2.195000E-8	0.001384
2.200000E-8	0.001913
2.205000E-8	0.002466
2.210000E-8	0.003313
2.215000E-8	0.003781
2.220000E-8	0.004206
2.225000E-8	0.004309
2.230000E-8	0.004203
2.235000E-8	0.003931
2.240000E-8	0.003491
2.245000E-8	0.002972
2.250000E-8	0.002244
2.255000E-8	0.001575
2.260000E-8	0.001066
2.265000E-8	0.000703
2.270000E-8	0.000359
2.275000E-8	0.000466
2.280000E-8	0.000641
2.285000E-8	0.001147
2.290000E-8	0.001678
2.295000E-8	0.002469
2.300000E-8	0.002975
2.305000E-8	0.003556
2.310000E-8	0.004025
2.315000E-8	0.004387
2.320000E-8	0.004472
2.325000E-8	0.004466
2.330000E-8	0.004184
2.335000E-8	0.003678
2.340000E-8	0.003006
2.345000E-8	0.002303
2.350000E-8	0.001600
2.355000E-8	0.000975
2.360000E-8	0.000522
2.365000E-8	0.000278
2.370000E-8	0.000178
2.375000E-8	0.000381
2.380000E-8	0.000672
2.385000E-8	0.001172
2.390000E-8	0.001728
2.395000E-8	0.002469
2.400000E-8	0.003041
2.405000E-8	0.003594
2.410000E-8	0.003838
2.415000E-8	0.004081
2.420000E-8	0.004038
2.425000E-8	0.003859
2.430000E-8	0.003456
2.435000E-8	0.002953
2.440000E-8	0.002366
2.445000E-8	0.001678
2.450000E-8	0.001116
2.455000E-8	0.000650
2.460000E-8	0.000353
2.465000E-8	0.000213
2.470000E-8	0.000231
2.475000E-8	0.000438
2.480000E-8	0.000803
2.485000E-8	0.001284
2.490000E-8	0.001797
2.495000E-8	0.002481
2.500000E-8	0.003063
2.505000E-8	0.003512
2.510000E-8	0.003775
2.515000E-8	0.004034
2.520000E-8	0.003847
2.525000E-8	0.003734
2.530000E-8	0.003478
2.535000E-8	0.003016
2.540000E-8	0.002384
2.545000E-8	0.001847
2.550000E-8	0.001409
2.555000E-8	0.001091
2.560000E-8	0.000856
2.565000E-8	0.000838
2.570000E-8	0.000881
2.575000E-8	0.001088
2.580000E-8	0.001444
2.585000E-8	0.001972
2.590000E-8	0.002428
2.595000E-8	0.002922
2.600000E-8	0.003275
2.605000E-8	0.003591
2.610000E-8	0.003556
2.615000E-8	0.003606
2.620000E-8	0.003356
2.625000E-8	0.003234
2.630000E-8	0.002653
2.635000E-8	0.002259
2.640000E-8	0.001584
2.645000E-8	0.001156
2.650000E-8	0.000788
2.655000E-8	0.000553
2.660000E-8	0.000306
2.665000E-8	0.000406
2.670000E-8	0.000722
2.675000E-8	0.001191
2.680000E-8	0.001491
2.685000E-8	0.002063
2.690000E-8	0.002581
2.695000E-8	0.003091
2.700000E-8	0.003512
2.705000E-8	0.003831
2.710000E-8	0.003794
2.715000E-8	0.003691
2.720000E-8	0.003284
2.725000E-8	0.002956
2.730000E-8	0.002434
2.735000E-8	0.001919
2.740000E-8	0.001319
2.745000E-8	0.000863
2.750000E-8	0.000394
2.755000E-8	0.000287
2.760000E-8	0.000325
2.765000E-8	0.000428
2.770000E-8	0.000694
2.775000E-8	0.001072
2.780000E-8	0.001553
2.785000E-8	0.002184
2.790000E-8	0.002666
2.795000E-8	0.003156
2.800000E-8	0.003547
2.805000E-8	0.003872
2.810000E-8	0.003978
2.815000E-8	0.003925
2.820000E-8	0.003669
2.825000E-8	0.003141
2.830000E-8	0.002672
2.835000E-8	0.002162
2.840000E-8	0.001612
2.845000E-8	0.001159
2.850000E-8	0.000722
2.855000E-8	0.000684
2.860000E-8	0.000753
2.865000E-8	0.000922
2.870000E-8	0.001206
2.875000E-8	0.001606
2.880000E-8	0.002150
2.885000E-8	0.002613
2.890000E-8	0.003025
2.895000E-8	0.003450
2.900000E-8	0.003691
2.905000E-8	0.003869
2.910000E-8	0.003666
2.915000E-8	0.003525
2.920000E-8	0.003216
2.925000E-8	0.002759
2.930000E-8	0.002244
2.935000E-8	0.001731
2.940000E-8	0.001275
2.945000E-8	0.000950
2.950000E-8	0.000659
2.955000E-8	0.000713
2.960000E-8	0.000784
2.965000E-8	0.000981
2.970000E-8	0.001294
2.975000E-8	0.001738
2.980000E-8	0.002147
2.985000E-8	0.002697
2.990000E-8	0.003063
2.995000E-8	0.003325
3.000000E-8	0.003544
3.005000E-8	0.003600
3.010000E-8	0.003497
3.015000E-8	0.003466
3.020000E-8	0.002909
3.025000E-8	0.002550
3.030000E-8	0.002131
3.035000E-8	0.001734
3.040000E-8	0.001241
3.045000E-8	0.000894
3.050000E-8	0.000709
3.055000E-8	0.000600
3.060000E-8	0.000766
3.065000E-8	0.001041
3.070000E-8	0.001391
3.075000E-8	0.001856
3.080000E-8	0.002234
3.085000E-8	0.002800
3.090000E-8	0.003238
3.095000E-8	0.003491
3.100000E-8	0.003581
3.105000E-8	0.003491
3.110000E-8	0.003363
3.115000E-8	0.003106
3.120000E-8	0.002528
3.125000E-8	0.002172
3.130000E-8	0.001666
3.135000E-8	0.001322
3.140000E-8	0.000931
3.145000E-8	0.000778
3.150000E-8	0.000731
3.155000E-8	0.000888
3.160000E-8	0.001097
3.165000E-8	0.001534
3.170000E-8	0.001881
3.175000E-8	0.002356
3.180000E-8	0.002791
3.185000E-8	0.003144
3.190000E-8	0.003416
3.195000E-8	0.003566
3.200000E-8	0.003512
3.205000E-8	0.003463
3.210000E-8	0.003041
3.215000E-8	0.002863
3.220000E-8	0.002391
3.225000E-8	0.001806
3.230000E-8	0.001397
3.235000E-8	0.000944
3.240000E-8	0.000591
3.245000E-8	0.000537
3.250000E-8	0.000612
3.255000E-8	0.000916
3.260000E-8	0.001225
3.265000E-8	0.001691
3.270000E-8	0.002184
3.275000E-8	0.002731
3.280000E-8	0.003100
3.285000E-8	0.003444
3.290000E-8	0.003619
3.295000E-8	0.003666
3.300000E-8	0.003594
3.305000E-8	0.003378
3.310000E-8	0.003094
3.315000E-8	0.002613
3.320000E-8	0.002156
3.325000E-8	0.001741
3.330000E-8	0.001322
3.335000E-8	0.001012
3.340000E-8	0.000750
3.345000E-8	0.000722
3.350000E-8	0.000863
3.355000E-8	0.001222
3.360000E-8	0.001684
3.365000E-8	0.002028
3.370000E-8	0.002444
3.375000E-8	0.002947
3.380000E-8	0.003206
3.385000E-8	0.003400
3.390000E-8	0.003403
3.395000E-8	0.003363
3.400000E-8	0.003103
3.405000E-8	0.002838
3.410000E-8	0.002522
3.415000E-8	0.002162
3.420000E-8	0.001797
3.425000E-8	0.001541
3.430000E-8	0.001259
3.435000E-8	0.001203
3.440000E-8	0.001147
3.445000E-8	0.001253
3.450000E-8	0.001372
3.455000E-8	0.001584
3.460000E-8	0.001834
3.465000E-8	0.002213
3.470000E-8	0.002363
3.475000E-8	0.002609
3.480000E-8	0.002909
3.485000E-8	0.003169
3.490000E-8	0.003291
3.495000E-8	0.003159
3.500000E-8	0.003053
3.505000E-8	0.002850
3.510000E-8	0.002522
3.515000E-8	0.002113
3.520000E-8	0.001816
3.525000E-8	0.001625
3.530000E-8	0.001291
3.535000E-8	0.001278
3.540000E-8	0.001281
3.545000E-8	0.001275
3.550000E-8	0.001425
3.555000E-8	0.001675
3.560000E-8	0.001947
3.565000E-8	0.002300
3.570000E-8	0.002591
3.575000E-8	0.002913
3.580000E-8	0.003147
3.585000E-8	0.003372
3.590000E-8	0.003300
3.595000E-8	0.003178
3.600000E-8	0.003041
3.605000E-8	0.002750
3.610000E-8	0.002409
3.615000E-8	0.002097
3.620000E-8	0.001628
3.625000E-8	0.001272
3.630000E-8	0.001128
3.635000E-8	0.001088
3.640000E-8	0.001119
3.645000E-8	0.001278
3.650000E-8	0.001600
3.655000E-8	0.001925
3.660000E-8	0.002325
3.665000E-8	0.002688
3.670000E-8	0.002934
3.675000E-8	0.003384
3.680000E-8	0.003481
3.685000E-8	0.003647
3.690000E-8	0.003503
3.695000E-8	0.003369
3.700000E-8	0.003087
3.705000E-8	0.002694
3.710000E-8	0.002244
3.715000E-8	0.001834
3.720000E-8	0.001494
3.725000E-8	0.001275
3.730000E-8	0.001078
3.735000E-8	0.001047
3.740000E-8	0.001169
3.745000E-8	0.001384
3.750000E-8	0.001609
3.755000E-8	0.002091
3.760000E-8	0.002400
3.765000E-8	0.002866
3.770000E-8	0.003047
3.775000E-8	0.003297
3.780000E-8	0.003400
3.785000E-8	0.003344
3.790000E-8	0.003272
3.795000E-8	0.003175
3.800000E-8	0.002888
3.805000E-8	0.002522
3.810000E-8	0.002191
3.815000E-8	0.001753
3.820000E-8	0.001525
3.825000E-8	0.001275
3.830000E-8	0.001203
3.835000E-8	0.001216
3.840000E-8	0.001313
3.845000E-8	0.001481
3.850000E-8	0.001738
3.855000E-8	0.002237
3.860000E-8	0.002488
3.865000E-8	0.002866
3.870000E-8	0.003091
3.875000E-8	0.003281
3.880000E-8	0.003338
3.885000E-8	0.003422
3.890000E-8	0.003125
3.895000E-8	0.002769
3.900000E-8	0.002322
3.905000E-8	0.001947
3.910000E-8	0.001641
3.915000E-8	0.001375
3.920000E-8	0.001075
3.925000E-8	0.001109
3.930000E-8	0.001069
3.935000E-8	0.001178
3.940000E-8	0.001388
3.945000E-8	0.001644
3.950000E-8	0.001906
3.955000E-8	0.002250
3.960000E-8	0.002591
3.965000E-8	0.002934
3.970000E-8	0.003106
3.975000E-8	0.003178
3.980000E-8	0.003113
3.985000E-8	0.003166
3.990000E-8	0.002919
3.995000E-8	0.002566
4.000000E-8	0.002228
4.005000E-8	0.001969
4.010000E-8	0.001684
4.015000E-8	0.001594
4.020000E-8	0.001391
4.025000E-8	0.001328
4.030000E-8	0.001506
4.035000E-8	0.001734
4.040000E-8	0.001950
4.045000E-8	0.002344
4.050000E-8	0.002569
4.055000E-8	0.002869
4.060000E-8	0.003003
4.065000E-8	0.003194
4.070000E-8	0.003203
4.075000E-8	0.003306
4.080000E-8	0.003225
4.085000E-8	0.003012
4.090000E-8	0.002716
4.095000E-8	0.002553
4.100000E-8	0.002225
4.105000E-8	0.001850
4.110000E-8	0.001612
4.115000E-8	0.001459
4.120000E-8	0.001338
4.125000E-8	0.001266
4.130000E-8	0.001300
4.135000E-8	0.001372
4.140000E-8	0.001597
4.145000E-8	0.001784
4.150000E-8	0.002209
4.155000E-8	0.002444
4.160000E-8	0.002763
4.165000E-8	0.003022
4.170000E-8	0.003047
4.175000E-8	0.002916
4.180000E-8	0.002872
4.185000E-8	0.002713
4.190000E-8	0.002519
4.195000E-8	0.002178
4.200000E-8	0.001816
4.205000E-8	0.001522
4.210000E-8	0.001231
4.215000E-8	0.001241
4.220000E-8	0.001106
4.225000E-8	0.001203
4.230000E-8	0.001406
4.235000E-8	0.001678
4.240000E-8	0.001913
4.245000E-8	0.002184
4.250000E-8	0.002428
4.255000E-8	0.002794
4.260000E-8	0.002959
4.265000E-8	0.003106
4.270000E-8	0.003125
4.275000E-8	0.003144
4.280000E-8	0.002922
4.285000E-8	0.002775
4.290000E-8	0.002388
4.295000E-8	0.002125
4.300000E-8	0.001744
4.305000E-8	0.001566
4.310000E-8	0.001409
4.315000E-8	0.001306
4.320000E-8	0.001297
4.325000E-8	0.001378
4.330000E-8	0.001459
4.335000E-8	0.001684
4.340000E-8	0.001906
4.345000E-8	0.002134
4.350000E-8	0.002325
4.355000E-8	0.002578
4.360000E-8	0.002638
4.365000E-8	0.002731
4.370000E-8	0.002794
4.375000E-8	0.002772
4.380000E-8	0.002559
4.385000E-8	0.002281
4.390000E-8	0.002009
4.395000E-8	0.001872
4.400000E-8	0.001575
4.405000E-8	0.001506
4.410000E-8	0.001366
4.415000E-8	0.001294
4.420000E-8	0.001369
4.425000E-8	0.001612
4.430000E-8	0.001791
4.435000E-8	0.002038
4.440000E-8	0.002369
4.445000E-8	0.002606
4.450000E-8	0.002838
4.455000E-8	0.003031
4.460000E-8	0.003109
4.465000E-8	0.003144
4.470000E-8	0.002981
4.475000E-8	0.002856
4.480000E-8	0.002613
4.485000E-8	0.002347
4.490000E-8	0.001994
4.495000E-8	0.001934
4.500000E-8	0.001669
4.505000E-8	0.001453
4.510000E-8	0.001187
4.515000E-8	0.001247
4.520000E-8	0.001347
4.525000E-8	0.001550
4.530000E-8	0.001769
4.535000E-8	0.002116
4.540000E-8	0.002350
4.545000E-8	0.002603
4.550000E-8	0.002953
4.555000E-8	0.003141
4.560000E-8	0.003191
4.565000E-8	0.003244
4.570000E-8	0.003000
4.575000E-8	0.002809
4.580000E-8	0.002750
4.585000E-8	0.002494
4.590000E-8	0.002081
4.595000E-8	0.001831
4.600000E-8	0.001575
4.605000E-8	0.001463
4.610000E-8	0.001463
4.615000E-8	0.001547
4.620000E-8	0.001625
4.625000E-8	0.001828
4.630000E-8	0.002241
4.635000E-8	0.002503
4.640000E-8	0.002906
4.645000E-8	0.003156
4.650000E-8	0.003344
4.655000E-8	0.003444
4.660000E-8	0.003319
4.665000E-8	0.003281
4.670000E-8	0.003109
4.675000E-8	0.002775
4.680000E-8	0.002447
4.685000E-8	0.002106
4.690000E-8	0.001806
4.695000E-8	0.001691
4.700000E-8	0.001541
4.705000E-8	0.001384
4.710000E-8	0.001394
4.715000E-8	0.001506
4.720000E-8	0.001656
4.725000E-8	0.001847
4.730000E-8	0.002028
4.735000E-8	0.002244
4.740000E-8	0.002353
4.745000E-8	0.002578
4.750000E-8	0.002622
4.755000E-8	0.002766
4.760000E-8	0.002778
4.765000E-8	0.002737
4.770000E-8	0.002606
4.775000E-8	0.002453
4.780000E-8	0.002213
4.785000E-8	0.002025
4.790000E-8	0.001759
4.795000E-8	0.001663
4.800000E-8	0.001513
4.805000E-8	0.001475
4.810000E-8	0.001491
4.815000E-8	0.001728
4.820000E-8	0.001922
4.825000E-8	0.002200
4.830000E-8	0.002472
4.835000E-8	0.002753
4.840000E-8	0.002869
4.845000E-8	0.002966
4.850000E-8	0.003006
4.855000E-8	0.003056
4.860000E-8	0.002866
4.865000E-8	0.002734
4.870000E-8	0.002416
4.875000E-8	0.002244
4.880000E-8	0.001944
4.885000E-8	0.001838
4.890000E-8	0.001763
4.895000E-8	0.001638
4.900000E-8	0.001522
4.905000E-8	0.001544
4.910000E-8	0.001625
4.915000E-8	0.001775
4.920000E-8	0.001981
4.925000E-8	0.002181
4.930000E-8	0.002378
4.935000E-8	0.002691
4.940000E-8	0.002859
4.945000E-8	0.002856
4.950000E-8	0.002875
4.955000E-8	0.002903
4.960000E-8	0.002794
4.965000E-8	0.002594
4.970000E-8	0.002441
4.975000E-8	0.002353
4.980000E-8	0.002038
4.985000E-8	0.001925
4.990000E-8	0.001853
4.995000E-8	0.001750
5.000000E-8	0.001719
5.005000E-8	0.001784
5.010000E-8	0.001825
5.015000E-8	0.001906
5.020000E-8	0.002087
5.025000E-8	0.002216
5.030000E-8	0.002403
5.035000E-8	0.002538
5.040000E-8	0.002678
5.045000E-8	0.002813
5.050000E-8	0.002728
5.055000E-8	0.002822
5.060000E-8	0.002756
5.065000E-8	0.002534
5.070000E-8	0.002325
5.075000E-8	0.002153
5.080000E-8	0.001966
5.085000E-8	0.001819
5.090000E-8	0.001647
5.095000E-8	0.001603
5.100000E-8	0.001403
5.105000E-8	0.001541
5.110000E-8	0.001594
5.115000E-8	0.001884
5.120000E-8	0.002075
5.125000E-8	0.002291
5.130000E-8	0.002437
5.135000E-8	0.002666
5.140000E-8	0.002853
5.145000E-8	0.002872
5.150000E-8	0.002838
5.155000E-8	0.002725
5.160000E-8	0.002631
5.165000E-8	0.002531
5.170000E-8	0.002319
5.175000E-8	0.002153
5.180000E-8	0.001906
5.185000E-8	0.001722
5.190000E-8	0.001463
5.195000E-8	0.001428
5.200000E-8	0.001328
5.205000E-8	0.001425
5.210000E-8	0.001700
5.215000E-8	0.001919
5.220000E-8	0.002087
5.225000E-8	0.002306
5.230000E-8	0.002541
5.235000E-8	0.002856
5.240000E-8	0.002863
5.245000E-8	0.002903
5.250000E-8	0.002825
5.255000E-8	0.002750
5.260000E-8	0.002484
5.265000E-8	0.002197
5.270000E-8	0.002006
5.275000E-8	0.001809
5.280000E-8	0.001528
5.285000E-8	0.001578
5.290000E-8	0.001472
5.295000E-8	0.001531
5.300000E-8	0.001603
5.305000E-8	0.001859
5.310000E-8	0.002031
5.315000E-8	0.002231
5.320000E-8	0.002472
5.325000E-8	0.002587
5.330000E-8	0.002684
5.335000E-8	0.002719
5.340000E-8	0.002759
5.345000E-8	0.002819
5.350000E-8	0.002753
5.355000E-8	0.002591
5.360000E-8	0.002397
5.365000E-8	0.002053
5.370000E-8	0.001888
5.375000E-8	0.001813
5.380000E-8	0.001684
5.385000E-8	0.001684
5.390000E-8	0.001691
5.395000E-8	0.001734
5.400000E-8	0.001822
5.405000E-8	0.001928
5.410000E-8	0.002184
5.415000E-8	0.002400
5.420000E-8	0.002603
5.425000E-8	0.002875
5.430000E-8	0.002959
5.435000E-8	0.003000
5.440000E-8	0.003031
5.445000E-8	0.003038
5.450000E-8	0.002800
5.455000E-8	0.002659
5.460000E-8	0.002466
5.465000E-8	0.002259
5.470000E-8	0.001937
5.475000E-8	0.001656
5.480000E-8	0.001497
5.485000E-8	0.001341
5.490000E-8	0.001419
5.495000E-8	0.001463
5.500000E-8	0.001647
5.505000E-8	0.001775
5.510000E-8	0.002131
5.515000E-8	0.002388
5.520000E-8	0.002591
5.525000E-8	0.002741
5.530000E-8	0.002863
5.535000E-8	0.002997
5.540000E-8	0.002978
5.545000E-8	0.002897
5.550000E-8	0.002666
5.555000E-8	0.002459
5.560000E-8	0.002191
5.565000E-8	0.001953
5.570000E-8	0.001625
5.575000E-8	0.001519
5.580000E-8	0.001388
5.585000E-8	0.001388
5.590000E-8	0.001519
5.595000E-8	0.001616
5.600000E-8	0.001813
5.605000E-8	0.002084
5.610000E-8	0.002203
5.615000E-8	0.002472
5.620000E-8	0.002453
5.625000E-8	0.002594
5.630000E-8	0.002581
5.635000E-8	0.002547
5.640000E-8	0.002509
5.645000E-8	0.002456
5.650000E-8	0.002366
5.655000E-8	0.002191
5.660000E-8	0.002034
5.665000E-8	0.001950
5.670000E-8	0.001728
5.675000E-8	0.001709
5.680000E-8	0.001678
5.685000E-8	0.001719
5.690000E-8	0.001734
5.695000E-8	0.001797
5.700000E-8	0.001875
5.705000E-8	0.002184
5.710000E-8	0.002297
5.715000E-8	0.002394
5.720000E-8	0.002566
5.725000E-8	0.002597
5.730000E-8	0.002678
5.735000E-8	0.002641
5.740000E-8	0.002506
5.745000E-8	0.002497
5.750000E-8	0.002356
5.755000E-8	0.002269
5.760000E-8	0.002100
5.765000E-8	0.001972
5.770000E-8	0.001866
5.775000E-8	0.001872
5.780000E-8	0.001828
5.785000E-8	0.001963
5.790000E-8	0.001906
5.795000E-8	0.002028
5.800000E-8	0.002109
5.805000E-8	0.002272
5.810000E-8	0.002331
5.815000E-8	0.002478
5.820000E-8	0.002544
5.825000E-8	0.002622
5.830000E-8	0.002500
5.835000E-8	0.002409
5.840000E-8	0.002297
5.845000E-8	0.002269
5.850000E-8	0.001988
5.855000E-8	0.001738
5.860000E-8	0.001663
5.865000E-8	0.001475
5.870000E-8	0.001453
5.875000E-8	0.001569
5.880000E-8	0.001553
5.885000E-8	0.001641
5.890000E-8	0.001903
5.895000E-8	0.002063
5.900000E-8	0.002147
5.905000E-8	0.002394
5.910000E-8	0.002366
5.915000E-8	0.002441
5.920000E-8	0.002297
5.925000E-8	0.002272
5.930000E-8	0.002194
5.935000E-8	0.002081
5.940000E-8	0.001928
5.945000E-8	0.001875
5.950000E-8	0.001750
5.955000E-8	0.001750
5.960000E-8	0.001766
5.965000E-8	0.001744
5.970000E-8	0.001841
5.975000E-8	0.001903
5.980000E-8	0.002038
5.985000E-8	0.002150
5.990000E-8	0.002241
5.995000E-8	0.002406
6.000000E-8	0.002609
6.005000E-8	0.002784
6.010000E-8	0.002875
6.015000E-8	0.002947
6.020000E-8	0.002925
6.025000E-8	0.003097
6.030000E-8	0.003038
6.035000E-8	0.002963
6.040000E-8	0.002666
6.045000E-8	0.002500
6.050000E-8	0.002341
6.055000E-8	0.002278
6.060000E-8	0.002156
6.065000E-8	0.002184
6.070000E-8	0.002075
6.075000E-8	0.002138
6.080000E-8	0.002116
6.085000E-8	0.002237
6.090000E-8	0.002338
6.095000E-8	0.002484
6.100000E-8	0.002634
6.105000E-8	0.002703
6.110000E-8	0.002856
6.115000E-8	0.002869
6.120000E-8	0.002828
6.125000E-8	0.002684
6.130000E-8	0.002494
6.135000E-8	0.002397
6.140000E-8	0.002134
6.145000E-8	0.002059
6.150000E-8	0.001778
6.155000E-8	0.001559
6.160000E-8	0.001391
6.165000E-8	0.001419
6.170000E-8	0.001456
6.175000E-8	0.001644
6.180000E-8	0.001672
6.185000E-8	0.001813
6.190000E-8	0.001872
6.195000E-8	0.002209
6.200000E-8	0.002322
6.205000E-8	0.002344
6.210000E-8	0.002528
6.215000E-8	0.002509
6.220000E-8	0.002463
6.225000E-8	0.002388
6.230000E-8	0.002275
6.235000E-8	0.002266
6.240000E-8	0.002016
6.245000E-8	0.001934
6.250000E-8	0.001797
6.255000E-8	0.001806
6.260000E-8	0.001672
6.265000E-8	0.001691
6.270000E-8	0.001713
6.275000E-8	0.001763
6.280000E-8	0.001734
6.285000E-8	0.001916
6.290000E-8	0.001978
6.295000E-8	0.002128
6.300000E-8	0.002225
6.305000E-8	0.002381
6.310000E-8	0.002469
6.315000E-8	0.002584
6.320000E-8	0.002613
6.325000E-8	0.002638
6.330000E-8	0.002619
6.335000E-8	0.002497
6.340000E-8	0.002400
6.345000E-8	0.002363
6.350000E-8	0.002200
6.355000E-8	0.002184
6.360000E-8	0.002063
6.365000E-8	0.002078
6.370000E-8	0.002066
6.375000E-8	0.002169
6.380000E-8	0.002138
6.385000E-8	0.002159
6.390000E-8	0.002272
6.395000E-8	0.002353
6.400000E-8	0.002372
6.405000E-8	0.002428
6.410000E-8	0.002284
6.415000E-8	0.002388
6.420000E-8	0.002375
6.425000E-8	0.002313
6.430000E-8	0.002197
6.435000E-8	0.002072
6.440000E-8	0.001972
6.445000E-8	0.001884
6.450000E-8	0.001719
6.455000E-8	0.001738
6.460000E-8	0.001656
6.465000E-8	0.001622
6.470000E-8	0.001725
6.475000E-8	0.001781
6.480000E-8	0.001819
6.485000E-8	0.001897
6.490000E-8	0.002056
6.495000E-8	0.002141
6.500000E-8	0.002094
6.505000E-8	0.002191
6.510000E-8	0.002222
6.515000E-8	0.002225
6.520000E-8	0.002203
6.525000E-8	0.002106
6.530000E-8	0.001963
6.535000E-8	0.001784
6.540000E-8	0.001713
6.545000E-8	0.001663
6.550000E-8	0.001488
6.555000E-8	0.001494
6.560000E-8	0.001588
6.565000E-8	0.001556
6.570000E-8	0.001641
6.575000E-8	0.001728
6.580000E-8	0.001925
6.585000E-8	0.002159
6.590000E-8	0.002391
6.595000E-8	0.002553
6.600000E-8	0.002566
6.605000E-8	0.002638
6.610000E-8	0.002563
6.615000E-8	0.002600
6.620000E-8	0.002512
6.625000E-8	0.002356
6.630000E-8	0.002184
6.635000E-8	0.002103
6.640000E-8	0.001988
6.645000E-8	0.001944
6.650000E-8	0.001822
6.655000E-8	0.001844
6.660000E-8	0.001931
6.665000E-8	0.002159
6.670000E-8	0.002203
6.675000E-8	0.002366
6.680000E-8	0.002419
6.685000E-8	0.002575
6.690000E-8	0.002675
6.695000E-8	0.002688
6.700000E-8	0.002638
6.705000E-8	0.002603
6.710000E-8	0.002406
6.715000E-8	0.002303
6.720000E-8	0.002178
6.725000E-8	0.002063
6.730000E-8	0.002072
6.735000E-8	0.002000
6.740000E-8	0.001925
6.745000E-8	0.001988
6.750000E-8	0.002044
6.755000E-8	0.002047
6.760000E-8	0.001969
6.765000E-8	0.002097
6.770000E-8	0.002156
6.775000E-8	0.002178
6.780000E-8	0.002247
6.785000E-8	0.002294
6.790000E-8	0.002313
6.795000E-8	0.002356
6.800000E-8	0.002425
6.805000E-8	0.002444
6.810000E-8	0.002413
6.815000E-8	0.002350
6.820000E-8	0.002375
6.825000E-8	0.002253
6.830000E-8	0.002162
6.835000E-8	0.002134
6.840000E-8	0.002084
6.845000E-8	0.002009
6.850000E-8	0.001969
6.855000E-8	0.001913
6.860000E-8	0.002056
6.865000E-8	0.002097
6.870000E-8	0.002047
6.875000E-8	0.002166
6.880000E-8	0.002141
6.885000E-8	0.002253
6.890000E-8	0.002316
6.895000E-8	0.002419
6.900000E-8	0.002409
6.905000E-8	0.002503
6.910000E-8	0.002531
6.915000E-8	0.002466
6.920000E-8	0.002425
6.925000E-8	0.002334
6.930000E-8	0.002316
6.935000E-8	0.002188
6.940000E-8	0.002138
6.945000E-8	0.002081
6.950000E-8	0.002028
6.955000E-8	0.002009
6.960000E-8	0.001950
6.965000E-8	0.001931
6.970000E-8	0.001997
6.975000E-8	0.002225
6.980000E-8	0.002188
6.985000E-8	0.002272
6.990000E-8	0.002425
6.995000E-8	0.002512
7.000000E-8	0.002400
7.005000E-8	0.002425
7.010000E-8	0.002353
7.015000E-8	0.002297
7.020000E-8	0.002175
7.025000E-8	0.002113
7.030000E-8	0.001994
7.035000E-8	0.002000
7.040000E-8	0.001831
7.045000E-8	0.001781
7.050000E-8	0.001834
7.055000E-8	0.001875
7.060000E-8	0.002072
7.065000E-8	0.002172
7.070000E-8	0.002284
7.075000E-8	0.002437
7.080000E-8	0.002431
7.085000E-8	0.002484
7.090000E-8	0.002441
7.095000E-8	0.002512
7.100000E-8	0.002394
7.105000E-8	0.002378
7.110000E-8	0.002241
7.115000E-8	0.002138
7.120000E-8	0.002072
7.125000E-8	0.002047
7.130000E-8	0.001906
7.135000E-8	0.001863
7.140000E-8	0.001841
7.145000E-8	0.001966
7.150000E-8	0.001950
7.155000E-8	0.002044
7.160000E-8	0.002194
7.165000E-8	0.002228
7.170000E-8	0.002216
7.175000E-8	0.002237
7.180000E-8	0.002256
7.185000E-8	0.002247
7.190000E-8	0.002141
7.195000E-8	0.002247
7.200000E-8	0.002191
7.205000E-8	0.002209
7.210000E-8	0.002106
7.215000E-8	0.001997
7.220000E-8	0.001884
7.225000E-8	0.002053
7.230000E-8	0.001906
7.235000E-8	0.001894
7.240000E-8	0.001947
7.245000E-8	0.002003
7.250000E-8	0.001891
7.255000E-8	0.001925
7.260000E-8	0.001981
7.265000E-8	0.002128
7.270000E-8	0.002184
7.275000E-8	0.002325
7.280000E-8	0.002247
7.285000E-8	0.002269
7.290000E-8	0.002334
7.295000E-8	0.002225
7.300000E-8	0.002172
7.305000E-8	0.002228
7.310000E-8	0.002063
7.315000E-8	0.001984
7.320000E-8	0.001881
7.325000E-8	0.001834
7.330000E-8	0.001744
7.335000E-8	0.001694
7.340000E-8	0.001731
7.345000E-8	0.001856
7.350000E-8	0.001834
7.355000E-8	0.001897
7.360000E-8	0.002050
7.365000E-8	0.002109
7.370000E-8	0.002197
7.375000E-8	0.002197
7.380000E-8	0.002331
7.385000E-8	0.002506
7.390000E-8	0.002463
7.395000E-8	0.002319
7.400000E-8	0.002231
7.405000E-8	0.002400
7.410000E-8	0.002191
7.415000E-8	0.002275
7.420000E-8	0.002200
7.425000E-8	0.002313
7.430000E-8	0.002263
7.435000E-8	0.002278
7.440000E-8	0.002391
7.445000E-8	0.002413
7.450000E-8	0.002503
7.455000E-8	0.002672
7.460000E-8	0.002609
7.465000E-8	0.002716
7.470000E-8	0.002678
7.475000E-8	0.002750
7.480000E-8	0.002678
7.485000E-8	0.002638
7.490000E-8	0.002587
7.495000E-8	0.002506
7.500000E-8	0.002241
7.505000E-8	0.002253
7.510000E-8	0.002081
7.515000E-8	0.001972
7.520000E-8	0.001869
7.525000E-8	0.001788
7.530000E-8	0.001681
7.535000E-8	0.001722
7.540000E-8	0.001731
7.545000E-8	0.001884
7.550000E-8	0.001966
7.555000E-8	0.002181
7.560000E-8	0.002234
7.565000E-8	0.002397
7.570000E-8	0.002441
7.575000E-8	0.002447
7.580000E-8	0.002528
7.585000E-8	0.002484
7.590000E-8	0.002322
7.595000E-8	0.002366
7.600000E-8	0.002131
7.605000E-8	0.002078
7.610000E-8	0.001934
7.615000E-8	0.001925
7.620000E-8	0.001959
7.625000E-8	0.002059
7.630000E-8	0.001997
7.635000E-8	0.001981
7.640000E-8	0.002059
7.645000E-8	0.002153
7.650000E-8	0.002253
7.655000E-8	0.002206
7.660000E-8	0.002291
7.665000E-8	0.002328
7.670000E-8	0.002334
7.675000E-8	0.002263
7.680000E-8	0.002153
7.685000E-8	0.002178
7.690000E-8	0.002153
7.695000E-8	0.002134
7.700000E-8	0.002047
7.705000E-8	0.001972
7.710000E-8	0.001963
7.715000E-8	0.002034
7.720000E-8	0.002100
7.725000E-8	0.002131
7.730000E-8	0.002119
7.735000E-8	0.002263
7.740000E-8	0.002394
7.745000E-8	0.002506
7.750000E-8	0.002619
7.755000E-8	0.002581
7.760000E-8	0.002506
7.765000E-8	0.002578
7.770000E-8	0.002484
7.775000E-8	0.002444
7.780000E-8	0.002434
7.785000E-8	0.002284
7.790000E-8	0.002263
7.795000E-8	0.002244
7.800000E-8	0.002059
7.805000E-8	0.002100
7.810000E-8	0.002031
7.815000E-8	0.002003
7.820000E-8	0.001953
7.825000E-8	0.001903
7.830000E-8	0.001897
7.835000E-8	0.001975
7.840000E-8	0.001934
7.845000E-8	0.002044
7.850000E-8	0.002122
7.855000E-8	0.002250
7.860000E-8	0.002331
7.865000E-8	0.002416
7.870000E-8	0.002519
7.875000E-8	0.002512
7.880000E-8	0.002469
7.885000E-8	0.002481
7.890000E-8	0.002344
7.895000E-8	0.002281
7.900000E-8	0.002078
7.905000E-8	0.002044
7.910000E-8	0.001934
7.915000E-8	0.002028
7.920000E-8	0.002038
7.925000E-8	0.002059
7.930000E-8	0.002034
7.935000E-8	0.002181
7.940000E-8	0.002125
7.945000E-8	0.002150
7.950000E-8	0.002153
7.955000E-8	0.002066
7.960000E-8	0.002038
7.965000E-8	0.001984
7.970000E-8	0.002019
7.975000E-8	0.002053
7.980000E-8	0.002097
7.985000E-8	0.002203
7.990000E-8	0.002247
7.995000E-8	0.002388
8.000000E-8	0.002328
8.005000E-8	0.002275
8.010000E-8	0.002322
8.015000E-8	0.002313
8.020000E-8	0.002244
8.025000E-8	0.002284
8.030000E-8	0.002300
8.035000E-8	0.002234
8.040000E-8	0.002184
8.045000E-8	0.002200
8.050000E-8	0.002219
8.055000E-8	0.002122
8.060000E-8	0.002162
8.065000E-8	0.002222
8.070000E-8	0.002125
8.075000E-8	0.002197
8.080000E-8	0.002119
8.085000E-8	0.002172
8.090000E-8	0.002075
8.095000E-8	0.001972
8.100000E-8	0.001950
8.105000E-8	0.001838
8.110000E-8	0.001784
8.115000E-8	0.001856
8.120000E-8	0.001759
8.125000E-8	0.001856
8.130000E-8	0.001838
8.135000E-8	0.001863
8.140000E-8	0.002103
8.145000E-8	0.002200
8.150000E-8	0.002328
8.155000E-8	0.002463
8.160000E-8	0.002431
8.165000E-8	0.002366
8.170000E-8	0.002403
8.175000E-8	0.002403
8.180000E-8	0.002234
8.185000E-8	0.002100
8.190000E-8	0.002113
8.195000E-8	0.002072
8.200000E-8	0.001903
8.205000E-8	0.001806
8.210000E-8	0.001913
8.215000E-8	0.001988
8.220000E-8	0.001956
8.225000E-8	0.001894
8.230000E-8	0.002056
8.235000E-8	0.002069
8.240000E-8	0.002081
8.245000E-8	0.002209
8.250000E-8	0.002191
8.255000E-8	0.002125
8.260000E-8	0.002184
8.265000E-8	0.002169
8.270000E-8	0.002094
8.275000E-8	0.002087
8.280000E-8	0.002119
8.285000E-8	0.002022
8.290000E-8	0.001997
8.295000E-8	0.002038
8.300000E-8	0.001953
8.305000E-8	0.002022
8.310000E-8	0.002156
8.315000E-8	0.002253
8.320000E-8	0.002353
8.325000E-8	0.002344
8.330000E-8	0.002388
8.335000E-8	0.002534
8.340000E-8	0.002547
8.345000E-8	0.002550
8.350000E-8	0.002575
8.355000E-8	0.002581
8.360000E-8	0.002544
8.365000E-8	0.002581
8.370000E-8	0.002516
8.375000E-8	0.002497
8.380000E-8	0.002334
8.385000E-8	0.002128
8.390000E-8	0.002006
8.395000E-8	0.002000
8.400000E-8	0.001931
8.405000E-8	0.001913
8.410000E-8	0.001941
8.415000E-8	0.001959
8.420000E-8	0.001934
8.425000E-8	0.002006
8.430000E-8	0.002156
8.435000E-8	0.002247
8.440000E-8	0.002228
8.445000E-8	0.002356
8.450000E-8	0.002331
8.455000E-8	0.002431
8.460000E-8	0.002450
8.465000E-8	0.002378
8.470000E-8	0.002231
8.475000E-8	0.002059
8.480000E-8	0.001981
8.485000E-8	0.001959
8.490000E-8	0.001884
8.495000E-8	0.001888
8.500000E-8	0.001831
8.505000E-8	0.001859
8.510000E-8	0.001819
8.515000E-8	0.001925
8.520000E-8	0.001969
8.525000E-8	0.001991
8.530000E-8	0.001975
8.535000E-8	0.002166
8.540000E-8	0.002113
8.545000E-8	0.002209
8.550000E-8	0.002175
8.555000E-8	0.002259
8.560000E-8	0.002162
8.565000E-8	0.002172
8.570000E-8	0.002144
8.575000E-8	0.002188
8.580000E-8	0.002150
8.585000E-8	0.002153
8.590000E-8	0.002213
8.595000E-8	0.002225
8.600000E-8	0.002228
8.605000E-8	0.002241
8.610000E-8	0.002231
8.615000E-8	0.002144
8.620000E-8	0.002047
8.625000E-8	0.002047
8.630000E-8	0.001944
8.635000E-8	0.001947
8.640000E-8	0.001953
8.645000E-8	0.002016
8.650000E-8	0.001956
8.655000E-8	0.002122
8.660000E-8	0.002003
8.665000E-8	0.002053
8.670000E-8	0.002038
8.675000E-8	0.002044
8.680000E-8	0.001953
8.685000E-8	0.002003
8.690000E-8	0.001981
8.695000E-8	0.001963
8.700000E-8	0.001991
8.705000E-8	0.001984
8.710000E-8	0.001978
8.715000E-8	0.001981
8.720000E-8	0.001844
8.725000E-8	0.001913
8.730000E-8	0.001891
8.735000E-8	0.001869
8.740000E-8	0.001884
8.745000E-8	0.001866
8.750000E-8	0.001928
8.755000E-8	0.001944
8.760000E-8	0.001869
8.765000E-8	0.001909
8.770000E-8	0.001972
8.775000E-8	0.002056
8.780000E-8	0.001956
8.785000E-8	0.002003
8.790000E-8	0.001931
8.795000E-8	0.002069
8.800000E-8	0.001975
8.805000E-8	0.002081
8.810000E-8	0.001956
8.815000E-8	0.001975
8.820000E-8	0.001941
8.825000E-8	0.001981
8.830000E-8	0.001834
8.835000E-8	0.001922
8.840000E-8	0.001884
8.845000E-8	0.001841
8.850000E-8	0.001875
8.855000E-8	0.001881
8.860000E-8	0.001847
8.865000E-8	0.001959
8.870000E-8	0.001922
8.875000E-8	0.001991
8.880000E-8	0.002019
8.885000E-8	0.002072
8.890000E-8	0.002006
8.895000E-8	0.002075
8.900000E-8	0.002034
8.905000E-8	0.002134
8.910000E-8	0.002116
8.915000E-8	0.002097
8.920000E-8	0.002119
8.925000E-8	0.002259
8.930000E-8	0.002197
8.935000E-8	0.002159
8.940000E-8	0.002100
8.945000E-8	0.002069
8.950000E-8	0.002150
8.955000E-8	0.002134
8.960000E-8	0.001994
8.965000E-8	0.002078
8.970000E-8	0.002119
8.975000E-8	0.001919
8.980000E-8	0.001888
8.985000E-8	0.001863
8.990000E-8	0.001838
8.995000E-8	0.001922
9.000000E-8	0.001959
9.005000E-8	0.002012
9.010000E-8	0.002022
9.015000E-8	0.002169
9.020000E-8	0.002209
9.025000E-8	0.002300
9.030000E-8	0.002206
9.035000E-8	0.002197
9.040000E-8	0.002369
9.045000E-8	0.002322
9.050000E-8	0.002234
9.055000E-8	0.002256
9.060000E-8	0.002228
9.065000E-8	0.002319
9.070000E-8	0.002263
9.075000E-8	0.002244
9.080000E-8	0.002197
9.085000E-8	0.002275
9.090000E-8	0.002291
9.095000E-8	0.002291
9.100000E-8	0.002284
9.105000E-8	0.002369
9.110000E-8	0.002353
9.115000E-8	0.002344
9.120000E-8	0.002259
9.125000E-8	0.002447
9.130000E-8	0.002484
9.135000E-8	0.002409
9.140000E-8	0.002384
9.145000E-8	0.002406
9.150000E-8	0.002334
9.155000E-8	0.002344
9.160000E-8	0.002294
9.165000E-8	0.002172
9.170000E-8	0.002116
9.175000E-8	0.002072
9.180000E-8	0.001959
9.185000E-8	0.001913
9.190000E-8	0.001963
9.195000E-8	0.002016
9.200000E-8	0.002066
9.205000E-8	0.001991
9.210000E-8	0.002034
9.215000E-8	0.002000
9.220000E-8	0.001981
9.225000E-8	0.002031
9.230000E-8	0.002072
9.235000E-8	0.002128
9.240000E-8	0.002184
9.245000E-8	0.002200
9.250000E-8	0.002244
9.255000E-8	0.002303
9.260000E-8	0.002241
9.265000E-8	0.002275
9.270000E-8	0.002197
9.275000E-8	0.002184
9.280000E-8	0.002300
9.285000E-8	0.002278
9.290000E-8	0.002369
9.295000E-8	0.002444
9.300000E-8	0.002309
9.305000E-8	0.002397
9.310000E-8	0.002444
9.315000E-8	0.002550
9.320000E-8	0.002478
9.325000E-8	0.002538
9.330000E-8	0.002416
9.335000E-8	0.002428
9.340000E-8	0.002366
9.345000E-8	0.002200
9.350000E-8	0.002100
9.355000E-8	0.002194
9.360000E-8	0.002191
9.365000E-8	0.002116
9.370000E-8	0.002097
9.375000E-8	0.002184
9.380000E-8	0.002225
9.385000E-8	0.002222
9.390000E-8	0.002237
9.395000E-8	0.002309
9.400000E-8	0.002197
9.405000E-8	0.002334
9.410000E-8	0.002372
9.415000E-8	0.002425
9.420000E-8	0.002294
9.425000E-8	0.002328
9.430000E-8	0.002341
9.435000E-8	0.002353
9.440000E-8	0.002372
9.445000E-8	0.002278
9.450000E-8	0.002216
9.455000E-8	0.002222
9.460000E-8	0.002206
9.465000E-8	0.002181
9.470000E-8	0.002053
9.475000E-8	0.002109
9.480000E-8	0.002063
9.485000E-8	0.002063
9.490000E-8	0.002000
9.495000E-8	0.002147
9.500000E-8	0.002169
9.505000E-8	0.002219
9.510000E-8	0.002291
9.515000E-8	0.002397
9.520000E-8	0.002441
9.525000E-8	0.002534
9.530000E-8	0.002534
9.535000E-8	0.002444
9.540000E-8	0.002319
9.545000E-8	0.002309
9.550000E-8	0.002222
9.555000E-8	0.002075
9.560000E-8	0.002122
9.565000E-8	0.002084
9.570000E-8	0.002028
9.575000E-8	0.002000
9.580000E-8	0.002084
9.585000E-8	0.002128
9.590000E-8	0.002162
9.595000E-8	0.002281
9.600000E-8	0.002347
9.605000E-8	0.002372
9.610000E-8	0.002350
9.615000E-8	0.002203
9.620000E-8	0.002169
9.625000E-8	0.002119
9.630000E-8	0.001953
9.635000E-8	0.001884
9.640000E-8	0.001834
9.645000E-8	0.001953
9.650000E-8	0.001934
9.655000E-8	0.002038
9.660000E-8	0.002084
9.665000E-8	0.002213
9.670000E-8	0.002178
9.675000E-8	0.002241
9.680000E-8	0.002219
9.685000E-8	0.002237
9.690000E-8	0.002138
9.695000E-8	0.002131
9.700000E-8	0.002028
9.705000E-8	0.002097
9.710000E-8	0.002041
9.715000E-8	0.002175
9.720000E-8	0.002156
9.725000E-8	0.002247
9.730000E-8	0.002097
9.735000E-8	0.002150
9.740000E-8	0.002150
9.745000E-8	0.002078
9.750000E-8	0.001916
9.755000E-8	0.001934
9.760000E-8	0.001894
9.765000E-8	0.001997
9.770000E-8	0.001956
9.775000E-8	0.001853
9.780000E-8	0.001866
9.785000E-8	0.001984
9.790000E-8	0.001925
9.795000E-8	0.002038
9.800000E-8	0.002000
9.805000E-8	0.002012
9.810000E-8	0.002084
9.815000E-8	0.002150
9.820000E-8	0.002153
9.825000E-8	0.002153
9.830000E-8	0.002009
9.835000E-8	0.002041
9.840000E-8	0.001937
9.845000E-8	0.001975
9.850000E-8	0.001997
9.855000E-8	0.002053
9.860000E-8	0.002150
9.865000E-8	0.002134
9.870000E-8	0.002153
9.875000E-8	0.002169
9.880000E-8	0.002228
9.885000E-8	0.002256
9.890000E-8	0.002181
9.895000E-8	0.002216
9.900000E-8	0.002134
9.905000E-8	0.002275
9.910000E-8	0.002200
9.915000E-8	0.002150
9.920000E-8	0.002087
9.925000E-8	0.002038
9.930000E-8	0.001944
9.935000E-8	0.002019
9.940000E-8	0.002025
9.945000E-8	0.002063
9.950000E-8	0.002075
9.955000E-8	0.002059
9.960000E-8	0.002066
9.965000E-8	0.002166
9.970000E-8	0.002147
9.975000E-8	0.002234
9.980000E-8	0.002278
9.985000E-8	0.002284
9.990000E-8	0.002331
9.995000E-8	0.002237
