LabVIEW Measurement	
Writer_Version	2
Reader_Version	2
Separator	Tab
Decimal_Separator	.
Multi_Headings	No
X_Columns	Multi
Time_Pref	Relative
Operator	TG lab
Date	2015/03/06
Time	16:22:37.4685869216918945313
***End_of_Header***	
	
Channels	1	
Samples	2000	
Date	2015/03/06	
Time	16:22:37.4685869216918945313	
X_Dimension	Time	
X0	0.0000000000000000E+0	
Delta_X	5.000000E-11	
***End_of_Header***		
X_Value	Untitled	Comment
0.000000	0.002172
5.000000E-11	0.002087
1.000000E-10	0.002031
1.500000E-10	0.002091
2.000000E-10	0.002241
2.500000E-10	0.002263
3.000000E-10	0.002222
3.500000E-10	0.002294
4.000000E-10	0.002259
4.500000E-10	0.002272
5.000000E-10	0.002072
5.500000E-10	0.002116
6.000000E-10	0.002097
6.500000E-10	0.002084
7.000000E-10	0.002119
7.500000E-10	0.002147
8.000000E-10	0.002234
8.500000E-10	0.002206
9.000000E-10	0.002200
9.500000E-10	0.002300
1.000000E-9	0.002313
1.050000E-9	0.002350
1.100000E-9	0.002378
1.150000E-9	0.002531
1.200000E-9	0.002359
1.250000E-9	0.002503
1.300000E-9	0.002478
1.350000E-9	0.002531
1.400000E-9	0.002572
1.450000E-9	0.002463
1.500000E-9	0.002459
1.550000E-9	0.002509
1.600000E-9	0.002356
1.650000E-9	0.002397
1.700000E-9	0.002328
1.750000E-9	0.002391
1.800000E-9	0.002322
1.850000E-9	0.002288
1.900000E-9	0.002384
1.950000E-9	0.002503
2.000000E-9	0.002475
2.050000E-9	0.002512
2.100000E-9	0.002453
2.150000E-9	0.002413
2.200000E-9	0.002347
2.250000E-9	0.002447
2.300000E-9	0.002237
2.350000E-9	0.002409
2.400000E-9	0.002309
2.450000E-9	0.002325
2.500000E-9	0.002237
2.550000E-9	0.002281
2.600000E-9	0.002269
2.650000E-9	0.002388
2.700000E-9	0.002272
2.750000E-9	0.002369
2.800000E-9	0.002250
2.850000E-9	0.002344
2.900000E-9	0.002394
2.950000E-9	0.002428
3.000000E-9	0.002366
3.050000E-9	0.002512
3.100000E-9	0.002447
3.150000E-9	0.002369
3.200000E-9	0.002394
3.250000E-9	0.002431
3.300000E-9	0.002475
3.350000E-9	0.002556
3.400000E-9	0.002419
3.450000E-9	0.002463
3.500000E-9	0.002453
3.550000E-9	0.002456
3.600000E-9	0.002425
3.650000E-9	0.002503
3.700000E-9	0.002406
3.750000E-9	0.002453
3.800000E-9	0.002441
3.850000E-9	0.002541
3.900000E-9	0.002437
3.950000E-9	0.002522
4.000000E-9	0.002450
4.050000E-9	0.002437
4.100000E-9	0.002394
4.150000E-9	0.002328
4.200000E-9	0.002422
4.250000E-9	0.002394
4.300000E-9	0.002250
4.350000E-9	0.002259
4.400000E-9	0.002197
4.450000E-9	0.002234
4.500000E-9	0.002084
4.550000E-9	0.002144
4.600000E-9	0.002125
4.650000E-9	0.002063
4.700000E-9	0.002169
4.750000E-9	0.002241
4.800000E-9	0.002116
4.850000E-9	0.002184
4.900000E-9	0.002178
4.950000E-9	0.002209
5.000000E-9	0.002284
5.050000E-9	0.002288
5.100000E-9	0.002256
5.150000E-9	0.002294
5.200000E-9	0.002350
5.250000E-9	0.002363
5.300000E-9	0.002222
5.350000E-9	0.002225
5.400000E-9	0.002153
5.450000E-9	0.002119
5.500000E-9	0.002131
5.550000E-9	0.002087
5.600000E-9	0.002000
5.650000E-9	0.001981
5.700000E-9	0.001844
5.750000E-9	0.001813
5.800000E-9	0.001691
5.850000E-9	0.001747
5.900000E-9	0.001706
5.950000E-9	0.001725
6.000000E-9	0.001672
6.050000E-9	0.001700
6.100000E-9	0.001681
6.150000E-9	0.001750
6.200000E-9	0.001775
6.250000E-9	0.001716
6.300000E-9	0.001634
6.350000E-9	0.001631
6.400000E-9	0.001609
6.450000E-9	0.001606
6.500000E-9	0.001631
6.550000E-9	0.001616
6.600000E-9	0.001638
6.650000E-9	0.001763
6.700000E-9	0.001784
6.750000E-9	0.001875
6.800000E-9	0.001869
6.850000E-9	0.001950
6.900000E-9	0.001950
6.950000E-9	0.002106
7.000000E-9	0.002178
7.050000E-9	0.002288
7.100000E-9	0.002384
7.150000E-9	0.002475
7.200000E-9	0.002522
7.250000E-9	0.002778
7.300000E-9	0.002956
7.350000E-9	0.003206
7.400000E-9	0.003441
7.450000E-9	0.003853
7.500000E-9	0.004250
7.550000E-9	0.004697
7.600000E-9	0.005069
7.650000E-9	0.005309
7.700000E-9	0.005406
7.750000E-9	0.005316
7.800000E-9	0.004656
7.850000E-9	0.003706
7.900000E-9	0.002297
7.950000E-9	0.000469
8.000000E-9	-0.001944
8.050000E-9	-0.004684
8.100000E-9	-0.007784
8.150000E-9	-0.010809
8.200000E-9	-0.014116
8.250000E-9	-0.017072
8.300000E-9	-0.020009
8.350000E-9	-0.022409
8.400000E-9	-0.024272
8.450000E-9	-0.025547
8.500000E-9	-0.026272
8.550000E-9	-0.026328
8.600000E-9	-0.025900
8.650000E-9	-0.024931
8.700000E-9	-0.023534
8.750000E-9	-0.021803
8.800000E-9	-0.019856
8.850000E-9	-0.017903
8.900000E-9	-0.016253
8.950000E-9	-0.014712
9.000000E-9	-0.013803
9.050000E-9	-0.013147
9.100000E-9	-0.013016
9.150000E-9	-0.013231
9.200000E-9	-0.013788
9.250000E-9	-0.014434
9.300000E-9	-0.015163
9.350000E-9	-0.015863
9.400000E-9	-0.016506
9.450000E-9	-0.016734
9.500000E-9	-0.016784
9.550000E-9	-0.016381
9.600000E-9	-0.015553
9.650000E-9	-0.014384
9.700000E-9	-0.013234
9.750000E-9	-0.011659
9.800000E-9	-0.010291
9.850000E-9	-0.008828
9.900000E-9	-0.007684
9.950000E-9	-0.006784
1.000000E-8	-0.006219
1.005000E-8	-0.005956
1.010000E-8	-0.006188
1.015000E-8	-0.006438
1.020000E-8	-0.007175
1.025000E-8	-0.007819
1.030000E-8	-0.008553
1.035000E-8	-0.009097
1.040000E-8	-0.009706
1.045000E-8	-0.009753
1.050000E-8	-0.009734
1.055000E-8	-0.009175
1.060000E-8	-0.008553
1.065000E-8	-0.007513
1.070000E-8	-0.006472
1.075000E-8	-0.005191
1.080000E-8	-0.004053
1.085000E-8	-0.002859
1.090000E-8	-0.002128
1.095000E-8	-0.001453
1.100000E-8	-0.001131
1.105000E-8	-0.001072
1.110000E-8	-0.001397
1.115000E-8	-0.001916
1.120000E-8	-0.002497
1.125000E-8	-0.003313
1.130000E-8	-0.004063
1.135000E-8	-0.004622
1.140000E-8	-0.005138
1.145000E-8	-0.005138
1.150000E-8	-0.005175
1.155000E-8	-0.004822
1.160000E-8	-0.004244
1.165000E-8	-0.003428
1.170000E-8	-0.002591
1.175000E-8	-0.001691
1.180000E-8	-0.000822
1.185000E-8	-9.375000E-6
1.190000E-8	0.000506
1.195000E-8	0.000819
1.200000E-8	0.000881
1.205000E-8	0.000809
1.210000E-8	0.000331
1.215000E-8	-0.000275
1.220000E-8	-0.000997
1.225000E-8	-0.001703
1.230000E-8	-0.002391
1.235000E-8	-0.002816
1.240000E-8	-0.003141
1.245000E-8	-0.003213
1.250000E-8	-0.003191
1.255000E-8	-0.002853
1.260000E-8	-0.002322
1.265000E-8	-0.001541
1.270000E-8	-0.000803
1.275000E-8	3.125000E-5
1.280000E-8	0.000769
1.285000E-8	0.001359
1.290000E-8	0.001781
1.295000E-8	0.002113
1.300000E-8	0.001959
1.305000E-8	0.001759
1.310000E-8	0.001200
1.315000E-8	0.000594
1.320000E-8	-0.000150
1.325000E-8	-0.000828
1.330000E-8	-0.001531
1.335000E-8	-0.001997
1.340000E-8	-0.002338
1.345000E-8	-0.002494
1.350000E-8	-0.002459
1.355000E-8	-0.001956
1.360000E-8	-0.001191
1.365000E-8	-0.000344
1.370000E-8	0.000369
1.375000E-8	0.001394
1.380000E-8	0.002184
1.385000E-8	0.002881
1.390000E-8	0.003231
1.395000E-8	0.003425
1.400000E-8	0.003294
1.405000E-8	0.002894
1.410000E-8	0.002303
1.415000E-8	0.001594
1.420000E-8	0.000713
1.425000E-8	-0.000163
1.430000E-8	-0.000972
1.435000E-8	-0.001500
1.440000E-8	-0.001934
1.445000E-8	-0.002047
1.450000E-8	-0.001838
1.455000E-8	-0.001397
1.460000E-8	-0.000706
1.465000E-8	0.000122
1.470000E-8	0.001022
1.475000E-8	0.002050
1.480000E-8	0.002775
1.485000E-8	0.003503
1.490000E-8	0.003863
1.495000E-8	0.003947
1.500000E-8	0.003691
1.505000E-8	0.003206
1.510000E-8	0.002497
1.515000E-8	0.001547
1.520000E-8	0.000575
1.525000E-8	-0.000313
1.530000E-8	-0.001019
1.535000E-8	-0.001572
1.540000E-8	-0.001838
1.545000E-8	-0.001788
1.550000E-8	-0.001450
1.555000E-8	-0.000791
1.560000E-8	2.500000E-5
1.565000E-8	0.000947
1.570000E-8	0.001816
1.575000E-8	0.002863
1.580000E-8	0.003600
1.585000E-8	0.004013
1.590000E-8	0.004172
1.595000E-8	0.004181
1.600000E-8	0.003691
1.605000E-8	0.003047
1.610000E-8	0.002138
1.615000E-8	0.001353
1.620000E-8	0.000472
1.625000E-8	-0.000225
1.630000E-8	-0.000941
1.635000E-8	-0.001141
1.640000E-8	-0.001256
1.645000E-8	-0.001022
1.650000E-8	-0.000556
1.655000E-8	0.000119
1.660000E-8	0.000881
1.665000E-8	0.001869
1.670000E-8	0.002719
1.675000E-8	0.003453
1.680000E-8	0.004000
1.685000E-8	0.004309
1.690000E-8	0.004331
1.695000E-8	0.004091
1.700000E-8	0.003572
1.705000E-8	0.002913
1.710000E-8	0.002091
1.715000E-8	0.001425
1.720000E-8	0.000466
1.725000E-8	-0.000219
1.730000E-8	-0.000600
1.735000E-8	-0.000691
1.740000E-8	-0.000594
1.745000E-8	-0.000222
1.750000E-8	0.000338
1.755000E-8	0.001025
1.760000E-8	0.001897
1.765000E-8	0.002684
1.770000E-8	0.003428
1.775000E-8	0.004122
1.780000E-8	0.004325
1.785000E-8	0.004475
1.790000E-8	0.004353
1.795000E-8	0.003697
1.800000E-8	0.003059
1.805000E-8	0.002259
1.810000E-8	0.001431
1.815000E-8	0.000713
1.820000E-8	-7.500000E-5
1.825000E-8	-0.000591
1.830000E-8	-0.000966
1.835000E-8	-0.000931
1.840000E-8	-0.000781
1.845000E-8	-0.000363
1.850000E-8	0.000219
1.855000E-8	0.001097
1.860000E-8	0.001869
1.865000E-8	0.002803
1.870000E-8	0.003391
1.875000E-8	0.003913
1.880000E-8	0.004044
1.885000E-8	0.004159
1.890000E-8	0.003884
1.895000E-8	0.003466
1.900000E-8	0.002756
1.905000E-8	0.002094
1.910000E-8	0.001159
1.915000E-8	0.000497
1.920000E-8	-6.875000E-5
1.925000E-8	-0.000619
1.930000E-8	-0.000859
1.935000E-8	-0.000641
1.940000E-8	-0.000409
1.945000E-8	0.000175
1.950000E-8	0.000744
1.955000E-8	0.001612
1.960000E-8	0.002437
1.965000E-8	0.003172
1.970000E-8	0.003725
1.975000E-8	0.004219
1.980000E-8	0.004291
1.985000E-8	0.004225
1.990000E-8	0.003944
1.995000E-8	0.003544
2.000000E-8	0.002878
2.005000E-8	0.002237
2.010000E-8	0.001394
2.015000E-8	0.000769
2.020000E-8	0.000138
2.025000E-8	-0.000141
2.030000E-8	-0.000316
2.035000E-8	-0.000172
2.040000E-8	0.000147
2.045000E-8	0.000641
2.050000E-8	0.001244
2.055000E-8	0.002147
2.060000E-8	0.002797
2.065000E-8	0.003512
2.070000E-8	0.003966
2.075000E-8	0.004231
2.080000E-8	0.004303
2.085000E-8	0.004087
2.090000E-8	0.003731
2.095000E-8	0.003150
2.100000E-8	0.002450
2.105000E-8	0.001709
2.110000E-8	0.000944
2.115000E-8	0.000384
2.120000E-8	-0.000122
2.125000E-8	-0.000334
2.130000E-8	-0.000278
2.135000E-8	6.875000E-5
2.140000E-8	0.000394
2.145000E-8	0.000984
2.150000E-8	0.001597
2.155000E-8	0.002394
2.160000E-8	0.003028
2.165000E-8	0.003641
2.170000E-8	0.003975
2.175000E-8	0.004294
2.180000E-8	0.004138
2.185000E-8	0.003906
2.190000E-8	0.003369
2.195000E-8	0.002850
2.200000E-8	0.002169
2.205000E-8	0.001391
2.210000E-8	0.000759
2.215000E-8	0.000356
2.220000E-8	-1.875000E-5
2.225000E-8	-9.687500E-5
2.230000E-8	0.000138
2.235000E-8	0.000594
2.240000E-8	0.001150
2.245000E-8	0.001888
2.250000E-8	0.002622
2.255000E-8	0.003419
2.260000E-8	0.003984
2.265000E-8	0.004556
2.270000E-8	0.004719
2.275000E-8	0.004716
2.280000E-8	0.004447
2.285000E-8	0.003975
2.290000E-8	0.003166
2.295000E-8	0.002591
2.300000E-8	0.001806
2.305000E-8	0.001019
2.310000E-8	0.000422
2.315000E-8	6.562500E-5
2.320000E-8	-0.000169
2.325000E-8	-8.437500E-5
2.330000E-8	0.000141
2.335000E-8	0.000603
2.340000E-8	0.001322
2.345000E-8	0.002166
2.350000E-8	0.002838
2.355000E-8	0.003628
2.360000E-8	0.004253
2.365000E-8	0.004709
2.370000E-8	0.004838
2.375000E-8	0.004719
2.380000E-8	0.004244
2.385000E-8	0.003700
2.390000E-8	0.002828
2.395000E-8	0.002188
2.400000E-8	0.001319
2.405000E-8	0.000638
2.410000E-8	8.750000E-5
2.415000E-8	-0.000159
2.420000E-8	-0.000225
2.425000E-8	-5.625000E-5
2.430000E-8	0.000469
2.435000E-8	0.001175
2.440000E-8	0.001788
2.445000E-8	0.002641
2.450000E-8	0.003297
2.455000E-8	0.003906
2.460000E-8	0.004172
2.465000E-8	0.004444
2.470000E-8	0.004269
2.475000E-8	0.004019
2.480000E-8	0.003609
2.485000E-8	0.003012
2.490000E-8	0.002325
2.495000E-8	0.001675
2.500000E-8	0.000997
2.505000E-8	0.000553
2.510000E-8	0.000203
2.515000E-8	0.000131
2.520000E-8	0.000200
2.525000E-8	0.000656
2.530000E-8	0.001041
2.535000E-8	0.001816
2.540000E-8	0.002434
2.545000E-8	0.003078
2.550000E-8	0.003575
2.555000E-8	0.004159
2.560000E-8	0.004469
2.565000E-8	0.004575
2.570000E-8	0.004463
2.575000E-8	0.004097
2.580000E-8	0.003547
2.585000E-8	0.002931
2.590000E-8	0.002219
2.595000E-8	0.001609
2.600000E-8	0.001031
2.605000E-8	0.000547
2.610000E-8	0.000237
2.615000E-8	0.000141
2.620000E-8	0.000200
2.625000E-8	0.000622
2.630000E-8	0.001038
2.635000E-8	0.001591
2.640000E-8	0.002241
2.645000E-8	0.002844
2.650000E-8	0.003253
2.655000E-8	0.003625
2.660000E-8	0.003800
2.665000E-8	0.003878
2.670000E-8	0.003656
2.675000E-8	0.003256
2.680000E-8	0.002700
2.685000E-8	0.002116
2.690000E-8	0.001488
2.695000E-8	0.000981
2.700000E-8	0.000494
2.705000E-8	0.000150
2.710000E-8	0.000109
2.715000E-8	0.000150
2.720000E-8	0.000453
2.725000E-8	0.000891
2.730000E-8	0.001356
2.735000E-8	0.001925
2.740000E-8	0.002538
2.745000E-8	0.003191
2.750000E-8	0.003553
2.755000E-8	0.003903
2.760000E-8	0.003888
2.765000E-8	0.003778
2.770000E-8	0.003494
2.775000E-8	0.003066
2.780000E-8	0.002447
2.785000E-8	0.001891
2.790000E-8	0.001366
2.795000E-8	0.000906
2.800000E-8	0.000541
2.805000E-8	0.000375
2.810000E-8	0.000228
2.815000E-8	0.000453
2.820000E-8	0.000653
2.825000E-8	0.001125
2.830000E-8	0.001656
2.835000E-8	0.002247
2.840000E-8	0.002781
2.845000E-8	0.003294
2.850000E-8	0.003700
2.855000E-8	0.003906
2.860000E-8	0.003909
2.865000E-8	0.003847
2.870000E-8	0.003438
2.875000E-8	0.002966
2.880000E-8	0.002388
2.885000E-8	0.001909
2.890000E-8	0.001294
2.895000E-8	0.000897
2.900000E-8	0.000516
2.905000E-8	0.000513
2.910000E-8	0.000513
2.915000E-8	0.000703
2.920000E-8	0.001056
2.925000E-8	0.001606
2.930000E-8	0.002134
2.935000E-8	0.002747
2.940000E-8	0.003300
2.945000E-8	0.003716
2.950000E-8	0.003947
2.955000E-8	0.004097
2.960000E-8	0.003916
2.965000E-8	0.003769
2.970000E-8	0.003275
2.975000E-8	0.002875
2.980000E-8	0.002241
2.985000E-8	0.001641
2.990000E-8	0.001038
2.995000E-8	0.000612
3.000000E-8	0.000263
3.005000E-8	0.000219
3.010000E-8	0.000297
3.015000E-8	0.000791
3.020000E-8	0.001166
3.025000E-8	0.001750
3.030000E-8	0.002303
3.035000E-8	0.002966
3.040000E-8	0.003584
3.045000E-8	0.003994
3.050000E-8	0.004244
3.055000E-8	0.004266
3.060000E-8	0.004006
3.065000E-8	0.003772
3.070000E-8	0.003162
3.075000E-8	0.002628
3.080000E-8	0.001909
3.085000E-8	0.001353
3.090000E-8	0.000856
3.095000E-8	0.000478
3.100000E-8	0.000291
3.105000E-8	0.000313
3.110000E-8	0.000638
3.115000E-8	0.000947
3.120000E-8	0.001516
3.125000E-8	0.002231
3.130000E-8	0.002728
3.135000E-8	0.003297
3.140000E-8	0.003663
3.145000E-8	0.004034
3.150000E-8	0.004097
3.155000E-8	0.003850
3.160000E-8	0.003547
3.165000E-8	0.003200
3.170000E-8	0.002603
3.175000E-8	0.002009
3.180000E-8	0.001413
3.185000E-8	0.000994
3.190000E-8	0.000647
3.195000E-8	0.000666
3.200000E-8	0.000691
3.205000E-8	0.000841
3.210000E-8	0.001206
3.215000E-8	0.001784
3.220000E-8	0.002288
3.225000E-8	0.002875
3.230000E-8	0.003256
3.235000E-8	0.003678
3.240000E-8	0.003784
3.245000E-8	0.003859
3.250000E-8	0.003753
3.255000E-8	0.003594
3.260000E-8	0.003213
3.265000E-8	0.002791
3.270000E-8	0.002222
3.275000E-8	0.001716
3.280000E-8	0.001303
3.285000E-8	0.000931
3.290000E-8	0.000644
3.295000E-8	0.000481
3.300000E-8	0.000481
3.305000E-8	0.000647
3.310000E-8	0.000997
3.315000E-8	0.001463
3.320000E-8	0.001863
3.325000E-8	0.002450
3.330000E-8	0.002928
3.335000E-8	0.003438
3.340000E-8	0.003666
3.345000E-8	0.003778
3.350000E-8	0.003806
3.355000E-8	0.003600
3.360000E-8	0.003269
3.365000E-8	0.002866
3.370000E-8	0.002278
3.375000E-8	0.001894
3.380000E-8	0.001388
3.385000E-8	0.001038
3.390000E-8	0.000875
3.395000E-8	0.000853
3.400000E-8	0.000925
3.405000E-8	0.001200
3.410000E-8	0.001584
3.415000E-8	0.002063
3.420000E-8	0.002419
3.425000E-8	0.002913
3.430000E-8	0.003194
3.435000E-8	0.003394
3.440000E-8	0.003413
3.445000E-8	0.003406
3.450000E-8	0.003178
3.455000E-8	0.002913
3.460000E-8	0.002453
3.465000E-8	0.002003
3.470000E-8	0.001547
3.475000E-8	0.001231
3.480000E-8	0.000894
3.485000E-8	0.000728
3.490000E-8	0.000669
3.495000E-8	0.000900
3.500000E-8	0.001187
3.505000E-8	0.001659
3.510000E-8	0.002194
3.515000E-8	0.002716
3.520000E-8	0.003188
3.525000E-8	0.003584
3.530000E-8	0.003766
3.535000E-8	0.003925
3.540000E-8	0.003897
3.545000E-8	0.003694
3.550000E-8	0.003375
3.555000E-8	0.003000
3.560000E-8	0.002563
3.565000E-8	0.002166
3.570000E-8	0.001691
3.575000E-8	0.001294
3.580000E-8	0.001069
3.585000E-8	0.000778
3.590000E-8	0.000703
3.595000E-8	0.000813
3.600000E-8	0.000959
3.605000E-8	0.001403
3.610000E-8	0.001781
3.615000E-8	0.002300
3.620000E-8	0.002750
3.625000E-8	0.003219
3.630000E-8	0.003544
3.635000E-8	0.003775
3.640000E-8	0.003847
3.645000E-8	0.003834
3.650000E-8	0.003519
3.655000E-8	0.003263
3.660000E-8	0.002753
3.665000E-8	0.002106
3.670000E-8	0.001516
3.675000E-8	0.001134
3.680000E-8	0.000791
3.685000E-8	0.000628
3.690000E-8	0.000616
3.695000E-8	0.000788
3.700000E-8	0.000988
3.705000E-8	0.001475
3.710000E-8	0.001819
3.715000E-8	0.002363
3.720000E-8	0.002872
3.725000E-8	0.003353
3.730000E-8	0.003622
3.735000E-8	0.003734
3.740000E-8	0.003700
3.745000E-8	0.003597
3.750000E-8	0.003241
3.755000E-8	0.002909
3.760000E-8	0.002325
3.765000E-8	0.001959
3.770000E-8	0.001516
3.775000E-8	0.001100
3.780000E-8	0.000853
3.785000E-8	0.000863
3.790000E-8	0.000916
3.795000E-8	0.001219
3.800000E-8	0.001606
3.805000E-8	0.002103
3.810000E-8	0.002428
3.815000E-8	0.002875
3.820000E-8	0.003253
3.825000E-8	0.003559
3.830000E-8	0.003628
3.835000E-8	0.003709
3.840000E-8	0.003406
3.845000E-8	0.003147
3.850000E-8	0.002759
3.855000E-8	0.002356
3.860000E-8	0.001878
3.865000E-8	0.001491
3.870000E-8	0.001200
3.875000E-8	0.001106
3.880000E-8	0.000941
3.885000E-8	0.000997
3.890000E-8	0.001116
3.895000E-8	0.001409
3.900000E-8	0.001675
3.905000E-8	0.002087
3.910000E-8	0.002481
3.915000E-8	0.002994
3.920000E-8	0.003291
3.925000E-8	0.003459
3.930000E-8	0.003444
3.935000E-8	0.003563
3.940000E-8	0.003272
3.945000E-8	0.003025
3.950000E-8	0.002603
3.955000E-8	0.002316
3.960000E-8	0.001891
3.965000E-8	0.001500
3.970000E-8	0.001238
3.975000E-8	0.001159
3.980000E-8	0.001112
3.985000E-8	0.001219
3.990000E-8	0.001447
3.995000E-8	0.001797
4.000000E-8	0.002131
4.005000E-8	0.002616
4.010000E-8	0.003056
4.015000E-8	0.003303
4.020000E-8	0.003581
4.025000E-8	0.003722
4.030000E-8	0.003550
4.035000E-8	0.003356
4.040000E-8	0.002959
4.045000E-8	0.002631
4.050000E-8	0.002222
4.055000E-8	0.001875
4.060000E-8	0.001484
4.065000E-8	0.001259
4.070000E-8	0.001016
4.075000E-8	0.000925
4.080000E-8	0.000859
4.085000E-8	0.000991
4.090000E-8	0.001169
4.095000E-8	0.001559
4.100000E-8	0.001863
4.105000E-8	0.002166
4.110000E-8	0.002497
4.115000E-8	0.002853
4.120000E-8	0.003078
4.125000E-8	0.003234
4.130000E-8	0.003284
4.135000E-8	0.003194
4.140000E-8	0.002888
4.145000E-8	0.002659
4.150000E-8	0.002219
4.155000E-8	0.001988
4.160000E-8	0.001550
4.165000E-8	0.001400
4.170000E-8	0.001184
4.175000E-8	0.001131
4.180000E-8	0.001075
4.185000E-8	0.001253
4.190000E-8	0.001444
4.195000E-8	0.001931
4.200000E-8	0.002288
4.205000E-8	0.002641
4.210000E-8	0.002969
4.215000E-8	0.003216
4.220000E-8	0.003188
4.225000E-8	0.003159
4.230000E-8	0.003047
4.235000E-8	0.003006
4.240000E-8	0.002675
4.245000E-8	0.002425
4.250000E-8	0.002006
4.255000E-8	0.001766
4.260000E-8	0.001519
4.265000E-8	0.001388
4.270000E-8	0.001259
4.275000E-8	0.001303
4.280000E-8	0.001375
4.285000E-8	0.001578
4.290000E-8	0.001744
4.295000E-8	0.002178
4.300000E-8	0.002300
4.305000E-8	0.002653
4.310000E-8	0.002844
4.315000E-8	0.003044
4.320000E-8	0.003172
4.325000E-8	0.003141
4.330000E-8	0.002981
4.335000E-8	0.002747
4.340000E-8	0.002478
4.345000E-8	0.002197
4.350000E-8	0.001859
4.355000E-8	0.001600
4.360000E-8	0.001431
4.365000E-8	0.001241
4.370000E-8	0.001250
4.375000E-8	0.001225
4.380000E-8	0.001328
4.385000E-8	0.001566
4.390000E-8	0.001822
4.395000E-8	0.002222
4.400000E-8	0.002525
4.405000E-8	0.002819
4.410000E-8	0.002963
4.415000E-8	0.003138
4.420000E-8	0.003131
4.425000E-8	0.003025
4.430000E-8	0.002881
4.435000E-8	0.002619
4.440000E-8	0.002331
4.445000E-8	0.002022
4.450000E-8	0.001653
4.455000E-8	0.001447
4.460000E-8	0.001334
4.465000E-8	0.001138
4.470000E-8	0.001141
4.475000E-8	0.001338
4.480000E-8	0.001494
4.485000E-8	0.001763
4.490000E-8	0.001975
4.495000E-8	0.002328
4.500000E-8	0.002603
4.505000E-8	0.002919
4.510000E-8	0.002941
4.515000E-8	0.002950
4.520000E-8	0.002900
4.525000E-8	0.002828
4.530000E-8	0.002475
4.535000E-8	0.002319
4.540000E-8	0.001966
4.545000E-8	0.001700
4.550000E-8	0.001356
4.555000E-8	0.001231
4.560000E-8	0.001222
4.565000E-8	0.001191
4.570000E-8	0.001166
4.575000E-8	0.001450
4.580000E-8	0.001734
4.585000E-8	0.002022
4.590000E-8	0.002325
4.595000E-8	0.002634
4.600000E-8	0.002806
4.605000E-8	0.002953
4.610000E-8	0.003087
4.615000E-8	0.003091
4.620000E-8	0.002947
4.625000E-8	0.002781
4.630000E-8	0.002528
4.635000E-8	0.002297
4.640000E-8	0.002034
4.645000E-8	0.001813
4.650000E-8	0.001622
4.655000E-8	0.001578
4.660000E-8	0.001453
4.665000E-8	0.001531
4.670000E-8	0.001681
4.675000E-8	0.001838
4.680000E-8	0.002216
4.685000E-8	0.002681
4.690000E-8	0.002825
4.695000E-8	0.003087
4.700000E-8	0.003181
4.705000E-8	0.003300
4.710000E-8	0.003309
4.715000E-8	0.003253
4.720000E-8	0.003000
4.725000E-8	0.002734
4.730000E-8	0.002456
4.735000E-8	0.002041
4.740000E-8	0.001716
4.745000E-8	0.001531
4.750000E-8	0.001319
4.755000E-8	0.001331
4.760000E-8	0.001187
4.765000E-8	0.001437
4.770000E-8	0.001525
4.775000E-8	0.001909
4.780000E-8	0.002081
4.785000E-8	0.002447
4.790000E-8	0.002609
4.795000E-8	0.002819
4.800000E-8	0.002834
4.805000E-8	0.003012
4.810000E-8	0.002856
4.815000E-8	0.002778
4.820000E-8	0.002613
4.825000E-8	0.002400
4.830000E-8	0.002084
4.835000E-8	0.001931
4.840000E-8	0.001800
4.845000E-8	0.001672
4.850000E-8	0.001472
4.855000E-8	0.001413
4.860000E-8	0.001397
4.865000E-8	0.001413
4.870000E-8	0.001541
4.875000E-8	0.001894
4.880000E-8	0.002053
4.885000E-8	0.002422
4.890000E-8	0.002669
4.895000E-8	0.002981
4.900000E-8	0.003100
4.905000E-8	0.003309
4.910000E-8	0.003247
4.915000E-8	0.003216
4.920000E-8	0.002972
4.925000E-8	0.002691
4.930000E-8	0.002538
4.935000E-8	0.002225
4.940000E-8	0.001794
4.945000E-8	0.001819
4.950000E-8	0.001672
4.955000E-8	0.001609
4.960000E-8	0.001678
4.965000E-8	0.001806
4.970000E-8	0.001950
4.975000E-8	0.002228
4.980000E-8	0.002563
4.985000E-8	0.002906
4.990000E-8	0.003019
4.995000E-8	0.003150
5.000000E-8	0.003188
5.005000E-8	0.003347
5.010000E-8	0.003241
5.015000E-8	0.002972
5.020000E-8	0.002750
5.025000E-8	0.002428
5.030000E-8	0.002006
5.035000E-8	0.001750
5.040000E-8	0.001534
5.045000E-8	0.001391
5.050000E-8	0.001272
5.055000E-8	0.001391
5.060000E-8	0.001500
5.065000E-8	0.001700
5.070000E-8	0.001969
5.075000E-8	0.002166
5.080000E-8	0.002441
5.085000E-8	0.002603
5.090000E-8	0.002700
5.095000E-8	0.002856
5.100000E-8	0.002900
5.105000E-8	0.002828
5.110000E-8	0.002697
5.115000E-8	0.002581
5.120000E-8	0.002356
5.125000E-8	0.002175
5.130000E-8	0.001888
5.135000E-8	0.001628
5.140000E-8	0.001437
5.145000E-8	0.001372
5.150000E-8	0.001225
5.155000E-8	0.001375
5.160000E-8	0.001428
5.165000E-8	0.001756
5.170000E-8	0.001900
5.175000E-8	0.002181
5.180000E-8	0.002481
5.185000E-8	0.002737
5.190000E-8	0.002803
5.195000E-8	0.002866
5.200000E-8	0.002928
5.205000E-8	0.002872
5.210000E-8	0.002666
5.215000E-8	0.002488
5.220000E-8	0.002147
5.225000E-8	0.001981
5.230000E-8	0.001625
5.235000E-8	0.001625
5.240000E-8	0.001534
5.245000E-8	0.001503
5.250000E-8	0.001563
5.255000E-8	0.001750
5.260000E-8	0.001950
5.265000E-8	0.002175
5.270000E-8	0.002409
5.275000E-8	0.002603
5.280000E-8	0.002650
5.285000E-8	0.002794
5.290000E-8	0.002772
5.295000E-8	0.002809
5.300000E-8	0.002616
5.305000E-8	0.002447
5.310000E-8	0.002250
5.315000E-8	0.002069
5.320000E-8	0.001881
5.325000E-8	0.001747
5.330000E-8	0.001575
5.335000E-8	0.001437
5.340000E-8	0.001409
5.345000E-8	0.001334
5.350000E-8	0.001463
5.355000E-8	0.001631
5.360000E-8	0.001881
5.365000E-8	0.001959
5.370000E-8	0.002213
5.375000E-8	0.002447
5.380000E-8	0.002606
5.385000E-8	0.002728
5.390000E-8	0.002825
5.395000E-8	0.002906
5.400000E-8	0.002803
5.405000E-8	0.002753
5.410000E-8	0.002416
5.415000E-8	0.002281
5.420000E-8	0.001972
5.425000E-8	0.001738
5.430000E-8	0.001525
5.435000E-8	0.001422
5.440000E-8	0.001441
5.445000E-8	0.001437
5.450000E-8	0.001578
5.455000E-8	0.001713
5.460000E-8	0.001941
5.465000E-8	0.002328
5.470000E-8	0.002509
5.475000E-8	0.002947
5.480000E-8	0.003116
5.485000E-8	0.003300
5.490000E-8	0.003244
5.495000E-8	0.003200
5.500000E-8	0.003038
5.505000E-8	0.002800
5.510000E-8	0.002463
5.515000E-8	0.002166
5.520000E-8	0.001916
5.525000E-8	0.001653
5.530000E-8	0.001416
5.535000E-8	0.001372
5.540000E-8	0.001400
5.545000E-8	0.001541
5.550000E-8	0.001734
5.555000E-8	0.001997
5.560000E-8	0.002172
5.565000E-8	0.002456
5.570000E-8	0.002581
5.575000E-8	0.002794
5.580000E-8	0.002838
5.585000E-8	0.002847
5.590000E-8	0.002850
5.595000E-8	0.002797
5.600000E-8	0.002541
5.605000E-8	0.002459
5.610000E-8	0.002228
5.615000E-8	0.001978
5.620000E-8	0.001834
5.625000E-8	0.001772
5.630000E-8	0.001656
5.635000E-8	0.001709
5.640000E-8	0.001741
5.645000E-8	0.001841
5.650000E-8	0.001756
5.655000E-8	0.002022
5.660000E-8	0.002159
5.665000E-8	0.002375
5.670000E-8	0.002613
5.675000E-8	0.002819
5.680000E-8	0.002859
5.685000E-8	0.002816
5.690000E-8	0.002931
5.695000E-8	0.002956
5.700000E-8	0.002853
5.705000E-8	0.002656
5.710000E-8	0.002425
5.715000E-8	0.002266
5.720000E-8	0.001953
5.725000E-8	0.001878
5.730000E-8	0.001697
5.735000E-8	0.001634
5.740000E-8	0.001656
5.745000E-8	0.001828
5.750000E-8	0.001956
5.755000E-8	0.002147
5.760000E-8	0.002394
5.765000E-8	0.002553
5.770000E-8	0.002587
5.775000E-8	0.002653
5.780000E-8	0.002716
5.785000E-8	0.002681
5.790000E-8	0.002547
5.795000E-8	0.002578
5.800000E-8	0.002406
5.805000E-8	0.002278
5.810000E-8	0.002144
5.815000E-8	0.002028
5.820000E-8	0.001847
5.825000E-8	0.001822
5.830000E-8	0.001813
5.835000E-8	0.001844
5.840000E-8	0.001869
5.845000E-8	0.001922
5.850000E-8	0.002128
5.855000E-8	0.002334
5.860000E-8	0.002528
5.865000E-8	0.002775
5.870000E-8	0.002891
5.875000E-8	0.002959
5.880000E-8	0.002897
5.885000E-8	0.002831
5.890000E-8	0.002547
5.895000E-8	0.002437
5.900000E-8	0.002122
5.905000E-8	0.001825
5.910000E-8	0.001478
5.915000E-8	0.001375
5.920000E-8	0.001197
5.925000E-8	0.001191
5.930000E-8	0.001331
5.935000E-8	0.001309
5.940000E-8	0.001472
5.945000E-8	0.001741
5.950000E-8	0.001975
5.955000E-8	0.002128
5.960000E-8	0.002375
5.965000E-8	0.002625
5.970000E-8	0.002647
5.975000E-8	0.002844
5.980000E-8	0.002778
5.985000E-8	0.002813
5.990000E-8	0.002566
5.995000E-8	0.002353
6.000000E-8	0.002231
6.005000E-8	0.002109
6.010000E-8	0.001888
6.015000E-8	0.001800
6.020000E-8	0.001634
6.025000E-8	0.001731
6.030000E-8	0.001794
6.035000E-8	0.001906
6.040000E-8	0.001931
6.045000E-8	0.002219
6.050000E-8	0.002316
6.055000E-8	0.002541
6.060000E-8	0.002703
6.065000E-8	0.002806
6.070000E-8	0.002763
6.075000E-8	0.002816
6.080000E-8	0.002669
6.085000E-8	0.002572
6.090000E-8	0.002347
6.095000E-8	0.002316
6.100000E-8	0.002100
6.105000E-8	0.001925
6.110000E-8	0.001831
6.115000E-8	0.001878
6.120000E-8	0.001709
6.125000E-8	0.001719
6.130000E-8	0.001806
6.135000E-8	0.001819
6.140000E-8	0.001897
6.145000E-8	0.002159
6.150000E-8	0.002231
6.155000E-8	0.002512
6.160000E-8	0.002597
6.165000E-8	0.002669
6.170000E-8	0.002659
6.175000E-8	0.002672
6.180000E-8	0.002538
6.185000E-8	0.002388
6.190000E-8	0.002222
6.195000E-8	0.002091
6.200000E-8	0.001759
6.205000E-8	0.001653
6.210000E-8	0.001472
6.215000E-8	0.001466
6.220000E-8	0.001409
6.225000E-8	0.001513
6.230000E-8	0.001578
6.235000E-8	0.001778
6.240000E-8	0.001891
6.245000E-8	0.002169
6.250000E-8	0.002409
6.255000E-8	0.002613
6.260000E-8	0.002684
6.265000E-8	0.002675
6.270000E-8	0.002722
6.275000E-8	0.002641
6.280000E-8	0.002512
6.285000E-8	0.002494
6.290000E-8	0.002431
6.295000E-8	0.002278
6.300000E-8	0.002219
6.305000E-8	0.002047
6.310000E-8	0.002006
6.315000E-8	0.001834
6.320000E-8	0.001825
6.325000E-8	0.001903
6.330000E-8	0.001978
6.335000E-8	0.002138
6.340000E-8	0.002203
6.345000E-8	0.002391
6.350000E-8	0.002519
6.355000E-8	0.002709
6.360000E-8	0.002675
6.365000E-8	0.002803
6.370000E-8	0.002737
6.375000E-8	0.002822
6.380000E-8	0.002678
6.385000E-8	0.002625
6.390000E-8	0.002334
6.395000E-8	0.002297
6.400000E-8	0.002144
6.405000E-8	0.002056
6.410000E-8	0.001994
6.415000E-8	0.001900
6.420000E-8	0.001891
6.425000E-8	0.001906
6.430000E-8	0.001856
6.435000E-8	0.001984
6.440000E-8	0.002087
6.445000E-8	0.002253
6.450000E-8	0.002359
6.455000E-8	0.002550
6.460000E-8	0.002613
6.465000E-8	0.002584
6.470000E-8	0.002447
6.475000E-8	0.002491
6.480000E-8	0.002328
6.485000E-8	0.002219
6.490000E-8	0.001975
6.495000E-8	0.001816
6.500000E-8	0.001603
6.505000E-8	0.001603
6.510000E-8	0.001609
6.515000E-8	0.001631
6.520000E-8	0.001659
6.525000E-8	0.001666
6.530000E-8	0.001759
6.535000E-8	0.002006
6.540000E-8	0.002131
6.545000E-8	0.002269
6.550000E-8	0.002356
6.555000E-8	0.002450
6.560000E-8	0.002481
6.565000E-8	0.002422
6.570000E-8	0.002300
6.575000E-8	0.002162
6.580000E-8	0.002053
6.585000E-8	0.002053
6.590000E-8	0.001841
6.595000E-8	0.001909
6.600000E-8	0.001834
6.605000E-8	0.001759
6.610000E-8	0.001644
6.615000E-8	0.001878
6.620000E-8	0.001788
6.625000E-8	0.001959
6.630000E-8	0.002084
6.635000E-8	0.002431
6.640000E-8	0.002478
6.645000E-8	0.002628
6.650000E-8	0.002613
6.655000E-8	0.002722
6.660000E-8	0.002709
6.665000E-8	0.002800
6.670000E-8	0.002734
6.675000E-8	0.002597
6.680000E-8	0.002441
6.685000E-8	0.002197
6.690000E-8	0.002156
6.695000E-8	0.002188
6.700000E-8	0.002078
6.705000E-8	0.002162
6.710000E-8	0.002034
6.715000E-8	0.002184
6.720000E-8	0.002219
6.725000E-8	0.002303
6.730000E-8	0.002322
6.735000E-8	0.002431
6.740000E-8	0.002463
6.745000E-8	0.002566
6.750000E-8	0.002459
6.755000E-8	0.002659
6.760000E-8	0.002541
6.765000E-8	0.002619
6.770000E-8	0.002516
6.775000E-8	0.002522
6.780000E-8	0.002272
6.785000E-8	0.002225
6.790000E-8	0.002203
6.795000E-8	0.002078
6.800000E-8	0.001966
6.805000E-8	0.001984
6.810000E-8	0.001803
6.815000E-8	0.001856
6.820000E-8	0.001838
6.825000E-8	0.001897
6.830000E-8	0.001956
6.835000E-8	0.002191
6.840000E-8	0.002184
6.845000E-8	0.002266
6.850000E-8	0.002237
6.855000E-8	0.002237
6.860000E-8	0.002159
6.865000E-8	0.002128
6.870000E-8	0.001922
6.875000E-8	0.002000
6.880000E-8	0.001906
6.885000E-8	0.001859
6.890000E-8	0.001894
6.895000E-8	0.001816
6.900000E-8	0.001900
6.905000E-8	0.001903
6.910000E-8	0.001966
6.915000E-8	0.002219
6.920000E-8	0.002300
6.925000E-8	0.002450
6.930000E-8	0.002509
6.935000E-8	0.002550
6.940000E-8	0.002662
6.945000E-8	0.002688
6.950000E-8	0.002550
6.955000E-8	0.002538
6.960000E-8	0.002397
6.965000E-8	0.002313
6.970000E-8	0.002159
6.975000E-8	0.002050
6.980000E-8	0.001934
6.985000E-8	0.001856
6.990000E-8	0.001972
6.995000E-8	0.002034
7.000000E-8	0.001988
7.005000E-8	0.002034
7.010000E-8	0.002075
7.015000E-8	0.002344
7.020000E-8	0.002419
7.025000E-8	0.002497
7.030000E-8	0.002356
7.035000E-8	0.002500
7.040000E-8	0.002494
7.045000E-8	0.002472
7.050000E-8	0.002375
7.055000E-8	0.002394
7.060000E-8	0.002328
7.065000E-8	0.002288
7.070000E-8	0.002194
7.075000E-8	0.002241
7.080000E-8	0.002141
7.085000E-8	0.002047
7.090000E-8	0.001950
7.095000E-8	0.001913
7.100000E-8	0.001878
7.105000E-8	0.001944
7.110000E-8	0.001972
7.115000E-8	0.002125
7.120000E-8	0.002184
7.125000E-8	0.002328
7.130000E-8	0.002434
7.135000E-8	0.002544
7.140000E-8	0.002575
7.145000E-8	0.002547
7.150000E-8	0.002428
7.155000E-8	0.002388
7.160000E-8	0.002253
7.165000E-8	0.002197
7.170000E-8	0.002169
7.175000E-8	0.002128
7.180000E-8	0.002041
7.185000E-8	0.002025
7.190000E-8	0.002000
7.195000E-8	0.002025
7.200000E-8	0.002087
7.205000E-8	0.002222
7.210000E-8	0.002278
7.215000E-8	0.002347
7.220000E-8	0.002359
7.225000E-8	0.002491
7.230000E-8	0.002469
7.235000E-8	0.002616
7.240000E-8	0.002688
7.245000E-8	0.002622
7.250000E-8	0.002547
7.255000E-8	0.002512
7.260000E-8	0.002325
7.265000E-8	0.002341
7.270000E-8	0.002166
7.275000E-8	0.002153
7.280000E-8	0.002119
7.285000E-8	0.002222
7.290000E-8	0.002122
7.295000E-8	0.002203
7.300000E-8	0.002103
7.305000E-8	0.002153
7.310000E-8	0.002150
7.315000E-8	0.002303
7.320000E-8	0.002303
7.325000E-8	0.002338
7.330000E-8	0.002391
7.335000E-8	0.002447
7.340000E-8	0.002319
7.345000E-8	0.002303
7.350000E-8	0.002213
7.355000E-8	0.002159
7.360000E-8	0.002053
7.365000E-8	0.002028
7.370000E-8	0.001816
7.375000E-8	0.001900
7.380000E-8	0.001881
7.385000E-8	0.001906
7.390000E-8	0.001838
7.395000E-8	0.001841
7.400000E-8	0.001850
7.405000E-8	0.001972
7.410000E-8	0.002025
7.415000E-8	0.002091
7.420000E-8	0.002191
7.425000E-8	0.002369
7.430000E-8	0.002359
7.435000E-8	0.002578
7.440000E-8	0.002541
7.445000E-8	0.002706
7.450000E-8	0.002609
7.455000E-8	0.002544
7.460000E-8	0.002422
7.465000E-8	0.002313
7.470000E-8	0.002256
7.475000E-8	0.002209
7.480000E-8	0.002044
7.485000E-8	0.002041
7.490000E-8	0.002028
7.495000E-8	0.002134
7.500000E-8	0.002119
7.505000E-8	0.002291
7.510000E-8	0.002322
7.515000E-8	0.002431
7.520000E-8	0.002525
7.525000E-8	0.002650
7.530000E-8	0.002653
7.535000E-8	0.002750
7.540000E-8	0.002656
7.545000E-8	0.002662
7.550000E-8	0.002578
7.555000E-8	0.002619
7.560000E-8	0.002372
7.565000E-8	0.002278
7.570000E-8	0.002256
7.575000E-8	0.002094
7.580000E-8	0.002103
7.585000E-8	0.001994
7.590000E-8	0.001891
7.595000E-8	0.002053
7.600000E-8	0.002175
7.605000E-8	0.002184
7.610000E-8	0.002288
7.615000E-8	0.002334
7.620000E-8	0.002219
7.625000E-8	0.002416
7.630000E-8	0.002419
7.635000E-8	0.002478
7.640000E-8	0.002453
7.645000E-8	0.002544
7.650000E-8	0.002409
7.655000E-8	0.002453
7.660000E-8	0.002338
7.665000E-8	0.002194
7.670000E-8	0.002100
7.675000E-8	0.002091
7.680000E-8	0.002000
7.685000E-8	0.002025
7.690000E-8	0.002012
7.695000E-8	0.002087
7.700000E-8	0.002097
7.705000E-8	0.002188
7.710000E-8	0.002194
7.715000E-8	0.002316
7.720000E-8	0.002444
7.725000E-8	0.002466
7.730000E-8	0.002469
7.735000E-8	0.002506
7.740000E-8	0.002553
7.745000E-8	0.002503
7.750000E-8	0.002409
7.755000E-8	0.002394
7.760000E-8	0.002447
7.765000E-8	0.002475
7.770000E-8	0.002509
7.775000E-8	0.002428
7.780000E-8	0.002338
7.785000E-8	0.002378
7.790000E-8	0.002341
7.795000E-8	0.002391
7.800000E-8	0.002478
7.805000E-8	0.002422
7.810000E-8	0.002250
7.815000E-8	0.002250
7.820000E-8	0.002269
7.825000E-8	0.002250
7.830000E-8	0.002144
7.835000E-8	0.002153
7.840000E-8	0.002350
7.845000E-8	0.002313
7.850000E-8	0.002413
7.855000E-8	0.002378
7.860000E-8	0.002384
7.865000E-8	0.002475
7.870000E-8	0.002466
7.875000E-8	0.002338
7.880000E-8	0.002225
7.885000E-8	0.002147
7.890000E-8	0.002116
7.895000E-8	0.002087
7.900000E-8	0.001922
7.905000E-8	0.001959
7.910000E-8	0.002066
7.915000E-8	0.002203
7.920000E-8	0.002150
7.925000E-8	0.002228
7.930000E-8	0.002225
7.935000E-8	0.002322
7.940000E-8	0.002366
7.945000E-8	0.002381
7.950000E-8	0.002322
7.955000E-8	0.002406
7.960000E-8	0.002306
7.965000E-8	0.002309
7.970000E-8	0.002313
7.975000E-8	0.002316
7.980000E-8	0.002237
7.985000E-8	0.002263
7.990000E-8	0.002225
7.995000E-8	0.002369
8.000000E-8	0.002350
8.005000E-8	0.002419
8.010000E-8	0.002481
8.015000E-8	0.002569
8.020000E-8	0.002553
8.025000E-8	0.002550
8.030000E-8	0.002569
8.035000E-8	0.002641
8.040000E-8	0.002634
8.045000E-8	0.002559
8.050000E-8	0.002506
8.055000E-8	0.002372
8.060000E-8	0.002266
8.065000E-8	0.002241
8.070000E-8	0.002178
8.075000E-8	0.002241
8.080000E-8	0.002266
8.085000E-8	0.002437
8.090000E-8	0.002456
8.095000E-8	0.002578
8.100000E-8	0.002653
8.105000E-8	0.002688
8.110000E-8	0.002691
8.115000E-8	0.002666
8.120000E-8	0.002653
8.125000E-8	0.002594
8.130000E-8	0.002531
8.135000E-8	0.002372
8.140000E-8	0.002303
8.145000E-8	0.002197
8.150000E-8	0.002169
8.155000E-8	0.002153
8.160000E-8	0.002184
8.165000E-8	0.002134
8.170000E-8	0.002113
8.175000E-8	0.002219
8.180000E-8	0.002147
8.185000E-8	0.002291
8.190000E-8	0.002225
8.195000E-8	0.002266
8.200000E-8	0.002291
8.205000E-8	0.002309
8.210000E-8	0.002250
8.215000E-8	0.002278
8.220000E-8	0.002147
8.225000E-8	0.002131
8.230000E-8	0.001994
8.235000E-8	0.001991
8.240000E-8	0.001856
8.245000E-8	0.001900
8.250000E-8	0.001738
8.255000E-8	0.001747
8.260000E-8	0.001691
8.265000E-8	0.001841
8.270000E-8	0.001794
8.275000E-8	0.001972
8.280000E-8	0.001931
8.285000E-8	0.002009
8.290000E-8	0.002028
8.295000E-8	0.002188
8.300000E-8	0.002122
8.305000E-8	0.002191
8.310000E-8	0.002153
8.315000E-8	0.002206
8.320000E-8	0.002119
8.325000E-8	0.002156
8.330000E-8	0.002059
8.335000E-8	0.002075
8.340000E-8	0.002044
8.345000E-8	0.001922
8.350000E-8	0.001834
8.355000E-8	0.001888
8.360000E-8	0.002034
8.365000E-8	0.001988
8.370000E-8	0.001900
8.375000E-8	0.002097
8.380000E-8	0.001984
8.385000E-8	0.002053
8.390000E-8	0.002044
8.395000E-8	0.002078
8.400000E-8	0.002041
8.405000E-8	0.002116
8.410000E-8	0.002172
8.415000E-8	0.002263
8.420000E-8	0.002338
8.425000E-8	0.002325
8.430000E-8	0.002309
8.435000E-8	0.002391
8.440000E-8	0.002272
8.445000E-8	0.002206
8.450000E-8	0.002194
8.455000E-8	0.002156
8.460000E-8	0.002075
8.465000E-8	0.002103
8.470000E-8	0.002087
8.475000E-8	0.002131
8.480000E-8	0.002012
8.485000E-8	0.002181
8.490000E-8	0.002063
8.495000E-8	0.002159
8.500000E-8	0.002059
8.505000E-8	0.002184
8.510000E-8	0.002016
8.515000E-8	0.002106
8.520000E-8	0.002116
8.525000E-8	0.002034
8.530000E-8	0.002003
8.535000E-8	0.002156
8.540000E-8	0.002047
8.545000E-8	0.002059
8.550000E-8	0.001972
8.555000E-8	0.001994
8.560000E-8	0.001997
8.565000E-8	0.002131
8.570000E-8	0.002072
8.575000E-8	0.002153
8.580000E-8	0.002097
8.585000E-8	0.002244
8.590000E-8	0.002162
8.595000E-8	0.002222
8.600000E-8	0.002087
8.605000E-8	0.002303
8.610000E-8	0.002328
8.615000E-8	0.002347
8.620000E-8	0.002347
8.625000E-8	0.002363
8.630000E-8	0.002316
8.635000E-8	0.002253
8.640000E-8	0.001994
8.645000E-8	0.002031
8.650000E-8	0.001934
8.655000E-8	0.001925
8.660000E-8	0.001847
8.665000E-8	0.001984
8.670000E-8	0.002034
8.675000E-8	0.002203
8.680000E-8	0.002303
8.685000E-8	0.002497
8.690000E-8	0.002497
8.695000E-8	0.002566
8.700000E-8	0.002444
8.705000E-8	0.002403
8.710000E-8	0.002403
8.715000E-8	0.002463
8.720000E-8	0.002409
8.725000E-8	0.002328
8.730000E-8	0.002241
8.735000E-8	0.002263
8.740000E-8	0.002234
8.745000E-8	0.002213
8.750000E-8	0.002228
8.755000E-8	0.002241
8.760000E-8	0.002225
8.765000E-8	0.002144
8.770000E-8	0.002056
8.775000E-8	0.002078
8.780000E-8	0.002034
8.785000E-8	0.002041
8.790000E-8	0.001953
8.795000E-8	0.002022
8.800000E-8	0.001981
8.805000E-8	0.001991
8.810000E-8	0.001950
8.815000E-8	0.002028
8.820000E-8	0.001978
8.825000E-8	0.001975
8.830000E-8	0.002003
8.835000E-8	0.002094
8.840000E-8	0.002003
8.845000E-8	0.001975
8.850000E-8	0.001988
8.855000E-8	0.002113
8.860000E-8	0.002072
8.865000E-8	0.002056
8.870000E-8	0.002128
8.875000E-8	0.002256
8.880000E-8	0.002331
8.885000E-8	0.002478
8.890000E-8	0.002425
8.895000E-8	0.002456
8.900000E-8	0.002556
8.905000E-8	0.002528
8.910000E-8	0.002437
8.915000E-8	0.002444
8.920000E-8	0.002428
8.925000E-8	0.002303
8.930000E-8	0.002281
8.935000E-8	0.002250
8.940000E-8	0.002275
8.945000E-8	0.002281
8.950000E-8	0.002316
8.955000E-8	0.002353
8.960000E-8	0.002391
8.965000E-8	0.002506
8.970000E-8	0.002491
8.975000E-8	0.002559
8.980000E-8	0.002644
8.985000E-8	0.002563
8.990000E-8	0.002522
8.995000E-8	0.002587
9.000000E-8	0.002447
9.005000E-8	0.002363
9.010000E-8	0.002275
9.015000E-8	0.002253
9.020000E-8	0.002172
9.025000E-8	0.002031
9.030000E-8	0.001947
9.035000E-8	0.001984
9.040000E-8	0.001847
9.045000E-8	0.001825
9.050000E-8	0.001803
9.055000E-8	0.001856
9.060000E-8	0.001894
9.065000E-8	0.001994
9.070000E-8	0.002134
9.075000E-8	0.002128
9.080000E-8	0.002216
9.085000E-8	0.002269
9.090000E-8	0.002241
9.095000E-8	0.002153
9.100000E-8	0.001975
9.105000E-8	0.001953
9.110000E-8	0.001891
9.115000E-8	0.001831
9.120000E-8	0.001716
9.125000E-8	0.001703
9.130000E-8	0.001675
9.135000E-8	0.001725
9.140000E-8	0.001675
9.145000E-8	0.001784
9.150000E-8	0.001847
9.155000E-8	0.002078
9.160000E-8	0.002219
9.165000E-8	0.002363
9.170000E-8	0.002472
9.175000E-8	0.002531
9.180000E-8	0.002606
9.185000E-8	0.002469
9.190000E-8	0.002459
9.195000E-8	0.002466
9.200000E-8	0.002297
9.205000E-8	0.002278
9.210000E-8	0.002053
9.215000E-8	0.002044
9.220000E-8	0.001866
9.225000E-8	0.001888
9.230000E-8	0.001841
9.235000E-8	0.001891
9.240000E-8	0.001941
9.245000E-8	0.002119
9.250000E-8	0.002012
9.255000E-8	0.002247
9.260000E-8	0.002197
9.265000E-8	0.002284
9.270000E-8	0.002219
9.275000E-8	0.002269
9.280000E-8	0.002291
9.285000E-8	0.002466
9.290000E-8	0.002450
9.295000E-8	0.002509
9.300000E-8	0.002381
9.305000E-8	0.002369
9.310000E-8	0.002403
9.315000E-8	0.002459
9.320000E-8	0.002378
9.325000E-8	0.002453
9.330000E-8	0.002363
9.335000E-8	0.002413
9.340000E-8	0.002350
9.345000E-8	0.002406
9.350000E-8	0.002328
9.355000E-8	0.002363
9.360000E-8	0.002334
9.365000E-8	0.002313
9.370000E-8	0.002175
9.375000E-8	0.002272
9.380000E-8	0.002350
9.385000E-8	0.002275
9.390000E-8	0.002272
9.395000E-8	0.002475
9.400000E-8	0.002469
9.405000E-8	0.002531
9.410000E-8	0.002394
9.415000E-8	0.002497
9.420000E-8	0.002528
9.425000E-8	0.002538
9.430000E-8	0.002419
9.435000E-8	0.002425
9.440000E-8	0.002413
9.445000E-8	0.002403
9.450000E-8	0.002437
9.455000E-8	0.002463
9.460000E-8	0.002403
9.465000E-8	0.002356
9.470000E-8	0.002247
9.475000E-8	0.002206
9.480000E-8	0.002250
9.485000E-8	0.002266
9.490000E-8	0.002200
9.495000E-8	0.002200
9.500000E-8	0.002078
9.505000E-8	0.002072
9.510000E-8	0.002059
9.515000E-8	0.002087
9.520000E-8	0.002069
9.525000E-8	0.002222
9.530000E-8	0.002237
9.535000E-8	0.002347
9.540000E-8	0.002275
9.545000E-8	0.002313
9.550000E-8	0.002316
9.555000E-8	0.002284
9.560000E-8	0.002313
9.565000E-8	0.002413
9.570000E-8	0.002284
9.575000E-8	0.002284
9.580000E-8	0.002306
9.585000E-8	0.002253
9.590000E-8	0.002169
9.595000E-8	0.002050
9.600000E-8	0.002003
9.605000E-8	0.002066
9.610000E-8	0.001959
9.615000E-8	0.002053
9.620000E-8	0.002147
9.625000E-8	0.002156
9.630000E-8	0.002244
9.635000E-8	0.002347
9.640000E-8	0.002216
9.645000E-8	0.002228
9.650000E-8	0.002216
9.655000E-8	0.002225
9.660000E-8	0.002153
9.665000E-8	0.002178
9.670000E-8	0.002081
9.675000E-8	0.002072
9.680000E-8	0.002075
9.685000E-8	0.001991
9.690000E-8	0.001956
9.695000E-8	0.002016
9.700000E-8	0.001959
9.705000E-8	0.001963
9.710000E-8	0.001941
9.715000E-8	0.002028
9.720000E-8	0.002044
9.725000E-8	0.002113
9.730000E-8	0.002200
9.735000E-8	0.002197
9.740000E-8	0.002069
9.745000E-8	0.002134
9.750000E-8	0.002134
9.755000E-8	0.002231
9.760000E-8	0.002244
9.765000E-8	0.002281
9.770000E-8	0.002313
9.775000E-8	0.002437
9.780000E-8	0.002366
9.785000E-8	0.002422
9.790000E-8	0.002288
9.795000E-8	0.002300
9.800000E-8	0.002175
9.805000E-8	0.002175
9.810000E-8	0.002138
9.815000E-8	0.002141
9.820000E-8	0.002116
9.825000E-8	0.002128
9.830000E-8	0.002100
9.835000E-8	0.002197
9.840000E-8	0.002147
9.845000E-8	0.002244
9.850000E-8	0.002297
9.855000E-8	0.002237
9.860000E-8	0.002347
9.865000E-8	0.002353
9.870000E-8	0.002259
9.875000E-8	0.002278
9.880000E-8	0.002263
9.885000E-8	0.002272
9.890000E-8	0.002397
9.895000E-8	0.002456
9.900000E-8	0.002213
9.905000E-8	0.002213
9.910000E-8	0.002209
9.915000E-8	0.002175
9.920000E-8	0.002191
9.925000E-8	0.002216
9.930000E-8	0.002113
9.935000E-8	0.002091
9.940000E-8	0.002031
9.945000E-8	0.002006
9.950000E-8	0.001969
9.955000E-8	0.002091
9.960000E-8	0.002041
9.965000E-8	0.002134
9.970000E-8	0.002100
9.975000E-8	0.002269
9.980000E-8	0.002313
9.985000E-8	0.002366
9.990000E-8	0.002391
9.995000E-8	0.002341
