LabVIEW Measurement	
Writer_Version	2
Reader_Version	2
Separator	Tab
Decimal_Separator	.
Multi_Headings	No
X_Columns	Multi
Time_Pref	Relative
Operator	TG lab
Date	2015/03/06
Time	15:44:35.2800536155700683594
***End_of_Header***	
	
Channels	1	
Samples	2000	
Date	1903/12/31	
Time	19:00:00	
X_Dimension	Time	
X0	0.0000000000000000E+0	
Delta_X	5.000000E-11	
***End_of_Header***		
X_Value	Untitled	Comment
0.000000	0.002522
5.000000E-11	0.002458
1.000000E-10	0.002427
1.500000E-10	0.002369
2.000000E-10	0.002300
2.500000E-10	0.002284
3.000000E-10	0.002228
3.500000E-10	0.002245
4.000000E-10	0.002208
4.500000E-10	0.002245
5.000000E-10	0.002297
5.500000E-10	0.002325
6.000000E-10	0.002344
6.500000E-10	0.002331
7.000000E-10	0.002344
7.500000E-10	0.002344
8.000000E-10	0.002358
8.500000E-10	0.002413
9.000000E-10	0.002453
9.500000E-10	0.002517
1.000000E-9	0.002519
1.050000E-9	0.002427
1.100000E-9	0.002459
1.150000E-9	0.002522
1.200000E-9	0.002508
1.250000E-9	0.002450
1.300000E-9	0.002392
1.350000E-9	0.002336
1.400000E-9	0.002323
1.450000E-9	0.002241
1.500000E-9	0.002197
1.550000E-9	0.002234
1.600000E-9	0.002208
1.650000E-9	0.002225
1.700000E-9	0.002202
1.750000E-9	0.002239
1.800000E-9	0.002239
1.850000E-9	0.002280
1.900000E-9	0.002259
1.950000E-9	0.002280
2.000000E-9	0.002259
2.050000E-9	0.002222
2.100000E-9	0.002198
2.150000E-9	0.002142
2.200000E-9	0.002087
2.250000E-9	0.002052
2.300000E-9	0.001988
2.350000E-9	0.002005
2.400000E-9	0.002020
2.450000E-9	0.001981
2.500000E-9	0.002002
2.550000E-9	0.002027
2.600000E-9	0.002078
2.650000E-9	0.002084
2.700000E-9	0.002094
2.750000E-9	0.002067
2.800000E-9	0.002056
2.850000E-9	0.002142
2.900000E-9	0.002173
2.950000E-9	0.002150
3.000000E-9	0.002159
3.050000E-9	0.002186
3.100000E-9	0.002244
3.150000E-9	0.002339
3.200000E-9	0.002353
3.250000E-9	0.002445
3.300000E-9	0.002544
3.350000E-9	0.002550
3.400000E-9	0.002536
3.450000E-9	0.002606
3.500000E-9	0.002538
3.550000E-9	0.002522
3.600000E-9	0.002500
3.650000E-9	0.002469
3.700000E-9	0.002459
3.750000E-9	0.002417
3.800000E-9	0.002388
3.850000E-9	0.002383
3.900000E-9	0.002405
3.950000E-9	0.002452
4.000000E-9	0.002413
4.050000E-9	0.002455
4.100000E-9	0.002516
4.150000E-9	0.002544
4.200000E-9	0.002502
4.250000E-9	0.002498
4.300000E-9	0.002527
4.350000E-9	0.002500
4.400000E-9	0.002511
4.450000E-9	0.002442
4.500000E-9	0.002408
4.550000E-9	0.002456
4.600000E-9	0.002383
4.650000E-9	0.002413
4.700000E-9	0.002461
4.750000E-9	0.002517
4.800000E-9	0.002556
4.850000E-9	0.002636
4.900000E-9	0.002680
4.950000E-9	0.002764
5.000000E-9	0.002859
5.050000E-9	0.002920
5.100000E-9	0.002934
5.150000E-9	0.003014
5.200000E-9	0.003012
5.250000E-9	0.002986
5.300000E-9	0.002938
5.350000E-9	0.002981
5.400000E-9	0.002939
5.450000E-9	0.002916
5.500000E-9	0.002969
5.550000E-9	0.002983
5.600000E-9	0.002992
5.650000E-9	0.003075
5.700000E-9	0.003188
5.750000E-9	0.003261
5.800000E-9	0.003400
5.850000E-9	0.003477
5.900000E-9	0.003611
5.950000E-9	0.003758
6.000000E-9	0.003881
6.050000E-9	0.004145
6.100000E-9	0.004452
6.150000E-9	0.004759
6.200000E-9	0.005053
6.250000E-9	0.005516
6.300000E-9	0.005894
6.350000E-9	0.006413
6.400000E-9	0.006808
6.450000E-9	0.007183
6.500000E-9	0.007470
6.550000E-9	0.007516
6.600000E-9	0.007527
6.650000E-9	0.007406
6.700000E-9	0.007120
6.750000E-9	0.006753
6.800000E-9	0.006342
6.850000E-9	0.006034
6.900000E-9	0.005700
6.950000E-9	0.005567
7.000000E-9	0.005478
7.050000E-9	0.005552
7.100000E-9	0.005756
7.150000E-9	0.006072
7.200000E-9	0.006466
7.250000E-9	0.007052
7.300000E-9	0.007619
7.350000E-9	0.008392
7.400000E-9	0.009264
7.450000E-9	0.010233
7.500000E-9	0.011339
7.550000E-9	0.012517
7.600000E-9	0.013883
7.650000E-9	0.015295
7.700000E-9	0.016672
7.750000E-9	0.018030
7.800000E-9	0.019292
7.850000E-9	0.020438
7.900000E-9	0.021544
7.950000E-9	0.022636
8.000000E-9	0.023731
8.050000E-9	0.024914
8.100000E-9	0.026113
8.150000E-9	0.027394
8.200000E-9	0.028739
8.250000E-9	0.030250
8.300000E-9	0.031647
8.350000E-9	0.032822
8.400000E-9	0.033788
8.450000E-9	0.034355
8.500000E-9	0.034525
8.550000E-9	0.034156
8.600000E-9	0.033298
8.650000E-9	0.031977
8.700000E-9	0.030298
8.750000E-9	0.028353
8.800000E-9	0.026361
8.850000E-9	0.024325
8.900000E-9	0.022377
8.950000E-9	0.020825
9.000000E-9	0.019589
9.050000E-9	0.018895
9.100000E-9	0.018616
9.150000E-9	0.018756
9.200000E-9	0.019172
9.250000E-9	0.019831
9.300000E-9	0.020522
9.350000E-9	0.021169
9.400000E-9	0.021691
9.450000E-9	0.021800
9.500000E-9	0.021625
9.550000E-9	0.021130
9.600000E-9	0.020245
9.650000E-9	0.019061
9.700000E-9	0.017594
9.750000E-9	0.016108
9.800000E-9	0.014670
9.850000E-9	0.013248
9.900000E-9	0.012158
9.950000E-9	0.011392
1.000000E-8	0.010883
1.005000E-8	0.010733
1.010000E-8	0.010877
1.015000E-8	0.011427
1.020000E-8	0.012016
1.025000E-8	0.012758
1.030000E-8	0.013511
1.035000E-8	0.014200
1.040000E-8	0.014572
1.045000E-8	0.014780
1.050000E-8	0.014722
1.055000E-8	0.014384
1.060000E-8	0.013706
1.065000E-8	0.012728
1.070000E-8	0.011692
1.075000E-8	0.010508
1.080000E-8	0.009366
1.085000E-8	0.008334
1.090000E-8	0.007570
1.095000E-8	0.006978
1.100000E-8	0.006683
1.105000E-8	0.006820
1.110000E-8	0.007034
1.115000E-8	0.007617
1.120000E-8	0.008347
1.125000E-8	0.009092
1.130000E-8	0.009792
1.135000E-8	0.010284
1.140000E-8	0.010719
1.145000E-8	0.010825
1.150000E-8	0.010647
1.155000E-8	0.010314
1.160000E-8	0.009645
1.165000E-8	0.008794
1.170000E-8	0.007902
1.175000E-8	0.006927
1.180000E-8	0.005964
1.185000E-8	0.005270
1.190000E-8	0.004645
1.195000E-8	0.004262
1.200000E-8	0.004148
1.205000E-8	0.004214
1.210000E-8	0.004623
1.215000E-8	0.005177
1.220000E-8	0.005730
1.225000E-8	0.006391
1.230000E-8	0.006986
1.235000E-8	0.007513
1.240000E-8	0.007831
1.245000E-8	0.007980
1.250000E-8	0.007894
1.255000E-8	0.007577
1.260000E-8	0.007033
1.265000E-8	0.006341
1.270000E-8	0.005616
1.275000E-8	0.004823
1.280000E-8	0.004020
1.285000E-8	0.003348
1.290000E-8	0.002822
1.295000E-8	0.002536
1.300000E-8	0.002497
1.305000E-8	0.002625
1.310000E-8	0.003075
1.315000E-8	0.003594
1.320000E-8	0.004316
1.325000E-8	0.005034
1.330000E-8	0.005666
1.335000E-8	0.006288
1.340000E-8	0.006722
1.345000E-8	0.006914
1.350000E-8	0.006894
1.355000E-8	0.006630
1.360000E-8	0.006117
1.365000E-8	0.005491
1.370000E-8	0.004645
1.375000E-8	0.003839
1.380000E-8	0.003039
1.385000E-8	0.002342
1.390000E-8	0.001845
1.395000E-8	0.001595
1.400000E-8	0.001556
1.405000E-8	0.001920
1.410000E-8	0.002458
1.415000E-8	0.003177
1.420000E-8	0.003916
1.425000E-8	0.004758
1.430000E-8	0.005573
1.435000E-8	0.006141
1.440000E-8	0.006519
1.445000E-8	0.006711
1.450000E-8	0.006463
1.455000E-8	0.006016
1.460000E-8	0.005294
1.465000E-8	0.004472
1.470000E-8	0.003473
1.475000E-8	0.002467
1.480000E-8	0.001583
1.485000E-8	0.000925
1.490000E-8	0.000484
1.495000E-8	0.000347
1.500000E-8	0.000466
1.505000E-8	0.000886
1.510000E-8	0.001569
1.515000E-8	0.002378
1.520000E-8	0.003256
1.525000E-8	0.004047
1.530000E-8	0.004747
1.535000E-8	0.005303
1.540000E-8	0.005563
1.545000E-8	0.005617
1.550000E-8	0.005398
1.555000E-8	0.004919
1.560000E-8	0.004205
1.565000E-8	0.003411
1.570000E-8	0.002525
1.575000E-8	0.001686
1.580000E-8	0.000994
1.585000E-8	0.000503
1.590000E-8	0.000148
1.595000E-8	0.000191
1.600000E-8	0.000492
1.605000E-8	0.001059
1.610000E-8	0.001908
1.615000E-8	0.002786
1.620000E-8	0.003670
1.625000E-8	0.004548
1.630000E-8	0.005197
1.635000E-8	0.005689
1.640000E-8	0.005823
1.645000E-8	0.005645
1.650000E-8	0.005158
1.655000E-8	0.004470
1.660000E-8	0.003616
1.665000E-8	0.002725
1.670000E-8	0.001817
1.675000E-8	0.000997
1.680000E-8	0.000353
1.685000E-8	7.812500E-5
1.690000E-8	-6.093750E-5
1.695000E-8	0.000163
1.700000E-8	0.000625
1.705000E-8	0.001339
1.710000E-8	0.002152
1.715000E-8	0.003056
1.720000E-8	0.003888
1.725000E-8	0.004633
1.730000E-8	0.005009
1.735000E-8	0.005259
1.740000E-8	0.005175
1.745000E-8	0.004758
1.750000E-8	0.004138
1.755000E-8	0.003411
1.760000E-8	0.002511
1.765000E-8	0.001691
1.770000E-8	0.000905
1.775000E-8	0.000378
1.780000E-8	-5.937500E-5
1.785000E-8	-0.000195
1.790000E-8	-2.343750E-5
1.795000E-8	0.000403
1.800000E-8	0.001008
1.805000E-8	0.001691
1.810000E-8	0.002561
1.815000E-8	0.003267
1.820000E-8	0.003953
1.825000E-8	0.004384
1.830000E-8	0.004681
1.835000E-8	0.004734
1.840000E-8	0.004513
1.845000E-8	0.004087
1.850000E-8	0.003544
1.855000E-8	0.002808
1.860000E-8	0.002114
1.865000E-8	0.001380
1.870000E-8	0.000737
1.875000E-8	0.000347
1.880000E-8	2.968750E-5
1.885000E-8	9.375000E-5
1.890000E-8	0.000228
1.895000E-8	0.000661
1.900000E-8	0.001255
1.905000E-8	0.001922
1.910000E-8	0.002584
1.915000E-8	0.003383
1.920000E-8	0.003967
1.925000E-8	0.004431
1.930000E-8	0.004720
1.935000E-8	0.004725
1.940000E-8	0.004488
1.945000E-8	0.004086
1.950000E-8	0.003516
1.955000E-8	0.002834
1.960000E-8	0.002147
1.965000E-8	0.001473
1.970000E-8	0.000878
1.975000E-8	0.000525
1.980000E-8	0.000363
1.985000E-8	0.000388
1.990000E-8	0.000711
1.995000E-8	0.001292
2.000000E-8	0.001856
2.005000E-8	0.002573
2.010000E-8	0.003309
2.015000E-8	0.003933
2.020000E-8	0.004434
2.025000E-8	0.004708
2.030000E-8	0.004742
2.035000E-8	0.004580
2.040000E-8	0.004194
2.045000E-8	0.003653
2.050000E-8	0.002950
2.055000E-8	0.002206
2.060000E-8	0.001534
2.065000E-8	0.000891
2.070000E-8	0.000350
2.075000E-8	0.000142
2.080000E-8	0.000106
2.085000E-8	0.000261
2.090000E-8	0.000578
2.095000E-8	0.001117
2.100000E-8	0.001744
2.105000E-8	0.002441
2.110000E-8	0.003030
2.115000E-8	0.003614
2.120000E-8	0.004016
2.125000E-8	0.004184
2.130000E-8	0.004209
2.135000E-8	0.004017
2.140000E-8	0.003628
2.145000E-8	0.003095
2.150000E-8	0.002414
2.155000E-8	0.001772
2.160000E-8	0.001134
2.165000E-8	0.000614
2.170000E-8	0.000242
2.175000E-8	7.031250E-5
2.180000E-8	0.000120
2.185000E-8	0.000323
2.190000E-8	0.000792
2.195000E-8	0.001367
2.200000E-8	0.002058
2.205000E-8	0.002767
2.210000E-8	0.003430
2.215000E-8	0.003948
2.220000E-8	0.004383
2.225000E-8	0.004583
2.230000E-8	0.004498
2.235000E-8	0.004134
2.240000E-8	0.003666
2.245000E-8	0.002953
2.250000E-8	0.002186
2.255000E-8	0.001497
2.260000E-8	0.000847
2.265000E-8	0.000333
2.270000E-8	0.000128
2.275000E-8	6.093750E-5
2.280000E-8	0.000317
2.285000E-8	0.000744
2.290000E-8	0.001437
2.295000E-8	0.002219
2.300000E-8	0.003027
2.305000E-8	0.003652
2.310000E-8	0.004256
2.315000E-8	0.004683
2.320000E-8	0.004848
2.325000E-8	0.004698
2.330000E-8	0.004306
2.335000E-8	0.003744
2.340000E-8	0.003006
2.345000E-8	0.002248
2.350000E-8	0.001406
2.355000E-8	0.000741
2.360000E-8	0.000158
2.365000E-8	-0.000192
2.370000E-8	-0.000283
2.375000E-8	-9.843750E-5
2.380000E-8	0.000241
2.385000E-8	0.000817
2.390000E-8	0.001475
2.395000E-8	0.002217
2.400000E-8	0.002938
2.405000E-8	0.003591
2.410000E-8	0.004047
2.415000E-8	0.004305
2.420000E-8	0.004302
2.425000E-8	0.004069
2.430000E-8	0.003533
2.435000E-8	0.002919
2.440000E-8	0.002148
2.445000E-8	0.001409
2.450000E-8	0.000698
2.455000E-8	0.000169
2.460000E-8	-0.000217
2.465000E-8	-0.000367
2.470000E-8	-0.000191
2.475000E-8	0.000183
2.480000E-8	0.000697
2.485000E-8	0.001339
2.490000E-8	0.002058
2.495000E-8	0.002720
2.500000E-8	0.003372
2.505000E-8	0.003881
2.510000E-8	0.004069
2.515000E-8	0.004191
2.520000E-8	0.004023
2.525000E-8	0.003709
2.530000E-8	0.003234
2.535000E-8	0.002684
2.540000E-8	0.002084
2.545000E-8	0.001506
2.550000E-8	0.000950
2.555000E-8	0.000517
2.560000E-8	0.000264
2.565000E-8	0.000222
2.570000E-8	0.000244
2.575000E-8	0.000598
2.580000E-8	0.001036
2.585000E-8	0.001592
2.590000E-8	0.002077
2.595000E-8	0.002725
2.600000E-8	0.003173
2.605000E-8	0.003580
2.610000E-8	0.003731
2.615000E-8	0.003797
2.620000E-8	0.003622
2.625000E-8	0.003309
2.630000E-8	0.002817
2.635000E-8	0.002320
2.640000E-8	0.001716
2.645000E-8	0.001164
2.650000E-8	0.000650
2.655000E-8	0.000370
2.660000E-8	0.000178
2.665000E-8	0.000198
2.670000E-8	0.000369
2.675000E-8	0.000800
2.680000E-8	0.001327
2.685000E-8	0.001847
2.690000E-8	0.002470
2.695000E-8	0.003047
2.700000E-8	0.003455
2.705000E-8	0.003759
2.710000E-8	0.003900
2.715000E-8	0.003842
2.720000E-8	0.003536
2.725000E-8	0.003128
2.730000E-8	0.002625
2.735000E-8	0.002070
2.740000E-8	0.001502
2.745000E-8	0.001025
2.750000E-8	0.000489
2.755000E-8	0.000287
2.760000E-8	0.000134
2.765000E-8	0.000194
2.770000E-8	0.000428
2.775000E-8	0.000909
2.780000E-8	0.001359
2.785000E-8	0.001978
2.790000E-8	0.002559
2.795000E-8	0.003083
2.800000E-8	0.003564
2.805000E-8	0.003833
2.810000E-8	0.004008
2.815000E-8	0.003934
2.820000E-8	0.003691
2.825000E-8	0.003345
2.830000E-8	0.002767
2.835000E-8	0.002223
2.840000E-8	0.001636
2.845000E-8	0.001198
2.850000E-8	0.000786
2.855000E-8	0.000591
2.860000E-8	0.000433
2.865000E-8	0.000642
2.870000E-8	0.000956
2.875000E-8	0.001406
2.880000E-8	0.001969
2.885000E-8	0.002573
2.890000E-8	0.003092
2.895000E-8	0.003597
2.900000E-8	0.003939
2.905000E-8	0.004098
2.910000E-8	0.004102
2.915000E-8	0.003928
2.920000E-8	0.003519
2.925000E-8	0.002984
2.930000E-8	0.002427
2.935000E-8	0.001855
2.940000E-8	0.001255
2.945000E-8	0.000792
2.950000E-8	0.000431
2.955000E-8	0.000247
2.960000E-8	0.000320
2.965000E-8	0.000550
2.970000E-8	0.000864
2.975000E-8	0.001388
2.980000E-8	0.002019
2.985000E-8	0.002589
2.990000E-8	0.003105
2.995000E-8	0.003616
3.000000E-8	0.003863
3.005000E-8	0.003934
3.010000E-8	0.003788
3.015000E-8	0.003534
3.020000E-8	0.003072
3.025000E-8	0.002505
3.030000E-8	0.001980
3.035000E-8	0.001406
3.040000E-8	0.000933
3.045000E-8	0.000564
3.050000E-8	0.000470
3.055000E-8	0.000469
3.060000E-8	0.000697
3.065000E-8	0.001025
3.070000E-8	0.001592
3.075000E-8	0.002150
3.080000E-8	0.002717
3.085000E-8	0.003288
3.090000E-8	0.003659
3.095000E-8	0.003855
3.100000E-8	0.003897
3.105000E-8	0.003830
3.110000E-8	0.003491
3.115000E-8	0.003114
3.120000E-8	0.002553
3.125000E-8	0.001988
3.130000E-8	0.001430
3.135000E-8	0.000989
3.140000E-8	0.000592
3.145000E-8	0.000380
3.150000E-8	0.000341
3.155000E-8	0.000467
3.160000E-8	0.000694
3.165000E-8	0.001128
3.170000E-8	0.001648
3.175000E-8	0.002230
3.180000E-8	0.002773
3.185000E-8	0.003253
3.190000E-8	0.003616
3.195000E-8	0.003895
3.200000E-8	0.003906
3.205000E-8	0.003773
3.210000E-8	0.003463
3.215000E-8	0.003025
3.220000E-8	0.002509
3.225000E-8	0.001953
3.230000E-8	0.001444
3.235000E-8	0.000998
3.240000E-8	0.000750
3.245000E-8	0.000542
3.250000E-8	0.000492
3.255000E-8	0.000720
3.260000E-8	0.000950
3.265000E-8	0.001370
3.270000E-8	0.001828
3.275000E-8	0.002252
3.280000E-8	0.002714
3.285000E-8	0.003036
3.290000E-8	0.003277
3.295000E-8	0.003363
3.300000E-8	0.003278
3.305000E-8	0.003108
3.310000E-8	0.002702
3.315000E-8	0.002350
3.320000E-8	0.001856
3.325000E-8	0.001486
3.330000E-8	0.001100
3.335000E-8	0.000795
3.340000E-8	0.000642
3.345000E-8	0.000661
3.350000E-8	0.000788
3.355000E-8	0.001141
3.360000E-8	0.001508
3.365000E-8	0.002022
3.370000E-8	0.002434
3.375000E-8	0.002900
3.380000E-8	0.003248
3.385000E-8	0.003427
3.390000E-8	0.003550
3.395000E-8	0.003502
3.400000E-8	0.003256
3.405000E-8	0.002991
3.410000E-8	0.002647
3.415000E-8	0.002236
3.420000E-8	0.001836
3.425000E-8	0.001488
3.430000E-8	0.001150
3.435000E-8	0.000955
3.440000E-8	0.000838
3.445000E-8	0.000828
3.450000E-8	0.000952
3.455000E-8	0.001244
3.460000E-8	0.001523
3.465000E-8	0.001872
3.470000E-8	0.002267
3.475000E-8	0.002698
3.480000E-8	0.002992
3.485000E-8	0.003328
3.490000E-8	0.003438
3.495000E-8	0.003511
3.500000E-8	0.003306
3.505000E-8	0.003050
3.510000E-8	0.002686
3.515000E-8	0.002208
3.520000E-8	0.001661
3.525000E-8	0.001284
3.530000E-8	0.000855
3.535000E-8	0.000597
3.540000E-8	0.000464
3.545000E-8	0.000534
3.550000E-8	0.000714
3.555000E-8	0.001139
3.560000E-8	0.001536
3.565000E-8	0.002047
3.570000E-8	0.002519
3.575000E-8	0.002941
3.580000E-8	0.003206
3.585000E-8	0.003450
3.590000E-8	0.003498
3.595000E-8	0.003403
3.600000E-8	0.003159
3.605000E-8	0.002770
3.610000E-8	0.002355
3.615000E-8	0.001844
3.620000E-8	0.001311
3.625000E-8	0.000850
3.630000E-8	0.000500
3.635000E-8	0.000347
3.640000E-8	0.000334
3.645000E-8	0.000481
3.650000E-8	0.000725
3.655000E-8	0.001166
3.660000E-8	0.001566
3.665000E-8	0.002078
3.670000E-8	0.002486
3.675000E-8	0.002952
3.680000E-8	0.003197
3.685000E-8	0.003380
3.690000E-8	0.003375
3.695000E-8	0.003264
3.700000E-8	0.002955
3.705000E-8	0.002684
3.710000E-8	0.002236
3.715000E-8	0.001820
3.720000E-8	0.001463
3.725000E-8	0.001163
3.730000E-8	0.000906
3.735000E-8	0.000834
3.740000E-8	0.000898
3.745000E-8	0.001136
3.750000E-8	0.001402
3.755000E-8	0.001756
3.760000E-8	0.002250
3.765000E-8	0.002678
3.770000E-8	0.003041
3.775000E-8	0.003289
3.780000E-8	0.003355
3.785000E-8	0.003402
3.790000E-8	0.003236
3.795000E-8	0.002959
3.800000E-8	0.002620
3.805000E-8	0.002231
3.810000E-8	0.001814
3.815000E-8	0.001431
3.820000E-8	0.001138
3.825000E-8	0.000889
3.830000E-8	0.000838
3.835000E-8	0.000902
3.840000E-8	0.001014
3.845000E-8	0.001225
3.850000E-8	0.001520
3.855000E-8	0.001877
3.860000E-8	0.002217
3.865000E-8	0.002606
3.870000E-8	0.002900
3.875000E-8	0.003147
3.880000E-8	0.003213
3.885000E-8	0.003241
3.890000E-8	0.003091
3.895000E-8	0.002839
3.900000E-8	0.002442
3.905000E-8	0.002089
3.910000E-8	0.001625
3.915000E-8	0.001259
3.920000E-8	0.000897
3.925000E-8	0.000663
3.930000E-8	0.000602
3.935000E-8	0.000673
3.940000E-8	0.000867
3.945000E-8	0.001206
3.950000E-8	0.001658
3.955000E-8	0.002089
3.960000E-8	0.002520
3.965000E-8	0.002895
3.970000E-8	0.003162
3.975000E-8	0.003289
3.980000E-8	0.003230
3.985000E-8	0.003156
3.990000E-8	0.002917
3.995000E-8	0.002545
4.000000E-8	0.002141
4.005000E-8	0.001691
4.010000E-8	0.001311
4.015000E-8	0.000991
4.020000E-8	0.000813
4.025000E-8	0.000761
4.030000E-8	0.000800
4.035000E-8	0.001025
4.040000E-8	0.001267
4.045000E-8	0.001641
4.050000E-8	0.002053
4.055000E-8	0.002514
4.060000E-8	0.002797
4.065000E-8	0.003080
4.070000E-8	0.003242
4.075000E-8	0.003267
4.080000E-8	0.003159
4.085000E-8	0.002991
4.090000E-8	0.002747
4.095000E-8	0.002423
4.100000E-8	0.002113
4.105000E-8	0.001838
4.110000E-8	0.001583
4.115000E-8	0.001431
4.120000E-8	0.001300
4.125000E-8	0.001328
4.130000E-8	0.001452
4.135000E-8	0.001597
4.140000E-8	0.001830
4.145000E-8	0.002188
4.150000E-8	0.002406
4.155000E-8	0.002689
4.160000E-8	0.003012
4.165000E-8	0.003131
4.170000E-8	0.003209
4.175000E-8	0.003225
4.180000E-8	0.003186
4.185000E-8	0.002863
4.190000E-8	0.002605
4.195000E-8	0.002311
4.200000E-8	0.001972
4.205000E-8	0.001673
4.210000E-8	0.001422
4.215000E-8	0.001284
4.220000E-8	0.001092
4.225000E-8	0.001206
4.230000E-8	0.001325
4.235000E-8	0.001516
4.240000E-8	0.001772
4.245000E-8	0.001995
4.250000E-8	0.002250
4.255000E-8	0.002511
4.260000E-8	0.002652
4.265000E-8	0.002727
4.270000E-8	0.002714
4.275000E-8	0.002609
4.280000E-8	0.002547
4.285000E-8	0.002334
4.290000E-8	0.002094
4.295000E-8	0.001961
4.300000E-8	0.001641
4.305000E-8	0.001463
4.310000E-8	0.001341
4.315000E-8	0.001258
4.320000E-8	0.001214
4.325000E-8	0.001311
4.330000E-8	0.001448
4.335000E-8	0.001663
4.340000E-8	0.001945
4.345000E-8	0.002198
4.350000E-8	0.002425
4.355000E-8	0.002698
4.360000E-8	0.002863
4.365000E-8	0.002995
4.370000E-8	0.003047
4.375000E-8	0.002961
4.380000E-8	0.002813
4.385000E-8	0.002578
4.390000E-8	0.002314
4.395000E-8	0.002048
4.400000E-8	0.001717
4.405000E-8	0.001483
4.410000E-8	0.001233
4.415000E-8	0.001159
4.420000E-8	0.001130
4.425000E-8	0.001211
4.430000E-8	0.001359
4.435000E-8	0.001689
4.440000E-8	0.001991
4.445000E-8	0.002291
4.450000E-8	0.002623
4.455000E-8	0.002991
4.460000E-8	0.003188
4.465000E-8	0.003261
4.470000E-8	0.003330
4.475000E-8	0.003078
4.480000E-8	0.002830
4.485000E-8	0.002511
4.490000E-8	0.002069
4.495000E-8	0.001734
4.500000E-8	0.001467
4.505000E-8	0.001163
4.510000E-8	0.001027
4.515000E-8	0.001020
4.520000E-8	0.001117
4.525000E-8	0.001356
4.530000E-8	0.001577
4.535000E-8	0.001897
4.540000E-8	0.002203
4.545000E-8	0.002452
4.550000E-8	0.002680
4.555000E-8	0.002858
4.560000E-8	0.002908
4.565000E-8	0.002919
4.570000E-8	0.002788
4.575000E-8	0.002606
4.580000E-8	0.002409
4.585000E-8	0.002119
4.590000E-8	0.001806
4.595000E-8	0.001573
4.600000E-8	0.001383
4.605000E-8	0.001277
4.610000E-8	0.001248
4.615000E-8	0.001323
4.620000E-8	0.001452
4.625000E-8	0.001664
4.630000E-8	0.001830
4.635000E-8	0.002181
4.640000E-8	0.002386
4.645000E-8	0.002652
4.650000E-8	0.002828
4.655000E-8	0.003014
4.660000E-8	0.003022
4.665000E-8	0.002955
4.670000E-8	0.002855
4.675000E-8	0.002678
4.680000E-8	0.002472
4.685000E-8	0.002189
4.690000E-8	0.001914
4.695000E-8	0.001687
4.700000E-8	0.001422
4.705000E-8	0.001292
4.710000E-8	0.001294
4.715000E-8	0.001406
4.720000E-8	0.001502
4.725000E-8	0.001694
4.730000E-8	0.001978
4.735000E-8	0.002205
4.740000E-8	0.002431
4.745000E-8	0.002719
4.750000E-8	0.002816
4.755000E-8	0.002947
4.760000E-8	0.002872
4.765000E-8	0.002742
4.770000E-8	0.002572
4.775000E-8	0.002364
4.780000E-8	0.002091
4.785000E-8	0.001797
4.790000E-8	0.001548
4.795000E-8	0.001284
4.800000E-8	0.001050
4.805000E-8	0.000961
4.810000E-8	0.000963
4.815000E-8	0.001086
4.820000E-8	0.001236
4.825000E-8	0.001478
4.830000E-8	0.001661
4.835000E-8	0.001905
4.840000E-8	0.002192
4.845000E-8	0.002350
4.850000E-8	0.002452
4.855000E-8	0.002455
4.860000E-8	0.002386
4.865000E-8	0.002241
4.870000E-8	0.002002
4.875000E-8	0.001825
4.880000E-8	0.001538
4.885000E-8	0.001384
4.890000E-8	0.001159
4.895000E-8	0.001117
4.900000E-8	0.001077
4.905000E-8	0.001170
4.910000E-8	0.001350
4.915000E-8	0.001542
4.920000E-8	0.001844
4.925000E-8	0.002058
4.930000E-8	0.002372
4.935000E-8	0.002591
4.940000E-8	0.002755
4.945000E-8	0.002906
4.950000E-8	0.002947
4.955000E-8	0.002931
4.960000E-8	0.002745
4.965000E-8	0.002656
4.970000E-8	0.002461
4.975000E-8	0.002239
4.980000E-8	0.001953
4.985000E-8	0.001767
4.990000E-8	0.001634
4.995000E-8	0.001511
5.000000E-8	0.001463
5.005000E-8	0.001467
5.010000E-8	0.001538
5.015000E-8	0.001673
5.020000E-8	0.001820
5.025000E-8	0.002059
5.030000E-8	0.002264
5.035000E-8	0.002488
5.040000E-8	0.002602
5.045000E-8	0.002763
5.050000E-8	0.002780
5.055000E-8	0.002808
5.060000E-8	0.002686
5.065000E-8	0.002519
5.070000E-8	0.002341
5.075000E-8	0.002117
5.080000E-8	0.001858
5.085000E-8	0.001694
5.090000E-8	0.001539
5.095000E-8	0.001439
5.100000E-8	0.001431
5.105000E-8	0.001472
5.110000E-8	0.001631
5.115000E-8	0.001834
5.120000E-8	0.001934
5.125000E-8	0.002227
5.130000E-8	0.002463
5.135000E-8	0.002652
5.140000E-8	0.002722
5.145000E-8	0.002836
5.150000E-8	0.002822
5.155000E-8	0.002761
5.160000E-8	0.002645
5.165000E-8	0.002388
5.170000E-8	0.002183
5.175000E-8	0.002008
5.180000E-8	0.001813
5.185000E-8	0.001631
5.190000E-8	0.001530
5.195000E-8	0.001472
5.200000E-8	0.001486
5.205000E-8	0.001580
5.210000E-8	0.001756
5.215000E-8	0.001902
5.220000E-8	0.002111
5.225000E-8	0.002319
5.230000E-8	0.002472
5.235000E-8	0.002642
5.240000E-8	0.002606
5.245000E-8	0.002616
5.250000E-8	0.002534
5.255000E-8	0.002427
5.260000E-8	0.002222
5.265000E-8	0.002108
5.270000E-8	0.001884
5.275000E-8	0.001738
5.280000E-8	0.001489
5.285000E-8	0.001384
5.290000E-8	0.001359
5.295000E-8	0.001298
5.300000E-8	0.001384
5.305000E-8	0.001464
5.310000E-8	0.001566
5.315000E-8	0.001781
5.320000E-8	0.001944
5.325000E-8	0.002103
5.330000E-8	0.002295
5.335000E-8	0.002458
5.340000E-8	0.002483
5.345000E-8	0.002484
5.350000E-8	0.002439
5.355000E-8	0.002284
5.360000E-8	0.002177
5.365000E-8	0.001956
5.370000E-8	0.001791
5.375000E-8	0.001602
5.380000E-8	0.001473
5.385000E-8	0.001441
5.390000E-8	0.001423
5.395000E-8	0.001466
5.400000E-8	0.001581
5.405000E-8	0.001736
5.410000E-8	0.001928
5.415000E-8	0.002081
5.420000E-8	0.002144
5.425000E-8	0.002306
5.430000E-8	0.002428
5.435000E-8	0.002461
5.440000E-8	0.002453
5.445000E-8	0.002455
5.450000E-8	0.002342
5.455000E-8	0.002278
5.460000E-8	0.002162
5.465000E-8	0.002006
5.470000E-8	0.001880
5.475000E-8	0.001775
5.480000E-8	0.001608
5.485000E-8	0.001500
5.490000E-8	0.001425
5.495000E-8	0.001458
5.500000E-8	0.001548
5.505000E-8	0.001659
5.510000E-8	0.001839
5.515000E-8	0.002103
5.520000E-8	0.002294
5.525000E-8	0.002477
5.530000E-8	0.002700
5.535000E-8	0.002828
5.540000E-8	0.002792
5.545000E-8	0.002753
5.550000E-8	0.002645
5.555000E-8	0.002428
5.560000E-8	0.002269
5.565000E-8	0.002014
5.570000E-8	0.001844
5.575000E-8	0.001653
5.580000E-8	0.001538
5.585000E-8	0.001486
5.590000E-8	0.001578
5.595000E-8	0.001681
5.600000E-8	0.001902
5.605000E-8	0.002075
5.610000E-8	0.002289
5.615000E-8	0.002486
5.620000E-8	0.002680
5.625000E-8	0.002723
5.630000E-8	0.002739
5.635000E-8	0.002666
5.640000E-8	0.002480
5.645000E-8	0.002359
5.650000E-8	0.002025
5.655000E-8	0.001833
5.660000E-8	0.001541
5.665000E-8	0.001350
5.670000E-8	0.001209
5.675000E-8	0.001108
5.680000E-8	0.001105
5.685000E-8	0.001195
5.690000E-8	0.001352
5.695000E-8	0.001591
5.700000E-8	0.001816
5.705000E-8	0.002073
5.710000E-8	0.002295
5.715000E-8	0.002545
5.720000E-8	0.002653
5.725000E-8	0.002716
5.730000E-8	0.002770
5.735000E-8	0.002739
5.740000E-8	0.002564
5.745000E-8	0.002363
5.750000E-8	0.002234
5.755000E-8	0.002067
5.760000E-8	0.001888
5.765000E-8	0.001705
5.770000E-8	0.001608
5.775000E-8	0.001511
5.780000E-8	0.001489
5.785000E-8	0.001495
5.790000E-8	0.001552
5.795000E-8	0.001817
5.800000E-8	0.001945
5.805000E-8	0.002147
5.810000E-8	0.002319
5.815000E-8	0.002544
5.820000E-8	0.002595
5.825000E-8	0.002659
5.830000E-8	0.002616
5.835000E-8	0.002555
5.840000E-8	0.002431
5.845000E-8	0.002230
5.850000E-8	0.002067
5.855000E-8	0.001850
5.860000E-8	0.001638
5.865000E-8	0.001498
5.870000E-8	0.001358
5.875000E-8	0.001345
5.880000E-8	0.001406
5.885000E-8	0.001384
5.890000E-8	0.001508
5.895000E-8	0.001673
5.900000E-8	0.001858
5.905000E-8	0.002116
5.910000E-8	0.002258
5.915000E-8	0.002400
5.920000E-8	0.002536
5.925000E-8	0.002619
5.930000E-8	0.002633
5.935000E-8	0.002623
5.940000E-8	0.002556
5.945000E-8	0.002497
5.950000E-8	0.002370
5.955000E-8	0.002166
5.960000E-8	0.002095
5.965000E-8	0.001916
5.970000E-8	0.001761
5.975000E-8	0.001747
5.980000E-8	0.001727
5.985000E-8	0.001752
5.990000E-8	0.001852
5.995000E-8	0.001983
6.000000E-8	0.002067
6.005000E-8	0.002205
6.010000E-8	0.002230
6.015000E-8	0.002363
6.020000E-8	0.002389
6.025000E-8	0.002367
6.030000E-8	0.002334
6.035000E-8	0.002300
6.040000E-8	0.002225
6.045000E-8	0.002131
6.050000E-8	0.002052
6.055000E-8	0.001917
6.060000E-8	0.001802
6.065000E-8	0.001716
6.070000E-8	0.001655
6.075000E-8	0.001725
6.080000E-8	0.001783
6.085000E-8	0.001834
6.090000E-8	0.001984
6.095000E-8	0.002138
6.100000E-8	0.002392
6.105000E-8	0.002536
6.110000E-8	0.002545
6.115000E-8	0.002619
6.120000E-8	0.002659
6.125000E-8	0.002625
6.130000E-8	0.002587
6.135000E-8	0.002428
6.140000E-8	0.002331
6.145000E-8	0.002145
6.150000E-8	0.002011
6.155000E-8	0.001875
6.160000E-8	0.001658
6.165000E-8	0.001608
6.170000E-8	0.001550
6.175000E-8	0.001538
6.180000E-8	0.001541
6.185000E-8	0.001667
6.190000E-8	0.001736
6.195000E-8	0.001852
6.200000E-8	0.001997
6.205000E-8	0.002063
6.210000E-8	0.002123
6.215000E-8	0.002178
6.220000E-8	0.002153
6.225000E-8	0.002145
6.230000E-8	0.001967
6.235000E-8	0.001898
6.240000E-8	0.001872
6.245000E-8	0.001703
6.250000E-8	0.001498
6.255000E-8	0.001444
6.260000E-8	0.001437
6.265000E-8	0.001423
6.270000E-8	0.001500
6.275000E-8	0.001602
6.280000E-8	0.001764
6.285000E-8	0.001866
6.290000E-8	0.002056
6.295000E-8	0.002234
6.300000E-8	0.002241
6.305000E-8	0.002327
6.310000E-8	0.002334
6.315000E-8	0.002348
6.320000E-8	0.002258
6.325000E-8	0.002194
6.330000E-8	0.002131
6.335000E-8	0.002106
6.340000E-8	0.001944
6.345000E-8	0.001883
6.350000E-8	0.001886
6.355000E-8	0.001937
6.360000E-8	0.001956
6.365000E-8	0.001956
6.370000E-8	0.002033
6.375000E-8	0.002078
6.380000E-8	0.002172
6.385000E-8	0.002245
6.390000E-8	0.002303
6.395000E-8	0.002425
6.400000E-8	0.002406
6.405000E-8	0.002456
6.410000E-8	0.002405
6.415000E-8	0.002316
6.420000E-8	0.002230
6.425000E-8	0.002156
6.430000E-8	0.002041
6.435000E-8	0.001897
6.440000E-8	0.001806
6.445000E-8	0.001748
6.450000E-8	0.001719
6.455000E-8	0.001695
6.460000E-8	0.001689
6.465000E-8	0.001708
6.470000E-8	0.001780
6.475000E-8	0.001839
6.480000E-8	0.001886
6.485000E-8	0.001933
6.490000E-8	0.001977
6.495000E-8	0.002066
6.500000E-8	0.002059
6.505000E-8	0.002081
6.510000E-8	0.002077
6.515000E-8	0.002027
6.520000E-8	0.001980
6.525000E-8	0.001969
6.530000E-8	0.001952
6.535000E-8	0.001933
6.540000E-8	0.001888
6.545000E-8	0.001761
6.550000E-8	0.001727
6.555000E-8	0.001680
6.560000E-8	0.001741
6.565000E-8	0.001780
6.570000E-8	0.001798
6.575000E-8	0.001881
6.580000E-8	0.001981
6.585000E-8	0.002075
6.590000E-8	0.002239
6.595000E-8	0.002364
6.600000E-8	0.002473
6.605000E-8	0.002600
6.610000E-8	0.002592
6.615000E-8	0.002555
6.620000E-8	0.002550
6.625000E-8	0.002467
6.630000E-8	0.002319
6.635000E-8	0.002223
6.640000E-8	0.002058
6.645000E-8	0.001895
6.650000E-8	0.001827
6.655000E-8	0.001752
6.660000E-8	0.001750
6.665000E-8	0.001716
6.670000E-8	0.001763
6.675000E-8	0.001886
6.680000E-8	0.001980
6.685000E-8	0.002050
6.690000E-8	0.002144
6.695000E-8	0.002217
6.700000E-8	0.002241
6.705000E-8	0.002161
6.710000E-8	0.002066
6.715000E-8	0.002066
6.720000E-8	0.002031
6.725000E-8	0.001936
6.730000E-8	0.001836
6.735000E-8	0.001789
6.740000E-8	0.001725
6.745000E-8	0.001664
6.750000E-8	0.001583
6.755000E-8	0.001681
6.760000E-8	0.001678
6.765000E-8	0.001753
6.770000E-8	0.001800
6.775000E-8	0.001963
6.780000E-8	0.001995
6.785000E-8	0.002061
6.790000E-8	0.002119
6.795000E-8	0.002144
6.800000E-8	0.002158
6.805000E-8	0.002134
6.810000E-8	0.002197
6.815000E-8	0.002130
6.820000E-8	0.002033
6.825000E-8	0.001950
6.830000E-8	0.001847
6.835000E-8	0.001786
6.840000E-8	0.001697
6.845000E-8	0.001669
6.850000E-8	0.001695
6.855000E-8	0.001714
6.860000E-8	0.001797
6.865000E-8	0.001848
6.870000E-8	0.001967
6.875000E-8	0.002063
6.880000E-8	0.002173
6.885000E-8	0.002303
6.890000E-8	0.002317
6.895000E-8	0.002397
6.900000E-8	0.002342
6.905000E-8	0.002370
6.910000E-8	0.002234
6.915000E-8	0.002170
6.920000E-8	0.002084
6.925000E-8	0.001981
6.930000E-8	0.001873
6.935000E-8	0.001870
6.940000E-8	0.001778
6.945000E-8	0.001767
6.950000E-8	0.001816
6.955000E-8	0.001830
6.960000E-8	0.001867
6.965000E-8	0.002000
6.970000E-8	0.002069
6.975000E-8	0.002219
6.980000E-8	0.002281
6.985000E-8	0.002416
6.990000E-8	0.002448
6.995000E-8	0.002508
7.000000E-8	0.002503
7.005000E-8	0.002489
7.010000E-8	0.002381
7.015000E-8	0.002319
7.020000E-8	0.002184
7.025000E-8	0.002100
7.030000E-8	0.001975
7.035000E-8	0.001914
7.040000E-8	0.001827
7.045000E-8	0.001863
7.050000E-8	0.001891
7.055000E-8	0.001866
7.060000E-8	0.001923
7.065000E-8	0.002025
7.070000E-8	0.002041
7.075000E-8	0.002170
7.080000E-8	0.002148
7.085000E-8	0.002228
7.090000E-8	0.002242
7.095000E-8	0.002291
7.100000E-8	0.002277
7.105000E-8	0.002278
7.110000E-8	0.002291
7.115000E-8	0.002248
7.120000E-8	0.002173
7.125000E-8	0.002055
7.130000E-8	0.001970
7.135000E-8	0.001869
7.140000E-8	0.001841
7.145000E-8	0.001716
7.150000E-8	0.001689
7.155000E-8	0.001684
7.160000E-8	0.001655
7.165000E-8	0.001759
7.170000E-8	0.001842
7.175000E-8	0.001973
7.180000E-8	0.002063
7.185000E-8	0.002228
7.190000E-8	0.002298
7.195000E-8	0.002402
7.200000E-8	0.002394
7.205000E-8	0.002436
7.210000E-8	0.002497
7.215000E-8	0.002420
7.220000E-8	0.002252
7.225000E-8	0.002227
7.230000E-8	0.002139
7.235000E-8	0.002075
7.240000E-8	0.002103
7.245000E-8	0.002052
7.250000E-8	0.002041
7.255000E-8	0.002102
7.260000E-8	0.002045
7.265000E-8	0.002134
7.270000E-8	0.002081
7.275000E-8	0.002152
7.280000E-8	0.002111
7.285000E-8	0.002094
7.290000E-8	0.002009
7.295000E-8	0.001942
7.300000E-8	0.001902
7.305000E-8	0.001830
7.310000E-8	0.001741
7.315000E-8	0.001698
7.320000E-8	0.001627
7.325000E-8	0.001641
7.330000E-8	0.001622
7.335000E-8	0.001606
7.340000E-8	0.001605
7.345000E-8	0.001619
7.350000E-8	0.001658
7.355000E-8	0.001811
7.360000E-8	0.001798
7.365000E-8	0.001884
7.370000E-8	0.001884
7.375000E-8	0.001933
7.380000E-8	0.001937
7.385000E-8	0.001950
7.390000E-8	0.001995
7.395000E-8	0.002017
7.400000E-8	0.001916
7.405000E-8	0.001966
7.410000E-8	0.001944
7.415000E-8	0.001928
7.420000E-8	0.001939
7.425000E-8	0.001937
7.430000E-8	0.001945
7.435000E-8	0.001973
7.440000E-8	0.001983
7.445000E-8	0.002045
7.450000E-8	0.002025
7.455000E-8	0.002109
7.460000E-8	0.002141
7.465000E-8	0.002258
7.470000E-8	0.002341
7.475000E-8	0.002436
7.480000E-8	0.002497
7.485000E-8	0.002613
7.490000E-8	0.002553
7.495000E-8	0.002598
7.500000E-8	0.002548
7.505000E-8	0.002453
7.510000E-8	0.002366
7.515000E-8	0.002305
7.520000E-8	0.002127
7.525000E-8	0.002097
7.530000E-8	0.002014
7.535000E-8	0.002003
7.540000E-8	0.002014
7.545000E-8	0.002042
7.550000E-8	0.002089
7.555000E-8	0.002147
7.560000E-8	0.002219
7.565000E-8	0.002288
7.570000E-8	0.002339
7.575000E-8	0.002380
7.580000E-8	0.002256
7.585000E-8	0.002216
7.590000E-8	0.002152
7.595000E-8	0.002078
7.600000E-8	0.001927
7.605000E-8	0.001881
7.610000E-8	0.001816
7.615000E-8	0.001770
7.620000E-8	0.001727
7.625000E-8	0.001711
7.630000E-8	0.001666
7.635000E-8	0.001725
7.640000E-8	0.001738
7.645000E-8	0.001778
7.650000E-8	0.001841
7.655000E-8	0.001895
7.660000E-8	0.002006
7.665000E-8	0.002056
7.670000E-8	0.002045
7.675000E-8	0.002027
7.680000E-8	0.001983
7.685000E-8	0.002005
7.690000E-8	0.001942
7.695000E-8	0.001908
7.700000E-8	0.001920
7.705000E-8	0.001873
7.710000E-8	0.001931
7.715000E-8	0.001934
7.720000E-8	0.001913
7.725000E-8	0.001970
7.730000E-8	0.002081
7.735000E-8	0.002159
7.740000E-8	0.002197
7.745000E-8	0.002259
7.750000E-8	0.002384
7.755000E-8	0.002359
7.760000E-8	0.002388
7.765000E-8	0.002470
7.770000E-8	0.002489
7.775000E-8	0.002483
7.780000E-8	0.002477
7.785000E-8	0.002433
7.790000E-8	0.002322
7.795000E-8	0.002225
7.800000E-8	0.002147
7.805000E-8	0.002050
7.810000E-8	0.002014
7.815000E-8	0.001981
7.820000E-8	0.001909
7.825000E-8	0.001883
7.830000E-8	0.001983
7.835000E-8	0.002061
7.840000E-8	0.002131
7.845000E-8	0.002248
7.850000E-8	0.002330
7.855000E-8	0.002334
7.860000E-8	0.002378
7.865000E-8	0.002384
7.870000E-8	0.002370
7.875000E-8	0.002317
7.880000E-8	0.002244
7.885000E-8	0.002172
7.890000E-8	0.002152
7.895000E-8	0.002061
7.900000E-8	0.002006
7.905000E-8	0.002081
7.910000E-8	0.002022
7.915000E-8	0.001989
7.920000E-8	0.001967
7.925000E-8	0.001959
7.930000E-8	0.002003
7.935000E-8	0.002053
7.940000E-8	0.002053
7.945000E-8	0.002113
7.950000E-8	0.002034
7.955000E-8	0.002033
7.960000E-8	0.002100
7.965000E-8	0.002078
7.970000E-8	0.002059
7.975000E-8	0.002053
7.980000E-8	0.002022
7.985000E-8	0.001978
7.990000E-8	0.001852
7.995000E-8	0.001872
8.000000E-8	0.001841
8.005000E-8	0.001811
8.010000E-8	0.001755
8.015000E-8	0.001731
8.020000E-8	0.001695
8.025000E-8	0.001766
8.030000E-8	0.001758
8.035000E-8	0.001789
8.040000E-8	0.001850
8.045000E-8	0.001937
8.050000E-8	0.001936
8.055000E-8	0.002075
8.060000E-8	0.002153
8.065000E-8	0.002237
8.070000E-8	0.002300
8.075000E-8	0.002281
8.080000E-8	0.002266
8.085000E-8	0.002277
8.090000E-8	0.002258
8.095000E-8	0.002241
8.100000E-8	0.002117
8.105000E-8	0.002092
8.110000E-8	0.002100
8.115000E-8	0.002009
8.120000E-8	0.001939
8.125000E-8	0.001905
8.130000E-8	0.001888
8.135000E-8	0.001852
8.140000E-8	0.001823
8.145000E-8	0.001802
8.150000E-8	0.001834
8.155000E-8	0.001845
8.160000E-8	0.001841
8.165000E-8	0.001900
8.170000E-8	0.001902
8.175000E-8	0.001919
8.180000E-8	0.001881
8.185000E-8	0.001922
8.190000E-8	0.001880
8.195000E-8	0.001877
8.200000E-8	0.001884
8.205000E-8	0.001873
8.210000E-8	0.001855
8.215000E-8	0.001923
8.220000E-8	0.001891
8.225000E-8	0.001923
8.230000E-8	0.001934
8.235000E-8	0.001944
8.240000E-8	0.001956
8.245000E-8	0.001986
8.250000E-8	0.002034
8.255000E-8	0.002064
8.260000E-8	0.002156
8.265000E-8	0.002134
8.270000E-8	0.002183
8.275000E-8	0.002113
8.280000E-8	0.002144
8.285000E-8	0.002067
8.290000E-8	0.002073
8.295000E-8	0.002012
8.300000E-8	0.001977
8.305000E-8	0.001941
8.310000E-8	0.001911
8.315000E-8	0.001948
8.320000E-8	0.002003
8.325000E-8	0.001948
8.330000E-8	0.002050
8.335000E-8	0.002092
8.340000E-8	0.002089
8.345000E-8	0.002150
8.350000E-8	0.002213
8.355000E-8	0.002325
8.360000E-8	0.002284
8.365000E-8	0.002369
8.370000E-8	0.002320
8.375000E-8	0.002286
8.380000E-8	0.002250
8.385000E-8	0.002189
8.390000E-8	0.002117
8.395000E-8	0.002100
8.400000E-8	0.002111
8.405000E-8	0.002109
8.410000E-8	0.002123
8.415000E-8	0.002161
8.420000E-8	0.002167
8.425000E-8	0.002233
8.430000E-8	0.002205
8.435000E-8	0.002289
8.440000E-8	0.002286
8.445000E-8	0.002306
8.450000E-8	0.002247
8.455000E-8	0.002284
8.460000E-8	0.002233
8.465000E-8	0.002213
8.470000E-8	0.002181
8.475000E-8	0.002159
8.480000E-8	0.002084
8.485000E-8	0.001992
8.490000E-8	0.001961
8.495000E-8	0.001803
8.500000E-8	0.001773
8.505000E-8	0.001711
8.510000E-8	0.001705
8.515000E-8	0.001680
8.520000E-8	0.001702
8.525000E-8	0.001714
8.530000E-8	0.001727
8.535000E-8	0.001830
8.540000E-8	0.001877
8.545000E-8	0.001948
8.550000E-8	0.002033
8.555000E-8	0.002020
8.560000E-8	0.002016
8.565000E-8	0.002056
8.570000E-8	0.002003
8.575000E-8	0.001955
8.580000E-8	0.001858
8.585000E-8	0.001859
8.590000E-8	0.001825
8.595000E-8	0.001823
8.600000E-8	0.001834
8.605000E-8	0.001823
8.610000E-8	0.001858
8.615000E-8	0.001931
8.620000E-8	0.001992
8.625000E-8	0.002027
8.630000E-8	0.002127
8.635000E-8	0.002119
8.640000E-8	0.002202
8.645000E-8	0.002236
8.650000E-8	0.002214
8.655000E-8	0.002264
8.660000E-8	0.002288
8.665000E-8	0.002323
8.670000E-8	0.002314
8.675000E-8	0.002280
8.680000E-8	0.002275
8.685000E-8	0.002247
8.690000E-8	0.002205
8.695000E-8	0.002147
8.700000E-8	0.002066
8.705000E-8	0.002047
8.710000E-8	0.001975
8.715000E-8	0.002014
8.720000E-8	0.001972
8.725000E-8	0.001969
8.730000E-8	0.001958
8.735000E-8	0.002014
8.740000E-8	0.002042
8.745000E-8	0.002083
8.750000E-8	0.002103
8.755000E-8	0.002141
8.760000E-8	0.002114
8.765000E-8	0.002109
8.770000E-8	0.002044
8.775000E-8	0.001970
8.780000E-8	0.001888
8.785000E-8	0.001875
8.790000E-8	0.001783
8.795000E-8	0.001742
8.800000E-8	0.001777
8.805000E-8	0.001769
8.810000E-8	0.001792
8.815000E-8	0.001861
8.820000E-8	0.001900
8.825000E-8	0.001959
8.830000E-8	0.002022
8.835000E-8	0.002050
8.840000E-8	0.002086
8.845000E-8	0.002147
8.850000E-8	0.002117
8.855000E-8	0.002158
8.860000E-8	0.002086
8.865000E-8	0.002097
8.870000E-8	0.002144
8.875000E-8	0.002117
8.880000E-8	0.002063
8.885000E-8	0.002008
8.890000E-8	0.002023
8.895000E-8	0.001975
8.900000E-8	0.001944
8.905000E-8	0.001937
8.910000E-8	0.001875
8.915000E-8	0.001875
8.920000E-8	0.001830
8.925000E-8	0.001898
8.930000E-8	0.001894
8.935000E-8	0.001970
8.940000E-8	0.002014
8.945000E-8	0.002117
8.950000E-8	0.002164
8.955000E-8	0.002161
8.960000E-8	0.002233
8.965000E-8	0.002314
8.970000E-8	0.002269
8.975000E-8	0.002261
8.980000E-8	0.002223
8.985000E-8	0.002189
8.990000E-8	0.002111
8.995000E-8	0.002067
9.000000E-8	0.001939
9.005000E-8	0.001956
9.010000E-8	0.001889
9.015000E-8	0.001927
9.020000E-8	0.001956
9.025000E-8	0.001966
9.030000E-8	0.001948
9.035000E-8	0.002067
9.040000E-8	0.002089
9.045000E-8	0.002087
9.050000E-8	0.002083
9.055000E-8	0.002066
9.060000E-8	0.002045
9.065000E-8	0.002056
9.070000E-8	0.002089
9.075000E-8	0.002067
9.080000E-8	0.002052
9.085000E-8	0.002086
9.090000E-8	0.002059
9.095000E-8	0.002080
9.100000E-8	0.002017
9.105000E-8	0.002033
9.110000E-8	0.001947
9.115000E-8	0.001963
9.120000E-8	0.001936
9.125000E-8	0.001937
9.130000E-8	0.002027
9.135000E-8	0.002142
9.140000E-8	0.002209
9.145000E-8	0.002202
9.150000E-8	0.002180
9.155000E-8	0.002228
9.160000E-8	0.002189
9.165000E-8	0.002125
9.170000E-8	0.002086
9.175000E-8	0.002052
9.180000E-8	0.001925
9.185000E-8	0.001898
9.190000E-8	0.001820
9.195000E-8	0.001817
9.200000E-8	0.001758
9.205000E-8	0.001814
9.210000E-8	0.001855
9.215000E-8	0.001853
9.220000E-8	0.001911
9.225000E-8	0.001970
9.230000E-8	0.001952
9.235000E-8	0.002022
9.240000E-8	0.002008
9.245000E-8	0.001927
9.250000E-8	0.001933
9.255000E-8	0.001944
9.260000E-8	0.001928
9.265000E-8	0.001941
9.270000E-8	0.001997
9.275000E-8	0.001988
9.280000E-8	0.002061
9.285000E-8	0.002052
9.290000E-8	0.002095
9.295000E-8	0.002078
9.300000E-8	0.002055
9.305000E-8	0.002056
9.310000E-8	0.002034
9.315000E-8	0.002073
9.320000E-8	0.002116
9.325000E-8	0.002161
9.330000E-8	0.002209
9.335000E-8	0.002272
9.340000E-8	0.002338
9.345000E-8	0.002320
9.350000E-8	0.002259
9.355000E-8	0.002258
9.360000E-8	0.002186
9.365000E-8	0.002109
9.370000E-8	0.002012
9.375000E-8	0.002016
9.380000E-8	0.001875
9.385000E-8	0.001863
9.390000E-8	0.001839
9.395000E-8	0.001845
9.400000E-8	0.001819
9.405000E-8	0.001850
9.410000E-8	0.001913
9.415000E-8	0.001942
9.420000E-8	0.001969
9.425000E-8	0.001955
9.430000E-8	0.001937
9.435000E-8	0.001983
9.440000E-8	0.001963
9.445000E-8	0.001942
9.450000E-8	0.001927
9.455000E-8	0.001869
9.460000E-8	0.001827
9.465000E-8	0.001681
9.470000E-8	0.001702
9.475000E-8	0.001684
9.480000E-8	0.001620
9.485000E-8	0.001566
9.490000E-8	0.001608
9.495000E-8	0.001677
9.500000E-8	0.001684
9.505000E-8	0.001753
9.510000E-8	0.001803
9.515000E-8	0.001917
9.520000E-8	0.001933
9.525000E-8	0.002086
9.530000E-8	0.002122
9.535000E-8	0.002181
9.540000E-8	0.002205
9.545000E-8	0.002195
9.550000E-8	0.002167
9.555000E-8	0.002087
9.560000E-8	0.002089
9.565000E-8	0.002009
9.570000E-8	0.001856
9.575000E-8	0.001777
9.580000E-8	0.001691
9.585000E-8	0.001623
9.590000E-8	0.001625
9.595000E-8	0.001638
9.600000E-8	0.001663
9.605000E-8	0.001730
9.610000E-8	0.001823
9.615000E-8	0.001886
9.620000E-8	0.001942
9.625000E-8	0.002031
9.630000E-8	0.002008
9.635000E-8	0.002012
9.640000E-8	0.002011
9.645000E-8	0.001995
9.650000E-8	0.001984
9.655000E-8	0.001866
9.660000E-8	0.001841
9.665000E-8	0.001853
9.670000E-8	0.001838
9.675000E-8	0.001881
9.680000E-8	0.001909
9.685000E-8	0.001947
9.690000E-8	0.001981
9.695000E-8	0.002017
9.700000E-8	0.002058
9.705000E-8	0.002133
9.710000E-8	0.002156
9.715000E-8	0.002127
9.720000E-8	0.002106
9.725000E-8	0.002077
9.730000E-8	0.002084
9.735000E-8	0.001997
9.740000E-8	0.001944
9.745000E-8	0.001933
9.750000E-8	0.001934
9.755000E-8	0.001920
9.760000E-8	0.001919
9.765000E-8	0.001914
9.770000E-8	0.001956
9.775000E-8	0.001905
9.780000E-8	0.001883
9.785000E-8	0.001934
9.790000E-8	0.001919
9.795000E-8	0.001908
9.800000E-8	0.001944
9.805000E-8	0.001967
9.810000E-8	0.001953
9.815000E-8	0.001989
9.820000E-8	0.001958
9.825000E-8	0.001934
9.830000E-8	0.001903
9.835000E-8	0.001995
9.840000E-8	0.002044
9.845000E-8	0.002067
9.850000E-8	0.002050
9.855000E-8	0.002123
9.860000E-8	0.002100
9.865000E-8	0.002092
9.870000E-8	0.002148
9.875000E-8	0.002053
9.880000E-8	0.002023
9.885000E-8	0.002017
9.890000E-8	0.001992
9.895000E-8	0.002023
9.900000E-8	0.002019
9.905000E-8	0.002113
9.910000E-8	0.002197
9.915000E-8	0.002338
9.920000E-8	0.002394
9.925000E-8	0.002433
9.930000E-8	0.002378
9.935000E-8	0.002389
9.940000E-8	0.002375
9.945000E-8	0.002305
9.950000E-8	0.002225
9.955000E-8	0.002195
9.960000E-8	0.002109
9.965000E-8	0.002139
9.970000E-8	0.002150
9.975000E-8	0.002194
9.980000E-8	0.002216
9.985000E-8	0.002277
9.990000E-8	0.002375
9.995000E-8	0.002452
