LabVIEW Measurement	
Writer_Version	2
Reader_Version	2
Separator	Tab
Decimal_Separator	.
Multi_Headings	No
X_Columns	Multi
Time_Pref	Relative
Operator	TG lab
Date	2015/03/06
Time	18:02:45.2902150154113769531
***End_of_Header***	
	
Channels	1	
Samples	2000	
Date	2015/03/06	
Time	18:02:45.2902150154113769531	
X_Dimension	Time	
X0	0.0000000000000000E+0	
Delta_X	5.000000E-11	
***End_of_Header***		
X_Value	Untitled	Comment
0.000000	0.003438
5.000000E-11	0.003547
1.000000E-10	0.003367
1.500000E-10	0.003289
2.000000E-10	0.003203
2.500000E-10	0.003102
3.000000E-10	0.002898
3.500000E-10	0.003008
4.000000E-10	0.002891
4.500000E-10	0.003086
5.000000E-10	0.002906
5.500000E-10	0.002984
6.000000E-10	0.003133
6.500000E-10	0.003273
7.000000E-10	0.003195
7.500000E-10	0.003352
8.000000E-10	0.003383
8.500000E-10	0.003445
9.000000E-10	0.003492
9.500000E-10	0.003750
1.000000E-9	0.003711
1.050000E-9	0.003648
1.100000E-9	0.003312
1.150000E-9	0.003391
1.200000E-9	0.003477
1.250000E-9	0.003312
1.300000E-9	0.003180
1.350000E-9	0.003422
1.400000E-9	0.003344
1.450000E-9	0.003484
1.500000E-9	0.003680
1.550000E-9	0.003711
1.600000E-9	0.003586
1.650000E-9	0.003742
1.700000E-9	0.003523
1.750000E-9	0.003664
1.800000E-9	0.003695
1.850000E-9	0.003891
1.900000E-9	0.003977
1.950000E-9	0.003945
2.000000E-9	0.004063
2.050000E-9	0.004070
2.100000E-9	0.004211
2.150000E-9	0.004219
2.200000E-9	0.004188
2.250000E-9	0.004148
2.300000E-9	0.004063
2.350000E-9	0.003992
2.400000E-9	0.004016
2.450000E-9	0.004031
2.500000E-9	0.003945
2.550000E-9	0.003992
2.600000E-9	0.004109
2.650000E-9	0.004414
2.700000E-9	0.004273
2.750000E-9	0.004391
2.800000E-9	0.004445
2.850000E-9	0.004500
2.900000E-9	0.004445
2.950000E-9	0.004570
3.000000E-9	0.004367
3.050000E-9	0.004594
3.100000E-9	0.004641
3.150000E-9	0.004727
3.200000E-9	0.004695
3.250000E-9	0.004820
3.300000E-9	0.004781
3.350000E-9	0.004945
3.400000E-9	0.004953
3.450000E-9	0.004898
3.500000E-9	0.005094
3.550000E-9	0.005070
3.600000E-9	0.005047
3.650000E-9	0.005109
3.700000E-9	0.005133
3.750000E-9	0.005148
3.800000E-9	0.005102
3.850000E-9	0.005180
3.900000E-9	0.005227
3.950000E-9	0.005562
4.000000E-9	0.005750
4.050000E-9	0.006297
4.100000E-9	0.006461
4.150000E-9	0.006641
4.200000E-9	0.006781
4.250000E-9	0.007219
4.300000E-9	0.007766
4.350000E-9	0.008508
4.400000E-9	0.009211
4.450000E-9	0.010188
4.500000E-9	0.011133
4.550000E-9	0.012508
4.600000E-9	0.013961
4.650000E-9	0.015664
4.700000E-9	0.017078
4.750000E-9	0.018812
4.800000E-9	0.020688
4.850000E-9	0.022484
4.900000E-9	0.024391
4.950000E-9	0.026641
5.000000E-9	0.028688
5.050000E-9	0.030773
5.100000E-9	0.033273
5.150000E-9	0.035695
5.200000E-9	0.038148
5.250000E-9	0.040727
5.300000E-9	0.043172
5.350000E-9	0.045555
5.400000E-9	0.047492
5.450000E-9	0.049281
5.500000E-9	0.050953
5.550000E-9	0.051969
5.600000E-9	0.052695
5.650000E-9	0.053070
5.700000E-9	0.052781
5.750000E-9	0.052000
5.800000E-9	0.050305
5.850000E-9	0.048641
5.900000E-9	0.046297
5.950000E-9	0.043430
6.000000E-9	0.040469
6.050000E-9	0.037695
6.100000E-9	0.034891
6.150000E-9	0.032844
6.200000E-9	0.030805
6.250000E-9	0.029648
6.300000E-9	0.028680
6.350000E-9	0.028375
6.400000E-9	0.028375
6.450000E-9	0.028789
6.500000E-9	0.029563
6.550000E-9	0.030508
6.600000E-9	0.031328
6.650000E-9	0.032313
6.700000E-9	0.033047
6.750000E-9	0.033727
6.800000E-9	0.034430
6.850000E-9	0.034953
6.900000E-9	0.035125
6.950000E-9	0.035047
7.000000E-9	0.034852
7.050000E-9	0.034109
7.100000E-9	0.033063
7.150000E-9	0.031977
7.200000E-9	0.030180
7.250000E-9	0.028617
7.300000E-9	0.026641
7.350000E-9	0.024695
7.400000E-9	0.022828
7.450000E-9	0.021367
7.500000E-9	0.019922
7.550000E-9	0.019062
7.600000E-9	0.018539
7.650000E-9	0.018203
7.700000E-9	0.018047
7.750000E-9	0.018414
7.800000E-9	0.018906
7.850000E-9	0.019984
7.900000E-9	0.020859
7.950000E-9	0.021977
8.000000E-9	0.022805
8.050000E-9	0.023922
8.100000E-9	0.024461
8.150000E-9	0.025063
8.200000E-9	0.025414
8.250000E-9	0.025688
8.300000E-9	0.025602
8.350000E-9	0.024953
8.400000E-9	0.023898
8.450000E-9	0.022930
8.500000E-9	0.021570
8.550000E-9	0.020242
8.600000E-9	0.018906
8.650000E-9	0.017375
8.700000E-9	0.016016
8.750000E-9	0.014914
8.800000E-9	0.013664
8.850000E-9	0.012891
8.900000E-9	0.012141
8.950000E-9	0.011891
9.000000E-9	0.011789
9.050000E-9	0.011813
9.100000E-9	0.012039
9.150000E-9	0.012727
9.200000E-9	0.013609
9.250000E-9	0.014422
9.300000E-9	0.015391
9.350000E-9	0.016344
9.400000E-9	0.017156
9.450000E-9	0.017914
9.500000E-9	0.018258
9.550000E-9	0.018625
9.600000E-9	0.018742
9.650000E-9	0.018664
9.700000E-9	0.018281
9.750000E-9	0.017469
9.800000E-9	0.016438
9.850000E-9	0.015219
9.900000E-9	0.014070
9.950000E-9	0.012844
1.000000E-8	0.011797
1.005000E-8	0.010625
1.010000E-8	0.009547
1.015000E-8	0.008797
1.020000E-8	0.008273
1.025000E-8	0.008063
1.030000E-8	0.007633
1.035000E-8	0.007875
1.040000E-8	0.008180
1.045000E-8	0.008906
1.050000E-8	0.009492
1.055000E-8	0.010344
1.060000E-8	0.011391
1.065000E-8	0.012094
1.070000E-8	0.013102
1.075000E-8	0.013773
1.080000E-8	0.014227
1.085000E-8	0.014805
1.090000E-8	0.014992
1.095000E-8	0.015102
1.100000E-8	0.014859
1.105000E-8	0.014281
1.110000E-8	0.013727
1.115000E-8	0.012883
1.120000E-8	0.011898
1.125000E-8	0.010758
1.130000E-8	0.009508
1.135000E-8	0.008461
1.140000E-8	0.007492
1.145000E-8	0.006844
1.150000E-8	0.006117
1.155000E-8	0.005648
1.160000E-8	0.005234
1.165000E-8	0.005234
1.170000E-8	0.005227
1.175000E-8	0.005875
1.180000E-8	0.006195
1.185000E-8	0.007422
1.190000E-8	0.008055
1.195000E-8	0.009109
1.200000E-8	0.009844
1.205000E-8	0.010633
1.210000E-8	0.010977
1.215000E-8	0.011836
1.220000E-8	0.012055
1.225000E-8	0.012406
1.230000E-8	0.012258
1.235000E-8	0.012211
1.240000E-8	0.011680
1.245000E-8	0.010938
1.250000E-8	0.009938
1.255000E-8	0.009414
1.260000E-8	0.008203
1.265000E-8	0.007219
1.270000E-8	0.006148
1.275000E-8	0.005523
1.280000E-8	0.004414
1.285000E-8	0.004008
1.290000E-8	0.003461
1.295000E-8	0.003375
1.300000E-8	0.003328
1.305000E-8	0.003883
1.310000E-8	0.004328
1.315000E-8	0.004984
1.320000E-8	0.005719
1.325000E-8	0.007016
1.330000E-8	0.007789
1.335000E-8	0.008945
1.340000E-8	0.009742
1.345000E-8	0.010516
1.350000E-8	0.010820
1.355000E-8	0.011203
1.360000E-8	0.011383
1.365000E-8	0.011344
1.370000E-8	0.010813
1.375000E-8	0.010266
1.380000E-8	0.009508
1.385000E-8	0.008742
1.390000E-8	0.007539
1.395000E-8	0.006313
1.400000E-8	0.005273
1.405000E-8	0.004195
1.410000E-8	0.003070
1.415000E-8	0.002195
1.420000E-8	0.001906
1.425000E-8	0.001641
1.430000E-8	0.001734
1.435000E-8	0.001875
1.440000E-8	0.002234
1.445000E-8	0.003211
1.450000E-8	0.003992
1.455000E-8	0.005047
1.460000E-8	0.006008
1.465000E-8	0.007305
1.470000E-8	0.008492
1.475000E-8	0.009016
1.480000E-8	0.009539
1.485000E-8	0.010063
1.490000E-8	0.010242
1.495000E-8	0.010281
1.500000E-8	0.009727
1.505000E-8	0.009328
1.510000E-8	0.008047
1.515000E-8	0.007289
1.520000E-8	0.006320
1.525000E-8	0.005094
1.530000E-8	0.003789
1.535000E-8	0.002969
1.540000E-8	0.001914
1.545000E-8	0.001102
1.550000E-8	0.000547
1.555000E-8	0.000203
1.560000E-8	0.000242
1.565000E-8	0.000656
1.570000E-8	0.001195
1.575000E-8	0.002031
1.580000E-8	0.002656
1.585000E-8	0.003766
1.590000E-8	0.005008
1.595000E-8	0.006086
1.600000E-8	0.006984
1.605000E-8	0.007992
1.610000E-8	0.008719
1.615000E-8	0.009180
1.620000E-8	0.009273
1.625000E-8	0.009406
1.630000E-8	0.008945
1.635000E-8	0.008398
1.640000E-8	0.007609
1.645000E-8	0.006805
1.650000E-8	0.005750
1.655000E-8	0.004531
1.660000E-8	0.003453
1.665000E-8	0.002656
1.670000E-8	0.001625
1.675000E-8	0.000984
1.680000E-8	0.000383
1.685000E-8	0.000117
1.690000E-8	3.125000E-5
1.695000E-8	0.000352
1.700000E-8	0.000883
1.705000E-8	0.001531
1.710000E-8	0.002484
1.715000E-8	0.003648
1.720000E-8	0.004734
1.725000E-8	0.005898
1.730000E-8	0.006711
1.735000E-8	0.007656
1.740000E-8	0.008352
1.745000E-8	0.008953
1.750000E-8	0.008914
1.755000E-8	0.008867
1.760000E-8	0.008367
1.765000E-8	0.007938
1.770000E-8	0.006984
1.775000E-8	0.005984
1.780000E-8	0.004828
1.785000E-8	0.003781
1.790000E-8	0.002664
1.795000E-8	0.001484
1.800000E-8	0.000742
1.805000E-8	0.000148
1.810000E-8	-0.000445
1.815000E-8	-0.000719
1.820000E-8	-0.000570
1.825000E-8	-0.000211
1.830000E-8	0.000297
1.835000E-8	0.001148
1.840000E-8	0.001922
1.845000E-8	0.003055
1.850000E-8	0.004117
1.855000E-8	0.005141
1.860000E-8	0.006133
1.865000E-8	0.006969
1.870000E-8	0.007547
1.875000E-8	0.008000
1.880000E-8	0.008344
1.885000E-8	0.008242
1.890000E-8	0.008133
1.895000E-8	0.007539
1.900000E-8	0.006781
1.905000E-8	0.005812
1.910000E-8	0.004852
1.915000E-8	0.004039
1.920000E-8	0.003070
1.925000E-8	0.002109
1.930000E-8	0.001211
1.935000E-8	0.000750
1.940000E-8	0.000344
1.945000E-8	0.000109
1.950000E-8	-5.468750E-5
1.955000E-8	0.000297
1.960000E-8	0.000609
1.965000E-8	0.001492
1.970000E-8	0.002234
1.975000E-8	0.003039
1.980000E-8	0.003711
1.985000E-8	0.004547
1.990000E-8	0.005281
1.995000E-8	0.006023
2.000000E-8	0.006508
2.005000E-8	0.007242
2.010000E-8	0.007484
2.015000E-8	0.007687
2.020000E-8	0.007586
2.025000E-8	0.007195
2.030000E-8	0.006461
2.035000E-8	0.005844
2.040000E-8	0.004859
2.045000E-8	0.003922
2.050000E-8	0.002703
2.055000E-8	0.001844
2.060000E-8	0.000844
2.065000E-8	0.000117
2.070000E-8	-0.000305
2.075000E-8	-0.000461
2.080000E-8	-0.000594
2.085000E-8	-0.000461
2.090000E-8	-0.000102
2.095000E-8	0.000633
2.100000E-8	0.001523
2.105000E-8	0.002344
2.110000E-8	0.003188
2.115000E-8	0.004141
2.120000E-8	0.004906
2.125000E-8	0.005844
2.130000E-8	0.006367
2.135000E-8	0.006984
2.140000E-8	0.007008
2.145000E-8	0.007109
2.150000E-8	0.006992
2.155000E-8	0.006602
2.160000E-8	0.006047
2.165000E-8	0.005672
2.170000E-8	0.004969
2.175000E-8	0.004273
2.180000E-8	0.003398
2.185000E-8	0.002586
2.190000E-8	0.001766
2.195000E-8	0.001125
2.200000E-8	0.000555
2.205000E-8	0.000273
2.210000E-8	-3.906250E-5
2.215000E-8	-8.593750E-5
2.220000E-8	4.687500E-5
2.225000E-8	0.000555
2.230000E-8	0.000977
2.235000E-8	0.001703
2.240000E-8	0.002320
2.245000E-8	0.003148
2.250000E-8	0.004117
2.255000E-8	0.004922
2.260000E-8	0.005797
2.265000E-8	0.006438
2.270000E-8	0.006703
2.275000E-8	0.006953
2.280000E-8	0.007008
2.285000E-8	0.006750
2.290000E-8	0.006508
2.295000E-8	0.005898
2.300000E-8	0.005039
2.305000E-8	0.004117
2.310000E-8	0.003320
2.315000E-8	0.002570
2.320000E-8	0.001844
2.325000E-8	0.001148
2.330000E-8	0.000414
2.335000E-8	0.000102
2.340000E-8	-0.000375
2.345000E-8	-0.000219
2.350000E-8	-0.000172
2.355000E-8	0.000164
2.360000E-8	0.000500
2.365000E-8	0.001234
2.370000E-8	0.002039
2.375000E-8	0.002930
2.380000E-8	0.003664
2.385000E-8	0.004781
2.390000E-8	0.005250
2.395000E-8	0.006148
2.400000E-8	0.006492
2.405000E-8	0.006891
2.410000E-8	0.006828
2.415000E-8	0.006570
2.420000E-8	0.006203
2.425000E-8	0.005797
2.430000E-8	0.004938
2.435000E-8	0.004133
2.440000E-8	0.003031
2.445000E-8	0.002320
2.450000E-8	0.001383
2.455000E-8	0.000625
2.460000E-8	-0.000109
2.465000E-8	-0.000367
2.470000E-8	-0.000641
2.475000E-8	-0.000617
2.480000E-8	-0.000352
2.485000E-8	-2.343750E-5
2.490000E-8	0.000266
2.495000E-8	0.001430
2.500000E-8	0.002016
2.505000E-8	0.003000
2.510000E-8	0.003844
2.515000E-8	0.004797
2.520000E-8	0.005570
2.525000E-8	0.006445
2.530000E-8	0.006852
2.535000E-8	0.007250
2.540000E-8	0.007172
2.545000E-8	0.007133
2.550000E-8	0.006695
2.555000E-8	0.006273
2.560000E-8	0.005672
2.565000E-8	0.004891
2.570000E-8	0.003914
2.575000E-8	0.002977
2.580000E-8	0.001836
2.585000E-8	0.000867
2.590000E-8	0.000172
2.595000E-8	-0.000438
2.600000E-8	-0.000742
2.605000E-8	-0.000641
2.610000E-8	-0.000805
2.615000E-8	-0.000305
2.620000E-8	3.125000E-5
2.625000E-8	0.000898
2.630000E-8	0.001680
2.635000E-8	0.002766
2.640000E-8	0.003523
2.645000E-8	0.004477
2.650000E-8	0.005328
2.655000E-8	0.006086
2.660000E-8	0.006578
2.665000E-8	0.006914
2.670000E-8	0.006961
2.675000E-8	0.006844
2.680000E-8	0.006305
2.685000E-8	0.005898
2.690000E-8	0.004969
2.695000E-8	0.004086
2.700000E-8	0.003281
2.705000E-8	0.002453
2.710000E-8	0.001445
2.715000E-8	0.000758
2.720000E-8	5.468750E-5
2.725000E-8	-0.000320
2.730000E-8	-0.000977
2.735000E-8	-0.000797
2.740000E-8	-0.000492
2.745000E-8	-1.562500E-5
2.750000E-8	0.000578
2.755000E-8	0.001242
2.760000E-8	0.002109
2.765000E-8	0.003172
2.770000E-8	0.003914
2.775000E-8	0.004797
2.780000E-8	0.005375
2.785000E-8	0.006008
2.790000E-8	0.006555
2.795000E-8	0.006719
2.800000E-8	0.006453
2.805000E-8	0.006383
2.810000E-8	0.005852
2.815000E-8	0.005422
2.820000E-8	0.004828
2.825000E-8	0.004359
2.830000E-8	0.003594
2.835000E-8	0.002719
2.840000E-8	0.001961
2.845000E-8	0.001391
2.850000E-8	0.000453
2.855000E-8	0.000125
2.860000E-8	-0.000156
2.865000E-8	-9.375000E-5
2.870000E-8	-1.562500E-5
2.875000E-8	0.000453
2.880000E-8	0.000789
2.885000E-8	0.001563
2.890000E-8	0.002031
2.895000E-8	0.002766
2.900000E-8	0.003375
2.905000E-8	0.004047
2.910000E-8	0.004797
2.915000E-8	0.005414
2.920000E-8	0.005898
2.925000E-8	0.006180
2.930000E-8	0.005930
2.935000E-8	0.006086
2.940000E-8	0.005703
2.945000E-8	0.005336
2.950000E-8	0.004969
2.955000E-8	0.004406
2.960000E-8	0.003680
2.965000E-8	0.002914
2.970000E-8	0.001961
2.975000E-8	0.001344
2.980000E-8	0.000734
2.985000E-8	0.000359
2.990000E-8	-9.375000E-5
2.995000E-8	-0.000203
3.000000E-8	-0.000172
3.005000E-8	-0.000117
3.010000E-8	0.000148
3.015000E-8	0.000633
3.020000E-8	0.001156
3.025000E-8	0.001945
3.030000E-8	0.002578
3.035000E-8	0.003391
3.040000E-8	0.004086
3.045000E-8	0.004687
3.050000E-8	0.004867
3.055000E-8	0.005570
3.060000E-8	0.005656
3.065000E-8	0.005641
3.070000E-8	0.005508
3.075000E-8	0.005422
3.080000E-8	0.005039
3.085000E-8	0.004578
3.090000E-8	0.003773
3.095000E-8	0.003070
3.100000E-8	0.002477
3.105000E-8	0.001758
3.110000E-8	0.001234
3.115000E-8	0.000797
3.120000E-8	0.000203
3.125000E-8	7.812500E-5
3.130000E-8	0.000211
3.135000E-8	0.000313
3.140000E-8	0.000805
3.145000E-8	0.001234
3.150000E-8	0.001734
3.155000E-8	0.002375
3.160000E-8	0.003031
3.165000E-8	0.003711
3.170000E-8	0.004273
3.175000E-8	0.004805
3.180000E-8	0.005172
3.185000E-8	0.005594
3.190000E-8	0.005781
3.195000E-8	0.005875
3.200000E-8	0.005562
3.205000E-8	0.005344
3.210000E-8	0.005023
3.215000E-8	0.004555
3.220000E-8	0.003797
3.225000E-8	0.003281
3.230000E-8	0.002828
3.235000E-8	0.002156
3.240000E-8	0.001609
3.245000E-8	0.001141
3.250000E-8	0.000766
3.255000E-8	0.000555
3.260000E-8	0.000242
3.265000E-8	0.000336
3.270000E-8	0.000320
3.275000E-8	0.000797
3.280000E-8	0.000969
3.285000E-8	0.001898
3.290000E-8	0.002414
3.295000E-8	0.003258
3.300000E-8	0.004086
3.305000E-8	0.004922
3.310000E-8	0.005625
3.315000E-8	0.005836
3.320000E-8	0.006016
3.325000E-8	0.006078
3.330000E-8	0.005773
3.335000E-8	0.005484
3.340000E-8	0.004984
3.345000E-8	0.004445
3.350000E-8	0.004008
3.355000E-8	0.003344
3.360000E-8	0.002695
3.365000E-8	0.002000
3.370000E-8	0.001258
3.375000E-8	0.000687
3.380000E-8	0.000492
3.385000E-8	0.000234
3.390000E-8	0.000219
3.395000E-8	9.375000E-5
3.400000E-8	0.000227
3.405000E-8	0.000609
3.410000E-8	0.000977
3.415000E-8	0.001594
3.420000E-8	0.002320
3.425000E-8	0.002945
3.430000E-8	0.003602
3.435000E-8	0.004203
3.440000E-8	0.004727
3.445000E-8	0.005438
3.450000E-8	0.005414
3.455000E-8	0.005648
3.460000E-8	0.005602
3.465000E-8	0.005492
3.470000E-8	0.005031
3.475000E-8	0.004828
3.480000E-8	0.004414
3.485000E-8	0.003961
3.490000E-8	0.003156
3.495000E-8	0.002391
3.500000E-8	0.001437
3.505000E-8	0.001203
3.510000E-8	0.000609
3.515000E-8	0.000359
3.520000E-8	9.375000E-5
3.525000E-8	0.000109
3.530000E-8	0.000133
3.535000E-8	0.000477
3.540000E-8	0.000977
3.545000E-8	0.001523
3.550000E-8	0.002188
3.555000E-8	0.002930
3.560000E-8	0.003555
3.565000E-8	0.004250
3.570000E-8	0.005063
3.575000E-8	0.005633
3.580000E-8	0.006023
3.585000E-8	0.006234
3.590000E-8	0.006305
3.595000E-8	0.006195
3.600000E-8	0.005836
3.605000E-8	0.005469
3.610000E-8	0.004687
3.615000E-8	0.004125
3.620000E-8	0.003258
3.625000E-8	0.002477
3.630000E-8	0.001695
3.635000E-8	0.001000
3.640000E-8	0.000578
3.645000E-8	0.000352
3.650000E-8	6.250000E-5
3.655000E-8	0.000164
3.660000E-8	0.000203
3.665000E-8	0.000719
3.670000E-8	0.001180
3.675000E-8	0.001906
3.680000E-8	0.002477
3.685000E-8	0.002867
3.690000E-8	0.003563
3.695000E-8	0.004203
3.700000E-8	0.004648
3.705000E-8	0.005063
3.710000E-8	0.005375
3.715000E-8	0.005539
3.720000E-8	0.005523
3.725000E-8	0.005586
3.730000E-8	0.004953
3.735000E-8	0.004578
3.740000E-8	0.004227
3.745000E-8	0.003563
3.750000E-8	0.002961
3.755000E-8	0.002500
3.760000E-8	0.001703
3.765000E-8	0.001422
3.770000E-8	0.001047
3.775000E-8	0.000734
3.780000E-8	0.000563
3.785000E-8	0.000430
3.790000E-8	0.000664
3.795000E-8	0.000937
3.800000E-8	0.001352
3.805000E-8	0.001719
3.810000E-8	0.002297
3.815000E-8	0.002719
3.820000E-8	0.003219
3.825000E-8	0.003805
3.830000E-8	0.004219
3.835000E-8	0.004828
3.840000E-8	0.005086
3.845000E-8	0.005289
3.850000E-8	0.005195
3.855000E-8	0.005172
3.860000E-8	0.004820
3.865000E-8	0.004570
3.870000E-8	0.004219
3.875000E-8	0.003594
3.880000E-8	0.002914
3.885000E-8	0.002391
3.890000E-8	0.001625
3.895000E-8	0.001148
3.900000E-8	0.000656
3.905000E-8	0.000422
3.910000E-8	0.000297
3.915000E-8	0.000211
3.920000E-8	0.000344
3.925000E-8	0.000773
3.930000E-8	0.001156
3.935000E-8	0.001797
3.940000E-8	0.001937
3.945000E-8	0.002578
3.950000E-8	0.003211
3.955000E-8	0.003641
3.960000E-8	0.004203
3.965000E-8	0.005000
3.970000E-8	0.005148
3.975000E-8	0.005469
3.980000E-8	0.005461
3.985000E-8	0.005359
3.990000E-8	0.005125
3.995000E-8	0.004648
4.000000E-8	0.003992
4.005000E-8	0.003656
4.010000E-8	0.002969
4.015000E-8	0.002664
4.020000E-8	0.002133
4.025000E-8	0.001695
4.030000E-8	0.001234
4.035000E-8	0.001047
4.040000E-8	0.000781
4.045000E-8	0.000992
4.050000E-8	0.001055
4.055000E-8	0.001492
4.060000E-8	0.001500
4.065000E-8	0.002117
4.070000E-8	0.002414
4.075000E-8	0.002859
4.080000E-8	0.003258
4.085000E-8	0.003781
4.090000E-8	0.004086
4.095000E-8	0.004531
4.100000E-8	0.004406
4.105000E-8	0.004773
4.110000E-8	0.004852
4.115000E-8	0.004844
4.120000E-8	0.004820
4.125000E-8	0.004859
4.130000E-8	0.004219
4.135000E-8	0.003914
4.140000E-8	0.003609
4.145000E-8	0.003320
4.150000E-8	0.002563
4.155000E-8	0.002203
4.160000E-8	0.001734
4.165000E-8	0.001445
4.170000E-8	0.001055
4.175000E-8	0.001086
4.180000E-8	0.000984
4.185000E-8	0.001195
4.190000E-8	0.001383
4.195000E-8	0.001813
4.200000E-8	0.002266
4.205000E-8	0.002617
4.210000E-8	0.002914
4.215000E-8	0.003445
4.220000E-8	0.003875
4.225000E-8	0.004367
4.230000E-8	0.004547
4.235000E-8	0.004867
4.240000E-8	0.004898
4.245000E-8	0.004992
4.250000E-8	0.004883
4.255000E-8	0.004687
4.260000E-8	0.004234
4.265000E-8	0.003742
4.270000E-8	0.003523
4.275000E-8	0.002961
4.280000E-8	0.002617
4.285000E-8	0.002289
4.290000E-8	0.001672
4.295000E-8	0.001516
4.300000E-8	0.001117
4.305000E-8	0.001008
4.310000E-8	0.000742
4.315000E-8	0.000836
4.320000E-8	0.000984
4.325000E-8	0.001430
4.330000E-8	0.001453
4.335000E-8	0.002078
4.340000E-8	0.002570
4.345000E-8	0.003063
4.350000E-8	0.003586
4.355000E-8	0.004195
4.360000E-8	0.004461
4.365000E-8	0.004695
4.370000E-8	0.005055
4.375000E-8	0.005047
4.380000E-8	0.004875
4.385000E-8	0.004781
4.390000E-8	0.004469
4.395000E-8	0.003961
4.400000E-8	0.003547
4.405000E-8	0.003250
4.410000E-8	0.002602
4.415000E-8	0.002312
4.420000E-8	0.001781
4.425000E-8	0.001375
4.430000E-8	0.001203
4.435000E-8	0.001125
4.440000E-8	0.001102
4.445000E-8	0.001234
4.450000E-8	0.001234
4.455000E-8	0.001453
4.460000E-8	0.001961
4.465000E-8	0.002414
4.470000E-8	0.002906
4.475000E-8	0.003320
4.480000E-8	0.003867
4.485000E-8	0.004242
4.490000E-8	0.004297
4.495000E-8	0.004867
4.500000E-8	0.004938
4.505000E-8	0.004984
4.510000E-8	0.004938
4.515000E-8	0.004687
4.520000E-8	0.004305
4.525000E-8	0.003992
4.530000E-8	0.003531
4.535000E-8	0.003180
4.540000E-8	0.002578
4.545000E-8	0.002391
4.550000E-8	0.001898
4.555000E-8	0.001563
4.560000E-8	0.001273
4.565000E-8	0.001234
4.570000E-8	0.001102
4.575000E-8	0.001109
4.580000E-8	0.001383
4.585000E-8	0.001844
4.590000E-8	0.002125
4.595000E-8	0.002492
4.600000E-8	0.002633
4.605000E-8	0.003211
4.610000E-8	0.003500
4.615000E-8	0.003898
4.620000E-8	0.004250
4.625000E-8	0.004562
4.630000E-8	0.004695
4.635000E-8	0.004766
4.640000E-8	0.004617
4.645000E-8	0.004773
4.650000E-8	0.004484
4.655000E-8	0.004453
4.660000E-8	0.004000
4.665000E-8	0.003500
4.670000E-8	0.002938
4.675000E-8	0.002508
4.680000E-8	0.002047
4.685000E-8	0.001742
4.690000E-8	0.001367
4.695000E-8	0.001187
4.700000E-8	0.000984
4.705000E-8	0.001133
4.710000E-8	0.001125
4.715000E-8	0.001352
4.720000E-8	0.001500
4.725000E-8	0.001852
4.730000E-8	0.002312
4.735000E-8	0.002727
4.740000E-8	0.003234
4.745000E-8	0.003891
4.750000E-8	0.004172
4.755000E-8	0.004383
4.760000E-8	0.004664
4.765000E-8	0.004594
4.770000E-8	0.004531
4.775000E-8	0.004531
4.780000E-8	0.004195
4.785000E-8	0.003898
4.790000E-8	0.003500
4.795000E-8	0.003180
4.800000E-8	0.002664
4.805000E-8	0.002445
4.810000E-8	0.002086
4.815000E-8	0.001664
4.820000E-8	0.001289
4.825000E-8	0.001289
4.830000E-8	0.001102
4.835000E-8	0.001094
4.840000E-8	0.001117
4.845000E-8	0.001578
4.850000E-8	0.001820
4.855000E-8	0.002289
4.860000E-8	0.002641
4.865000E-8	0.003156
4.870000E-8	0.003883
4.875000E-8	0.004328
4.880000E-8	0.004461
4.885000E-8	0.004680
4.890000E-8	0.004711
4.895000E-8	0.004844
4.900000E-8	0.004805
4.905000E-8	0.004773
4.910000E-8	0.004359
4.915000E-8	0.004250
4.920000E-8	0.003875
4.925000E-8	0.003453
4.930000E-8	0.003070
4.935000E-8	0.002633
4.940000E-8	0.002188
4.945000E-8	0.001797
4.950000E-8	0.001422
4.955000E-8	0.001414
4.960000E-8	0.001094
4.965000E-8	0.001234
4.970000E-8	0.001305
4.975000E-8	0.001609
4.980000E-8	0.001805
4.985000E-8	0.002297
4.990000E-8	0.002852
4.995000E-8	0.003148
5.000000E-8	0.003492
5.005000E-8	0.003930
5.010000E-8	0.003984
5.015000E-8	0.004453
5.020000E-8	0.004266
5.025000E-8	0.004258
5.030000E-8	0.004250
5.035000E-8	0.004391
5.040000E-8	0.004023
5.045000E-8	0.003812
5.050000E-8	0.003344
5.055000E-8	0.003156
5.060000E-8	0.002859
5.065000E-8	0.002656
5.070000E-8	0.002289
5.075000E-8	0.002016
5.080000E-8	0.001969
5.085000E-8	0.001828
5.090000E-8	0.001570
5.095000E-8	0.001672
5.100000E-8	0.001633
5.105000E-8	0.001727
5.110000E-8	0.001773
5.115000E-8	0.002039
5.120000E-8	0.002203
5.125000E-8	0.002617
5.130000E-8	0.002750
5.135000E-8	0.003203
5.140000E-8	0.003688
5.145000E-8	0.003930
5.150000E-8	0.003977
5.155000E-8	0.004172
5.160000E-8	0.004297
5.165000E-8	0.004375
5.170000E-8	0.004273
5.175000E-8	0.004320
5.180000E-8	0.004117
5.185000E-8	0.003906
5.190000E-8	0.003531
5.195000E-8	0.003344
5.200000E-8	0.002617
5.205000E-8	0.002359
5.210000E-8	0.001992
5.215000E-8	0.001789
5.220000E-8	0.001477
5.225000E-8	0.001414
5.230000E-8	0.001453
5.235000E-8	0.001672
5.240000E-8	0.001930
5.245000E-8	0.002328
5.250000E-8	0.002539
5.255000E-8	0.003000
5.260000E-8	0.003297
5.265000E-8	0.003609
5.270000E-8	0.003734
5.275000E-8	0.003969
5.280000E-8	0.004078
5.285000E-8	0.004305
5.290000E-8	0.004039
5.295000E-8	0.004047
5.300000E-8	0.003844
5.305000E-8	0.003836
5.310000E-8	0.003766
5.315000E-8	0.003508
5.320000E-8	0.003367
5.325000E-8	0.003148
5.330000E-8	0.002797
5.335000E-8	0.002398
5.340000E-8	0.002109
5.345000E-8	0.001937
5.350000E-8	0.001797
5.355000E-8	0.001734
5.360000E-8	0.001586
5.365000E-8	0.001727
5.370000E-8	0.001789
5.375000E-8	0.002047
5.380000E-8	0.002172
5.385000E-8	0.002664
5.390000E-8	0.002820
5.395000E-8	0.003156
5.400000E-8	0.003414
5.405000E-8	0.003641
5.410000E-8	0.003750
5.415000E-8	0.003867
5.420000E-8	0.003953
5.425000E-8	0.003977
5.430000E-8	0.003836
5.435000E-8	0.003977
5.440000E-8	0.003836
5.445000E-8	0.003656
5.450000E-8	0.003219
5.455000E-8	0.003102
5.460000E-8	0.002609
5.465000E-8	0.002680
5.470000E-8	0.002180
5.475000E-8	0.002063
5.480000E-8	0.001891
5.485000E-8	0.001711
5.490000E-8	0.001727
5.495000E-8	0.001789
5.500000E-8	0.001836
5.505000E-8	0.002008
5.510000E-8	0.002336
5.515000E-8	0.002586
5.520000E-8	0.003086
5.525000E-8	0.003438
5.530000E-8	0.003578
5.535000E-8	0.003930
5.540000E-8	0.004000
5.545000E-8	0.004188
5.550000E-8	0.004367
5.555000E-8	0.004227
5.560000E-8	0.004164
5.565000E-8	0.004125
5.570000E-8	0.003883
5.575000E-8	0.003852
5.580000E-8	0.003414
5.585000E-8	0.003109
5.590000E-8	0.002844
5.595000E-8	0.002398
5.600000E-8	0.002000
5.605000E-8	0.001937
5.610000E-8	0.001625
5.615000E-8	0.001703
5.620000E-8	0.001656
5.625000E-8	0.001820
5.630000E-8	0.002000
5.635000E-8	0.002109
5.640000E-8	0.002312
5.645000E-8	0.002703
5.650000E-8	0.003063
5.655000E-8	0.003508
5.660000E-8	0.003609
5.665000E-8	0.003953
5.670000E-8	0.003977
5.675000E-8	0.004227
5.680000E-8	0.003977
5.685000E-8	0.004148
5.690000E-8	0.004219
5.695000E-8	0.004063
5.700000E-8	0.003906
5.705000E-8	0.003742
5.710000E-8	0.003383
5.715000E-8	0.003266
5.720000E-8	0.002914
5.725000E-8	0.002758
5.730000E-8	0.002195
5.735000E-8	0.002219
5.740000E-8	0.002047
5.745000E-8	0.001945
5.750000E-8	0.001836
5.755000E-8	0.001906
5.760000E-8	0.002156
5.765000E-8	0.002188
5.770000E-8	0.002516
5.775000E-8	0.003109
5.780000E-8	0.003180
5.785000E-8	0.003539
5.790000E-8	0.003891
5.795000E-8	0.004141
5.800000E-8	0.004094
5.805000E-8	0.004258
5.810000E-8	0.004195
5.815000E-8	0.004203
5.820000E-8	0.004000
5.825000E-8	0.003938
5.830000E-8	0.003656
5.835000E-8	0.003586
5.840000E-8	0.002977
5.845000E-8	0.002922
5.850000E-8	0.002484
5.855000E-8	0.002289
5.860000E-8	0.001984
5.865000E-8	0.001680
5.870000E-8	0.001742
5.875000E-8	0.001914
5.880000E-8	0.001828
5.885000E-8	0.002117
5.890000E-8	0.002219
5.895000E-8	0.002469
5.900000E-8	0.002531
5.905000E-8	0.002773
5.910000E-8	0.002812
5.915000E-8	0.002953
5.920000E-8	0.003297
5.925000E-8	0.003484
5.930000E-8	0.003492
5.935000E-8	0.003672
5.940000E-8	0.003773
5.945000E-8	0.003734
5.950000E-8	0.003875
5.955000E-8	0.003594
5.960000E-8	0.003648
5.965000E-8	0.003453
5.970000E-8	0.003312
5.975000E-8	0.003031
5.980000E-8	0.003109
5.985000E-8	0.002867
5.990000E-8	0.002547
5.995000E-8	0.002406
6.000000E-8	0.002117
6.005000E-8	0.002156
6.010000E-8	0.001977
6.015000E-8	0.002320
6.020000E-8	0.002211
6.025000E-8	0.002773
6.030000E-8	0.002844
6.035000E-8	0.002992
6.040000E-8	0.003125
6.045000E-8	0.003391
6.050000E-8	0.003484
6.055000E-8	0.003789
6.060000E-8	0.004000
6.065000E-8	0.004047
6.070000E-8	0.004055
6.075000E-8	0.003961
6.080000E-8	0.003891
6.085000E-8	0.004008
6.090000E-8	0.003672
6.095000E-8	0.003609
6.100000E-8	0.003305
6.105000E-8	0.003273
6.110000E-8	0.003039
6.115000E-8	0.003008
6.120000E-8	0.002703
6.125000E-8	0.002430
6.130000E-8	0.002273
6.135000E-8	0.002344
6.140000E-8	0.002148
6.145000E-8	0.002422
6.150000E-8	0.002492
6.155000E-8	0.002391
6.160000E-8	0.002336
6.165000E-8	0.002563
6.170000E-8	0.002547
6.175000E-8	0.002898
6.180000E-8	0.003086
6.185000E-8	0.003484
6.190000E-8	0.003328
6.195000E-8	0.003734
6.200000E-8	0.003711
6.205000E-8	0.003750
6.210000E-8	0.003742
6.215000E-8	0.003906
6.220000E-8	0.003867
6.225000E-8	0.003844
6.230000E-8	0.003469
6.235000E-8	0.003328
6.240000E-8	0.002930
6.245000E-8	0.003039
6.250000E-8	0.002656
6.255000E-8	0.002437
6.260000E-8	0.002398
6.265000E-8	0.002336
6.270000E-8	0.002234
6.275000E-8	0.002531
6.280000E-8	0.002500
6.285000E-8	0.002703
6.290000E-8	0.002484
6.295000E-8	0.002586
6.300000E-8	0.002797
6.305000E-8	0.003031
6.310000E-8	0.003063
6.315000E-8	0.003242
6.320000E-8	0.003469
6.325000E-8	0.003570
6.330000E-8	0.003359
6.335000E-8	0.003539
6.340000E-8	0.003586
6.345000E-8	0.003922
6.350000E-8	0.003570
6.355000E-8	0.003438
6.360000E-8	0.003375
6.365000E-8	0.003336
6.370000E-8	0.002938
6.375000E-8	0.002859
6.380000E-8	0.002750
6.385000E-8	0.002609
6.390000E-8	0.002320
6.395000E-8	0.002453
6.400000E-8	0.002094
6.405000E-8	0.001969
6.410000E-8	0.002148
6.415000E-8	0.002234
6.420000E-8	0.002305
6.425000E-8	0.002688
6.430000E-8	0.002492
6.435000E-8	0.002977
6.440000E-8	0.003070
6.445000E-8	0.003352
6.450000E-8	0.003547
6.455000E-8	0.003820
6.460000E-8	0.003969
6.465000E-8	0.003914
6.470000E-8	0.003984
6.475000E-8	0.004328
6.480000E-8	0.004039
6.485000E-8	0.003922
6.490000E-8	0.003656
6.495000E-8	0.003594
6.500000E-8	0.003367
6.505000E-8	0.003242
6.510000E-8	0.002773
6.515000E-8	0.002781
6.520000E-8	0.002492
6.525000E-8	0.002563
6.530000E-8	0.002469
6.535000E-8	0.002391
6.540000E-8	0.002281
6.545000E-8	0.002437
6.550000E-8	0.002414
6.555000E-8	0.002500
6.560000E-8	0.002531
6.565000E-8	0.002680
6.570000E-8	0.002906
6.575000E-8	0.003094
6.580000E-8	0.003078
6.585000E-8	0.003336
6.590000E-8	0.003602
6.595000E-8	0.003680
6.600000E-8	0.003766
6.605000E-8	0.003836
6.610000E-8	0.003445
6.615000E-8	0.003602
6.620000E-8	0.003461
6.625000E-8	0.003391
6.630000E-8	0.003164
6.635000E-8	0.003031
6.640000E-8	0.002641
6.645000E-8	0.002719
6.650000E-8	0.002383
6.655000E-8	0.002359
6.660000E-8	0.002188
6.665000E-8	0.002273
6.670000E-8	0.002070
6.675000E-8	0.002164
6.680000E-8	0.002234
6.685000E-8	0.002398
6.690000E-8	0.002508
6.695000E-8	0.002883
6.700000E-8	0.003102
6.705000E-8	0.003234
6.710000E-8	0.003523
6.715000E-8	0.003625
6.720000E-8	0.003602
6.725000E-8	0.003789
6.730000E-8	0.003703
6.735000E-8	0.003664
6.740000E-8	0.003570
6.745000E-8	0.003617
6.750000E-8	0.003312
6.755000E-8	0.003141
6.760000E-8	0.002938
6.765000E-8	0.002953
6.770000E-8	0.002750
6.775000E-8	0.002563
6.780000E-8	0.002430
6.785000E-8	0.002359
6.790000E-8	0.002477
6.795000E-8	0.002641
6.800000E-8	0.002508
6.805000E-8	0.002633
6.810000E-8	0.002414
6.815000E-8	0.002570
6.820000E-8	0.002648
6.825000E-8	0.002586
6.830000E-8	0.002437
6.835000E-8	0.002719
6.840000E-8	0.002953
6.845000E-8	0.003188
6.850000E-8	0.003344
6.855000E-8	0.003391
6.860000E-8	0.003461
6.865000E-8	0.003594
6.870000E-8	0.003547
6.875000E-8	0.003648
6.880000E-8	0.003531
6.885000E-8	0.003438
6.890000E-8	0.003195
6.895000E-8	0.003312
6.900000E-8	0.003039
6.905000E-8	0.002945
6.910000E-8	0.002656
6.915000E-8	0.002594
6.920000E-8	0.002586
6.925000E-8	0.002492
6.930000E-8	0.002156
6.935000E-8	0.002430
6.940000E-8	0.002750
6.945000E-8	0.002477
6.950000E-8	0.002969
6.955000E-8	0.003133
6.960000E-8	0.002922
6.965000E-8	0.003297
6.970000E-8	0.003219
6.975000E-8	0.003438
6.980000E-8	0.003367
6.985000E-8	0.003406
6.990000E-8	0.003398
6.995000E-8	0.003367
7.000000E-8	0.003289
7.005000E-8	0.003281
7.010000E-8	0.003070
7.015000E-8	0.003375
7.020000E-8	0.003141
7.025000E-8	0.003070
7.030000E-8	0.003000
7.035000E-8	0.002797
7.040000E-8	0.002594
7.045000E-8	0.002539
7.050000E-8	0.002320
7.055000E-8	0.002516
7.060000E-8	0.002305
7.065000E-8	0.002344
7.070000E-8	0.002180
7.075000E-8	0.002195
7.080000E-8	0.002211
7.085000E-8	0.002523
7.090000E-8	0.002461
7.095000E-8	0.002758
7.100000E-8	0.002742
7.105000E-8	0.002953
7.110000E-8	0.003219
7.115000E-8	0.003445
7.120000E-8	0.003320
7.125000E-8	0.003602
7.130000E-8	0.003383
7.135000E-8	0.003570
7.140000E-8	0.003297
7.145000E-8	0.003383
7.150000E-8	0.003305
7.155000E-8	0.003063
7.160000E-8	0.002992
7.165000E-8	0.002875
7.170000E-8	0.002625
7.175000E-8	0.002328
7.180000E-8	0.002258
7.185000E-8	0.002227
7.190000E-8	0.002148
7.195000E-8	0.002172
7.200000E-8	0.002242
7.205000E-8	0.002172
7.210000E-8	0.002430
7.215000E-8	0.002688
7.220000E-8	0.002852
7.225000E-8	0.002945
7.230000E-8	0.002812
7.235000E-8	0.003109
7.240000E-8	0.003367
7.245000E-8	0.003484
7.250000E-8	0.003484
7.255000E-8	0.003500
7.260000E-8	0.003445
7.265000E-8	0.003195
7.270000E-8	0.003172
7.275000E-8	0.003125
7.280000E-8	0.002852
7.285000E-8	0.003055
7.290000E-8	0.002914
7.295000E-8	0.003070
7.300000E-8	0.002938
7.305000E-8	0.002875
7.310000E-8	0.002805
7.315000E-8	0.002797
7.320000E-8	0.002711
7.325000E-8	0.002711
7.330000E-8	0.002437
7.335000E-8	0.002516
7.340000E-8	0.002492
7.345000E-8	0.002609
7.350000E-8	0.002570
7.355000E-8	0.002602
7.360000E-8	0.002828
7.365000E-8	0.002844
7.370000E-8	0.002977
7.375000E-8	0.003328
7.380000E-8	0.003289
7.385000E-8	0.003344
7.390000E-8	0.003180
7.395000E-8	0.003305
7.400000E-8	0.003211
7.405000E-8	0.003422
7.410000E-8	0.003117
7.415000E-8	0.003063
7.420000E-8	0.002961
7.425000E-8	0.002898
7.430000E-8	0.002797
7.435000E-8	0.002703
7.440000E-8	0.002727
7.445000E-8	0.002734
7.450000E-8	0.002430
7.455000E-8	0.002406
7.460000E-8	0.002523
7.465000E-8	0.002422
7.470000E-8	0.002750
7.475000E-8	0.002789
7.480000E-8	0.002648
7.485000E-8	0.003047
7.490000E-8	0.003055
7.495000E-8	0.003070
7.500000E-8	0.003055
7.505000E-8	0.003203
7.510000E-8	0.003195
7.515000E-8	0.003195
7.520000E-8	0.003297
7.525000E-8	0.003219
7.530000E-8	0.003086
7.535000E-8	0.003328
7.540000E-8	0.003133
7.545000E-8	0.003336
7.550000E-8	0.003070
7.555000E-8	0.003180
7.560000E-8	0.002875
7.565000E-8	0.002672
7.570000E-8	0.002469
7.575000E-8	0.002398
7.580000E-8	0.002359
7.585000E-8	0.002406
7.590000E-8	0.002305
7.595000E-8	0.002328
7.600000E-8	0.002391
7.605000E-8	0.002641
7.610000E-8	0.002805
7.615000E-8	0.002773
7.620000E-8	0.002891
7.625000E-8	0.003227
7.630000E-8	0.003227
7.635000E-8	0.003273
7.640000E-8	0.003180
7.645000E-8	0.003141
7.650000E-8	0.002852
7.655000E-8	0.003055
7.660000E-8	0.003039
7.665000E-8	0.003039
7.670000E-8	0.002898
7.675000E-8	0.002602
7.680000E-8	0.002477
7.685000E-8	0.002539
7.690000E-8	0.002523
7.695000E-8	0.002555
7.700000E-8	0.002516
7.705000E-8	0.002242
7.710000E-8	0.002453
7.715000E-8	0.002492
7.720000E-8	0.002648
7.725000E-8	0.002930
7.730000E-8	0.002773
7.735000E-8	0.002891
7.740000E-8	0.002977
7.745000E-8	0.003406
7.750000E-8	0.003398
7.755000E-8	0.003297
7.760000E-8	0.003258
7.765000E-8	0.003297
7.770000E-8	0.003422
7.775000E-8	0.003586
7.780000E-8	0.003547
7.785000E-8	0.003570
7.790000E-8	0.003430
7.795000E-8	0.003578
7.800000E-8	0.003398
7.805000E-8	0.003219
7.810000E-8	0.002867
7.815000E-8	0.003047
7.820000E-8	0.003070
7.825000E-8	0.002938
7.830000E-8	0.002984
7.835000E-8	0.002938
7.840000E-8	0.002875
7.845000E-8	0.002977
7.850000E-8	0.003000
7.855000E-8	0.002781
7.860000E-8	0.002820
7.865000E-8	0.002773
7.870000E-8	0.002789
7.875000E-8	0.002781
7.880000E-8	0.002797
7.885000E-8	0.003047
7.890000E-8	0.003070
7.895000E-8	0.003289
7.900000E-8	0.003133
7.905000E-8	0.003430
7.910000E-8	0.003383
7.915000E-8	0.003281
7.920000E-8	0.003211
7.925000E-8	0.003078
7.930000E-8	0.003070
7.935000E-8	0.003063
7.940000E-8	0.002781
7.945000E-8	0.002766
7.950000E-8	0.002688
7.955000E-8	0.002688
7.960000E-8	0.002812
7.965000E-8	0.002781
7.970000E-8	0.002773
7.975000E-8	0.002734
7.980000E-8	0.002828
7.985000E-8	0.002789
7.990000E-8	0.002828
7.995000E-8	0.002836
8.000000E-8	0.002727
8.005000E-8	0.002906
8.010000E-8	0.002750
8.015000E-8	0.002867
8.020000E-8	0.002930
8.025000E-8	0.002867
8.030000E-8	0.003211
8.035000E-8	0.003078
8.040000E-8	0.003258
8.045000E-8	0.003094
8.050000E-8	0.003188
8.055000E-8	0.003172
8.060000E-8	0.003195
8.065000E-8	0.003273
8.070000E-8	0.003242
8.075000E-8	0.003133
8.080000E-8	0.002977
8.085000E-8	0.003148
8.090000E-8	0.003055
8.095000E-8	0.003156
8.100000E-8	0.002977
8.105000E-8	0.002844
8.110000E-8	0.002914
8.115000E-8	0.002836
8.120000E-8	0.002773
8.125000E-8	0.002961
8.130000E-8	0.003102
8.135000E-8	0.002953
8.140000E-8	0.002992
8.145000E-8	0.003188
8.150000E-8	0.003094
8.155000E-8	0.003383
8.160000E-8	0.003242
8.165000E-8	0.003234
8.170000E-8	0.003281
8.175000E-8	0.003352
8.180000E-8	0.003234
8.185000E-8	0.003180
8.190000E-8	0.003063
8.195000E-8	0.002883
8.200000E-8	0.002898
8.205000E-8	0.002914
8.210000E-8	0.002938
8.215000E-8	0.003063
8.220000E-8	0.002852
8.225000E-8	0.002977
8.230000E-8	0.002836
8.235000E-8	0.002742
8.240000E-8	0.002539
8.245000E-8	0.002586
8.250000E-8	0.002539
8.255000E-8	0.002766
8.260000E-8	0.002648
8.265000E-8	0.003039
8.270000E-8	0.003086
8.275000E-8	0.003391
8.280000E-8	0.003445
8.285000E-8	0.003336
8.290000E-8	0.003305
8.295000E-8	0.003664
8.300000E-8	0.003477
8.305000E-8	0.003641
8.310000E-8	0.003359
8.315000E-8	0.003586
8.320000E-8	0.003312
8.325000E-8	0.003375
8.330000E-8	0.003125
8.335000E-8	0.003094
8.340000E-8	0.002805
8.345000E-8	0.002867
8.350000E-8	0.002789
8.355000E-8	0.002867
8.360000E-8	0.002922
8.365000E-8	0.003086
8.370000E-8	0.002930
8.375000E-8	0.002906
8.380000E-8	0.002992
8.385000E-8	0.003125
8.390000E-8	0.002781
8.395000E-8	0.002875
8.400000E-8	0.002867
8.405000E-8	0.003047
8.410000E-8	0.002781
8.415000E-8	0.003148
8.420000E-8	0.003125
8.425000E-8	0.003117
8.430000E-8	0.003102
8.435000E-8	0.003188
8.440000E-8	0.003312
8.445000E-8	0.003461
8.450000E-8	0.003383
8.455000E-8	0.003344
8.460000E-8	0.003195
8.465000E-8	0.003133
8.470000E-8	0.002992
8.475000E-8	0.003023
8.480000E-8	0.002906
8.485000E-8	0.002984
8.490000E-8	0.002828
8.495000E-8	0.002758
8.500000E-8	0.002688
8.505000E-8	0.002750
8.510000E-8	0.002828
8.515000E-8	0.002820
8.520000E-8	0.002938
8.525000E-8	0.002875
8.530000E-8	0.002664
8.535000E-8	0.002773
8.540000E-8	0.002859
8.545000E-8	0.002852
8.550000E-8	0.002930
8.555000E-8	0.002906
8.560000E-8	0.002945
8.565000E-8	0.003023
8.570000E-8	0.002875
8.575000E-8	0.002969
8.580000E-8	0.002977
8.585000E-8	0.002930
8.590000E-8	0.003039
8.595000E-8	0.003023
8.600000E-8	0.003133
8.605000E-8	0.003148
8.610000E-8	0.003086
8.615000E-8	0.003117
8.620000E-8	0.002906
8.625000E-8	0.003242
8.630000E-8	0.002898
8.635000E-8	0.002953
8.640000E-8	0.002891
8.645000E-8	0.002938
8.650000E-8	0.002648
8.655000E-8	0.002711
8.660000E-8	0.002906
8.665000E-8	0.003289
8.670000E-8	0.003188
8.675000E-8	0.003305
8.680000E-8	0.003242
8.685000E-8	0.003234
8.690000E-8	0.003391
8.695000E-8	0.003492
8.700000E-8	0.003484
8.705000E-8	0.003367
8.710000E-8	0.003312
8.715000E-8	0.003336
8.720000E-8	0.003195
8.725000E-8	0.003273
8.730000E-8	0.002984
8.735000E-8	0.002828
8.740000E-8	0.002789
8.745000E-8	0.002812
8.750000E-8	0.002727
8.755000E-8	0.002758
8.760000E-8	0.002734
8.765000E-8	0.002648
8.770000E-8	0.002539
8.775000E-8	0.002492
8.780000E-8	0.002242
8.785000E-8	0.002344
8.790000E-8	0.002297
8.795000E-8	0.002641
8.800000E-8	0.002523
8.805000E-8	0.002609
8.810000E-8	0.002750
8.815000E-8	0.002984
8.820000E-8	0.002938
8.825000E-8	0.003164
8.830000E-8	0.003055
8.835000E-8	0.003125
8.840000E-8	0.003117
8.845000E-8	0.003344
8.850000E-8	0.003312
8.855000E-8	0.003563
8.860000E-8	0.003516
8.865000E-8	0.003531
8.870000E-8	0.003258
8.875000E-8	0.003219
8.880000E-8	0.003008
8.885000E-8	0.002938
8.890000E-8	0.002867
8.895000E-8	0.002836
8.900000E-8	0.002852
8.905000E-8	0.002953
8.910000E-8	0.002875
8.915000E-8	0.002945
8.920000E-8	0.002867
8.925000E-8	0.002844
8.930000E-8	0.002969
8.935000E-8	0.002836
8.940000E-8	0.002758
8.945000E-8	0.002867
8.950000E-8	0.002805
8.955000E-8	0.003047
8.960000E-8	0.003008
8.965000E-8	0.003211
8.970000E-8	0.003211
8.975000E-8	0.003219
8.980000E-8	0.003266
8.985000E-8	0.003148
8.990000E-8	0.003063
8.995000E-8	0.003039
9.000000E-8	0.003023
9.005000E-8	0.002883
9.010000E-8	0.002836
9.015000E-8	0.002734
9.020000E-8	0.002648
9.025000E-8	0.002773
9.030000E-8	0.002789
9.035000E-8	0.002805
9.040000E-8	0.002656
9.045000E-8	0.002992
9.050000E-8	0.002938
9.055000E-8	0.003281
9.060000E-8	0.003273
9.065000E-8	0.003164
9.070000E-8	0.002984
9.075000E-8	0.003219
9.080000E-8	0.003023
9.085000E-8	0.003117
9.090000E-8	0.002922
9.095000E-8	0.003078
9.100000E-8	0.002812
9.105000E-8	0.002844
9.110000E-8	0.003000
9.115000E-8	0.003250
9.120000E-8	0.003312
9.125000E-8	0.003602
9.130000E-8	0.003242
9.135000E-8	0.003133
9.140000E-8	0.003000
9.145000E-8	0.002875
9.150000E-8	0.002656
9.155000E-8	0.002906
9.160000E-8	0.002656
9.165000E-8	0.002914
9.170000E-8	0.002781
9.175000E-8	0.002820
9.180000E-8	0.003109
9.185000E-8	0.003258
9.190000E-8	0.003312
9.195000E-8	0.003500
9.200000E-8	0.003422
9.205000E-8	0.003594
9.210000E-8	0.003445
9.215000E-8	0.003500
9.220000E-8	0.003281
9.225000E-8	0.003180
9.230000E-8	0.003008
9.235000E-8	0.002953
9.240000E-8	0.002727
9.245000E-8	0.002938
9.250000E-8	0.002789
9.255000E-8	0.002844
9.260000E-8	0.002797
9.265000E-8	0.002844
9.270000E-8	0.002633
9.275000E-8	0.002734
9.280000E-8	0.002578
9.285000E-8	0.002773
9.290000E-8	0.002734
9.295000E-8	0.002789
9.300000E-8	0.002680
9.305000E-8	0.003016
9.310000E-8	0.003109
9.315000E-8	0.003281
9.320000E-8	0.003063
9.325000E-8	0.003430
9.330000E-8	0.003117
9.335000E-8	0.003188
9.340000E-8	0.003219
9.345000E-8	0.003203
9.350000E-8	0.003133
9.355000E-8	0.003086
9.360000E-8	0.003211
9.365000E-8	0.003148
9.370000E-8	0.003125
9.375000E-8	0.003227
9.380000E-8	0.002922
9.385000E-8	0.003070
9.390000E-8	0.002930
9.395000E-8	0.002891
9.400000E-8	0.002773
9.405000E-8	0.002930
9.410000E-8	0.002680
9.415000E-8	0.002695
9.420000E-8	0.002727
9.425000E-8	0.002852
9.430000E-8	0.002719
9.435000E-8	0.002734
9.440000E-8	0.002852
9.445000E-8	0.002969
9.450000E-8	0.002852
9.455000E-8	0.002953
9.460000E-8	0.002977
9.465000E-8	0.002977
9.470000E-8	0.002836
9.475000E-8	0.003047
9.480000E-8	0.003117
9.485000E-8	0.003234
9.490000E-8	0.003125
9.495000E-8	0.003117
9.500000E-8	0.003039
9.505000E-8	0.003125
9.510000E-8	0.002812
9.515000E-8	0.002977
9.520000E-8	0.002633
9.525000E-8	0.002984
9.530000E-8	0.002820
9.535000E-8	0.003055
9.540000E-8	0.002984
9.545000E-8	0.002844
9.550000E-8	0.002672
9.555000E-8	0.002523
9.560000E-8	0.002461
9.565000E-8	0.002563
9.570000E-8	0.002680
9.575000E-8	0.002547
9.580000E-8	0.002695
9.585000E-8	0.002711
9.590000E-8	0.002844
9.595000E-8	0.003117
9.600000E-8	0.002992
9.605000E-8	0.003117
9.610000E-8	0.003078
9.615000E-8	0.002969
9.620000E-8	0.003227
9.625000E-8	0.003164
9.630000E-8	0.003016
9.635000E-8	0.003086
9.640000E-8	0.002953
9.645000E-8	0.002945
9.650000E-8	0.002812
9.655000E-8	0.002883
9.660000E-8	0.002922
9.665000E-8	0.002867
9.670000E-8	0.002758
9.675000E-8	0.002695
9.680000E-8	0.002547
9.685000E-8	0.003000
9.690000E-8	0.002695
9.695000E-8	0.002727
9.700000E-8	0.002758
9.705000E-8	0.002922
9.710000E-8	0.002859
9.715000E-8	0.002828
9.720000E-8	0.002766
9.725000E-8	0.002695
9.730000E-8	0.002812
9.735000E-8	0.003039
9.740000E-8	0.003070
9.745000E-8	0.003211
9.750000E-8	0.003320
9.755000E-8	0.003211
9.760000E-8	0.003273
9.765000E-8	0.003227
9.770000E-8	0.003312
9.775000E-8	0.003070
9.780000E-8	0.003063
9.785000E-8	0.003039
9.790000E-8	0.002867
9.795000E-8	0.002781
9.800000E-8	0.002781
9.805000E-8	0.002719
9.810000E-8	0.002680
9.815000E-8	0.002680
9.820000E-8	0.002727
9.825000E-8	0.002898
9.830000E-8	0.002930
9.835000E-8	0.003031
9.840000E-8	0.003094
9.845000E-8	0.003094
9.850000E-8	0.003141
9.855000E-8	0.003195
9.860000E-8	0.003125
9.865000E-8	0.003227
9.870000E-8	0.003148
9.875000E-8	0.003148
9.880000E-8	0.003203
9.885000E-8	0.003398
9.890000E-8	0.003148
9.895000E-8	0.003250
9.900000E-8	0.003211
9.905000E-8	0.003242
9.910000E-8	0.003086
9.915000E-8	0.003008
9.920000E-8	0.002930
9.925000E-8	0.003008
9.930000E-8	0.002789
9.935000E-8	0.002828
9.940000E-8	0.002547
9.945000E-8	0.002766
9.950000E-8	0.002789
9.955000E-8	0.002984
9.960000E-8	0.002906
9.965000E-8	0.002930
9.970000E-8	0.002875
9.975000E-8	0.002938
9.980000E-8	0.003055
9.985000E-8	0.003125
9.990000E-8	0.003039
9.995000E-8	0.003086
