LabVIEW Measurement	
Writer_Version	2
Reader_Version	2
Separator	Tab
Decimal_Separator	.
Multi_Headings	No
X_Columns	Multi
Time_Pref	Relative
Operator	TG lab
Date	2015/03/06
Time	18:11:17.3545031547546386719
***End_of_Header***	
	
Channels	1	
Samples	2000	
Date	2015/03/06	
Time	18:11:17.3545031547546386719	
X_Dimension	Time	
X0	0.0000000000000000E+0	
Delta_X	5.000000E-11	
***End_of_Header***		
X_Value	Untitled	Comment
0.000000	0.002820
5.000000E-11	0.002875
1.000000E-10	0.002750
1.500000E-10	0.002781
2.000000E-10	0.002750
2.500000E-10	0.002625
3.000000E-10	0.002500
3.500000E-10	0.002844
4.000000E-10	0.002633
4.500000E-10	0.002523
5.000000E-10	0.002203
5.500000E-10	0.002172
6.000000E-10	0.002453
6.500000E-10	0.002437
7.000000E-10	0.002477
7.500000E-10	0.002617
8.000000E-10	0.002586
8.500000E-10	0.002359
9.000000E-10	0.002359
9.500000E-10	0.002461
1.000000E-9	0.002391
1.050000E-9	0.002453
1.100000E-9	0.002328
1.150000E-9	0.002398
1.200000E-9	0.002266
1.250000E-9	0.002328
1.300000E-9	0.002484
1.350000E-9	0.002523
1.400000E-9	0.002625
1.450000E-9	0.002742
1.500000E-9	0.002641
1.550000E-9	0.002711
1.600000E-9	0.002703
1.650000E-9	0.002523
1.700000E-9	0.002734
1.750000E-9	0.002844
1.800000E-9	0.002852
1.850000E-9	0.002977
1.900000E-9	0.002977
1.950000E-9	0.003289
2.000000E-9	0.003156
2.050000E-9	0.003133
2.100000E-9	0.003250
2.150000E-9	0.003219
2.200000E-9	0.003039
2.250000E-9	0.003102
2.300000E-9	0.003023
2.350000E-9	0.003055
2.400000E-9	0.003094
2.450000E-9	0.003031
2.500000E-9	0.003023
2.550000E-9	0.003148
2.600000E-9	0.003023
2.650000E-9	0.003133
2.700000E-9	0.003109
2.750000E-9	0.003523
2.800000E-9	0.003141
2.850000E-9	0.003328
2.900000E-9	0.003242
2.950000E-9	0.003352
3.000000E-9	0.003461
3.050000E-9	0.003484
3.100000E-9	0.003453
3.150000E-9	0.003656
3.200000E-9	0.003633
3.250000E-9	0.003758
3.300000E-9	0.003805
3.350000E-9	0.003859
3.400000E-9	0.003711
3.450000E-9	0.003617
3.500000E-9	0.003875
3.550000E-9	0.003844
3.600000E-9	0.003820
3.650000E-9	0.003906
3.700000E-9	0.003992
3.750000E-9	0.004086
3.800000E-9	0.004070
3.850000E-9	0.004234
3.900000E-9	0.004438
3.950000E-9	0.005078
4.000000E-9	0.005250
4.050000E-9	0.005742
4.100000E-9	0.005984
4.150000E-9	0.006344
4.200000E-9	0.006555
4.250000E-9	0.006891
4.300000E-9	0.007391
4.350000E-9	0.008234
4.400000E-9	0.008758
4.450000E-9	0.009914
4.500000E-9	0.011094
4.550000E-9	0.012398
4.600000E-9	0.013805
4.650000E-9	0.015273
4.700000E-9	0.016805
4.750000E-9	0.018516
4.800000E-9	0.020086
4.850000E-9	0.021664
4.900000E-9	0.023367
4.950000E-9	0.025188
5.000000E-9	0.027187
5.050000E-9	0.029023
5.100000E-9	0.030812
5.150000E-9	0.032609
5.200000E-9	0.034156
5.250000E-9	0.035813
5.300000E-9	0.037250
5.350000E-9	0.038656
5.400000E-9	0.039703
5.450000E-9	0.040641
5.500000E-9	0.041320
5.550000E-9	0.041914
5.600000E-9	0.042000
5.650000E-9	0.041906
5.700000E-9	0.041500
5.750000E-9	0.041000
5.800000E-9	0.039758
5.850000E-9	0.038570
5.900000E-9	0.036656
5.950000E-9	0.034625
6.000000E-9	0.032195
6.050000E-9	0.029945
6.100000E-9	0.027766
6.150000E-9	0.025781
6.200000E-9	0.024258
6.250000E-9	0.023062
6.300000E-9	0.022250
6.350000E-9	0.022273
6.400000E-9	0.022273
6.450000E-9	0.022750
6.500000E-9	0.023258
6.550000E-9	0.024070
6.600000E-9	0.024953
6.650000E-9	0.025852
6.700000E-9	0.026469
6.750000E-9	0.027266
6.800000E-9	0.027672
6.850000E-9	0.027641
6.900000E-9	0.027500
6.950000E-9	0.027336
7.000000E-9	0.026898
7.050000E-9	0.026453
7.100000E-9	0.025688
7.150000E-9	0.024680
7.200000E-9	0.023484
7.250000E-9	0.022367
7.300000E-9	0.020945
7.350000E-9	0.019539
7.400000E-9	0.018289
7.450000E-9	0.017039
7.500000E-9	0.015961
7.550000E-9	0.015391
7.600000E-9	0.014648
7.650000E-9	0.014547
7.700000E-9	0.014320
7.750000E-9	0.014695
7.800000E-9	0.014891
7.850000E-9	0.015469
7.900000E-9	0.016164
7.950000E-9	0.017086
8.000000E-9	0.017938
8.050000E-9	0.018703
8.100000E-9	0.019445
8.150000E-9	0.019773
8.200000E-9	0.020188
8.250000E-9	0.020273
8.300000E-9	0.020141
8.350000E-9	0.019922
8.400000E-9	0.019344
8.450000E-9	0.018344
8.500000E-9	0.017328
8.550000E-9	0.016320
8.600000E-9	0.014969
8.650000E-9	0.013664
8.700000E-9	0.012406
8.750000E-9	0.011687
8.800000E-9	0.010773
8.850000E-9	0.010016
8.900000E-9	0.009242
8.950000E-9	0.009156
9.000000E-9	0.008945
9.050000E-9	0.009227
9.100000E-9	0.009562
9.150000E-9	0.010281
9.200000E-9	0.010836
9.250000E-9	0.011562
9.300000E-9	0.012219
9.350000E-9	0.013156
9.400000E-9	0.013859
9.450000E-9	0.014430
9.500000E-9	0.014594
9.550000E-9	0.014883
9.600000E-9	0.014945
9.650000E-9	0.014844
9.700000E-9	0.014297
9.750000E-9	0.013914
9.800000E-9	0.013133
9.850000E-9	0.012109
9.900000E-9	0.010969
9.950000E-9	0.010117
1.000000E-8	0.009336
1.005000E-8	0.008477
1.010000E-8	0.007648
1.015000E-8	0.007250
1.020000E-8	0.006625
1.025000E-8	0.006266
1.030000E-8	0.006086
1.035000E-8	0.006258
1.040000E-8	0.006648
1.045000E-8	0.006984
1.050000E-8	0.007508
1.055000E-8	0.008047
1.060000E-8	0.008891
1.065000E-8	0.009492
1.070000E-8	0.010047
1.075000E-8	0.010930
1.080000E-8	0.011437
1.085000E-8	0.011844
1.090000E-8	0.012063
1.095000E-8	0.012148
1.100000E-8	0.011773
1.105000E-8	0.011602
1.110000E-8	0.010898
1.115000E-8	0.010391
1.120000E-8	0.009602
1.125000E-8	0.008938
1.130000E-8	0.007867
1.135000E-8	0.007156
1.140000E-8	0.006305
1.145000E-8	0.005500
1.150000E-8	0.005039
1.155000E-8	0.004492
1.160000E-8	0.004055
1.165000E-8	0.003859
1.170000E-8	0.003984
1.175000E-8	0.004250
1.180000E-8	0.004609
1.185000E-8	0.005141
1.190000E-8	0.005719
1.195000E-8	0.006641
1.200000E-8	0.007219
1.205000E-8	0.008180
1.210000E-8	0.008586
1.215000E-8	0.009367
1.220000E-8	0.009711
1.225000E-8	0.010000
1.230000E-8	0.010125
1.235000E-8	0.009961
1.240000E-8	0.009547
1.245000E-8	0.008797
1.250000E-8	0.007953
1.255000E-8	0.007180
1.260000E-8	0.006461
1.265000E-8	0.005469
1.270000E-8	0.004625
1.275000E-8	0.003984
1.280000E-8	0.003234
1.285000E-8	0.002773
1.290000E-8	0.002430
1.295000E-8	0.002219
1.300000E-8	0.002375
1.305000E-8	0.002664
1.310000E-8	0.002938
1.315000E-8	0.003625
1.320000E-8	0.004438
1.325000E-8	0.005453
1.330000E-8	0.006258
1.335000E-8	0.007070
1.340000E-8	0.007867
1.345000E-8	0.008531
1.350000E-8	0.009016
1.355000E-8	0.009164
1.360000E-8	0.009336
1.365000E-8	0.009266
1.370000E-8	0.008984
1.375000E-8	0.008469
1.380000E-8	0.007797
1.385000E-8	0.006891
1.390000E-8	0.005938
1.395000E-8	0.005078
1.400000E-8	0.004109
1.405000E-8	0.003180
1.410000E-8	0.002344
1.415000E-8	0.001828
1.420000E-8	0.001523
1.425000E-8	0.001328
1.430000E-8	0.001320
1.435000E-8	0.001563
1.440000E-8	0.001898
1.445000E-8	0.002445
1.450000E-8	0.003016
1.455000E-8	0.003945
1.460000E-8	0.004844
1.465000E-8	0.005602
1.470000E-8	0.006328
1.475000E-8	0.007008
1.480000E-8	0.007703
1.485000E-8	0.007984
1.490000E-8	0.008023
1.495000E-8	0.007969
1.500000E-8	0.007602
1.505000E-8	0.007227
1.510000E-8	0.006609
1.515000E-8	0.005773
1.520000E-8	0.004742
1.525000E-8	0.003898
1.530000E-8	0.003078
1.535000E-8	0.002352
1.540000E-8	0.001766
1.545000E-8	0.001172
1.550000E-8	0.000742
1.555000E-8	0.000578
1.560000E-8	0.000406
1.565000E-8	0.000687
1.570000E-8	0.000961
1.575000E-8	0.001789
1.580000E-8	0.002422
1.585000E-8	0.003383
1.590000E-8	0.003945
1.595000E-8	0.004867
1.600000E-8	0.005492
1.605000E-8	0.006313
1.610000E-8	0.006906
1.615000E-8	0.007414
1.620000E-8	0.007938
1.625000E-8	0.007836
1.630000E-8	0.007562
1.635000E-8	0.007305
1.640000E-8	0.006492
1.645000E-8	0.005719
1.650000E-8	0.004750
1.655000E-8	0.003828
1.660000E-8	0.002773
1.665000E-8	0.002344
1.670000E-8	0.001234
1.675000E-8	0.000672
1.680000E-8	8.593750E-5
1.685000E-8	-0.000227
1.690000E-8	-0.000320
1.695000E-8	0.000109
1.700000E-8	0.000461
1.705000E-8	0.001141
1.710000E-8	0.001734
1.715000E-8	0.002563
1.720000E-8	0.003250
1.725000E-8	0.004344
1.730000E-8	0.005016
1.735000E-8	0.005680
1.740000E-8	0.006063
1.745000E-8	0.006656
1.750000E-8	0.006687
1.755000E-8	0.006953
1.760000E-8	0.006687
1.765000E-8	0.006531
1.770000E-8	0.005969
1.775000E-8	0.005227
1.780000E-8	0.004492
1.785000E-8	0.003617
1.790000E-8	0.002797
1.795000E-8	0.001852
1.800000E-8	0.000906
1.805000E-8	0.000430
1.810000E-8	-0.000133
1.815000E-8	-0.000477
1.820000E-8	-0.000781
1.825000E-8	-0.000758
1.830000E-8	-0.000492
1.835000E-8	0.000156
1.840000E-8	0.000578
1.845000E-8	0.001477
1.850000E-8	0.002336
1.855000E-8	0.003289
1.860000E-8	0.004203
1.865000E-8	0.005055
1.870000E-8	0.005336
1.875000E-8	0.005938
1.880000E-8	0.006031
1.885000E-8	0.006227
1.890000E-8	0.006063
1.895000E-8	0.005836
1.900000E-8	0.005383
1.905000E-8	0.004680
1.910000E-8	0.003938
1.915000E-8	0.003367
1.920000E-8	0.002641
1.925000E-8	0.001969
1.930000E-8	0.001187
1.935000E-8	0.000703
1.940000E-8	0.000289
1.945000E-8	0.000102
1.950000E-8	-0.000422
1.955000E-8	-0.000102
1.960000E-8	-0.000188
1.965000E-8	0.000250
1.970000E-8	0.000828
1.975000E-8	0.001531
1.980000E-8	0.002258
1.985000E-8	0.002961
1.990000E-8	0.003500
1.995000E-8	0.003969
2.000000E-8	0.004594
2.005000E-8	0.005172
2.010000E-8	0.005422
2.015000E-8	0.005789
2.020000E-8	0.005820
2.025000E-8	0.005812
2.030000E-8	0.005562
2.035000E-8	0.005070
2.040000E-8	0.004445
2.045000E-8	0.004039
2.050000E-8	0.003094
2.055000E-8	0.002547
2.060000E-8	0.001648
2.065000E-8	0.000953
2.070000E-8	0.000297
2.075000E-8	-7.031250E-5
2.080000E-8	-0.000461
2.085000E-8	-0.000570
2.090000E-8	-0.000547
2.095000E-8	-0.000211
2.100000E-8	0.000211
2.105000E-8	0.000766
2.110000E-8	0.001477
2.115000E-8	0.002305
2.120000E-8	0.003039
2.125000E-8	0.003742
2.130000E-8	0.004258
2.135000E-8	0.005000
2.140000E-8	0.005281
2.145000E-8	0.005484
2.150000E-8	0.005281
2.155000E-8	0.005461
2.160000E-8	0.005063
2.165000E-8	0.004672
2.170000E-8	0.004039
2.175000E-8	0.003547
2.180000E-8	0.002945
2.185000E-8	0.002391
2.190000E-8	0.001703
2.195000E-8	0.001219
2.200000E-8	0.000578
2.205000E-8	0.000352
2.210000E-8	-5.468750E-5
2.215000E-8	0.000000
2.220000E-8	-5.468750E-5
2.225000E-8	0.000203
2.230000E-8	0.000336
2.235000E-8	0.000695
2.240000E-8	0.001336
2.245000E-8	0.001867
2.250000E-8	0.002445
2.255000E-8	0.003289
2.260000E-8	0.003688
2.265000E-8	0.004234
2.270000E-8	0.004742
2.275000E-8	0.005211
2.280000E-8	0.005359
2.285000E-8	0.005555
2.290000E-8	0.005297
2.295000E-8	0.005336
2.300000E-8	0.004898
2.305000E-8	0.004406
2.310000E-8	0.003508
2.315000E-8	0.002906
2.320000E-8	0.002180
2.325000E-8	0.001508
2.330000E-8	0.001008
2.335000E-8	0.000602
2.340000E-8	4.687500E-5
2.345000E-8	-0.000367
2.350000E-8	-0.000523
2.355000E-8	-0.000133
2.360000E-8	-3.125000E-5
2.365000E-8	0.000461
2.370000E-8	0.000969
2.375000E-8	0.001813
2.380000E-8	0.002289
2.385000E-8	0.003086
2.390000E-8	0.003555
2.395000E-8	0.004047
2.400000E-8	0.004477
2.405000E-8	0.004633
2.410000E-8	0.004906
2.415000E-8	0.005094
2.420000E-8	0.004984
2.425000E-8	0.004664
2.430000E-8	0.004328
2.435000E-8	0.003961
2.440000E-8	0.003273
2.445000E-8	0.002711
2.450000E-8	0.001930
2.455000E-8	0.001242
2.460000E-8	0.000711
2.465000E-8	0.000258
2.470000E-8	-3.906250E-5
2.475000E-8	-0.000211
2.480000E-8	-0.000516
2.485000E-8	-0.000461
2.490000E-8	-8.593750E-5
2.495000E-8	0.000383
2.500000E-8	0.000781
2.505000E-8	0.001633
2.510000E-8	0.002031
2.515000E-8	0.002906
2.520000E-8	0.003281
2.525000E-8	0.004000
2.530000E-8	0.004445
2.535000E-8	0.004930
2.540000E-8	0.005203
2.545000E-8	0.005297
2.550000E-8	0.005375
2.555000E-8	0.005305
2.560000E-8	0.004711
2.565000E-8	0.004398
2.570000E-8	0.003844
2.575000E-8	0.003266
2.580000E-8	0.002609
2.585000E-8	0.002023
2.590000E-8	0.001359
2.595000E-8	0.000820
2.600000E-8	0.000141
2.605000E-8	-8.593750E-5
2.610000E-8	-0.000234
2.615000E-8	-0.000219
2.620000E-8	-9.375000E-5
2.625000E-8	0.000391
2.630000E-8	0.000820
2.635000E-8	0.001320
2.640000E-8	0.001867
2.645000E-8	0.002492
2.650000E-8	0.003094
2.655000E-8	0.003609
2.660000E-8	0.003906
2.665000E-8	0.004398
2.670000E-8	0.004406
2.675000E-8	0.004656
2.680000E-8	0.004680
2.685000E-8	0.004477
2.690000E-8	0.004336
2.695000E-8	0.003727
2.700000E-8	0.003336
2.705000E-8	0.002656
2.710000E-8	0.001969
2.715000E-8	0.001609
2.720000E-8	0.000914
2.725000E-8	0.000477
2.730000E-8	3.906250E-5
2.735000E-8	-0.000391
2.740000E-8	-0.000758
2.745000E-8	-0.000664
2.750000E-8	-0.000578
2.755000E-8	5.468750E-5
2.760000E-8	0.000438
2.765000E-8	0.001289
2.770000E-8	0.001852
2.775000E-8	0.002586
2.780000E-8	0.003000
2.785000E-8	0.003547
2.790000E-8	0.003664
2.795000E-8	0.004234
2.800000E-8	0.004703
2.805000E-8	0.004695
2.810000E-8	0.004742
2.815000E-8	0.004797
2.820000E-8	0.004320
2.825000E-8	0.004055
2.830000E-8	0.003570
2.835000E-8	0.003195
2.840000E-8	0.002508
2.845000E-8	0.001898
2.850000E-8	0.001266
2.855000E-8	0.000734
2.860000E-8	0.000438
2.865000E-8	0.000180
2.870000E-8	7.812500E-5
2.875000E-8	0.000273
2.880000E-8	0.000133
2.885000E-8	0.000297
2.890000E-8	0.000359
2.895000E-8	0.000977
2.900000E-8	0.001313
2.905000E-8	0.001945
2.910000E-8	0.002297
2.915000E-8	0.002852
2.920000E-8	0.003180
2.925000E-8	0.003523
2.930000E-8	0.003828
2.935000E-8	0.004297
2.940000E-8	0.004555
2.945000E-8	0.004492
2.950000E-8	0.004281
2.955000E-8	0.004094
2.960000E-8	0.003859
2.965000E-8	0.003383
2.970000E-8	0.002891
2.975000E-8	0.002367
2.980000E-8	0.001961
2.985000E-8	0.001305
2.990000E-8	0.000859
2.995000E-8	0.000617
3.000000E-8	0.000531
3.005000E-8	0.000484
3.010000E-8	0.000328
3.015000E-8	0.000375
3.020000E-8	0.000484
3.025000E-8	0.000875
3.030000E-8	0.001156
3.035000E-8	0.001734
3.040000E-8	0.002023
3.045000E-8	0.002477
3.050000E-8	0.002867
3.055000E-8	0.003305
3.060000E-8	0.003656
3.065000E-8	0.003875
3.070000E-8	0.003758
3.075000E-8	0.004055
3.080000E-8	0.003977
3.085000E-8	0.003992
3.090000E-8	0.003820
3.095000E-8	0.003711
3.100000E-8	0.003305
3.105000E-8	0.002805
3.110000E-8	0.002320
3.115000E-8	0.002180
3.120000E-8	0.001516
3.125000E-8	0.001187
3.130000E-8	0.000750
3.135000E-8	0.000641
3.140000E-8	0.000438
3.145000E-8	0.000531
3.150000E-8	0.000531
3.155000E-8	0.000953
3.160000E-8	0.001227
3.165000E-8	0.001648
3.170000E-8	0.001961
3.175000E-8	0.002406
3.180000E-8	0.002875
3.185000E-8	0.003156
3.190000E-8	0.003539
3.195000E-8	0.003984
3.200000E-8	0.004102
3.205000E-8	0.004445
3.210000E-8	0.004227
3.215000E-8	0.004414
3.220000E-8	0.004133
3.225000E-8	0.003703
3.230000E-8	0.003242
3.235000E-8	0.003008
3.240000E-8	0.002367
3.245000E-8	0.001875
3.250000E-8	0.001180
3.255000E-8	0.000797
3.260000E-8	0.000516
3.265000E-8	0.000188
3.270000E-8	-0.000102
3.275000E-8	0.000156
3.280000E-8	0.000305
3.285000E-8	0.000695
3.290000E-8	0.000969
3.295000E-8	0.001477
3.300000E-8	0.001750
3.305000E-8	0.002367
3.310000E-8	0.002859
3.315000E-8	0.003336
3.320000E-8	0.003828
3.325000E-8	0.004219
3.330000E-8	0.004523
3.335000E-8	0.004438
3.340000E-8	0.004773
3.345000E-8	0.004523
3.350000E-8	0.004148
3.355000E-8	0.003750
3.360000E-8	0.003398
3.365000E-8	0.003078
3.370000E-8	0.002437
3.375000E-8	0.002023
3.380000E-8	0.001594
3.385000E-8	0.001125
3.390000E-8	0.000742
3.395000E-8	0.000414
3.400000E-8	0.000281
3.405000E-8	0.000000
3.410000E-8	0.000484
3.415000E-8	0.000523
3.420000E-8	0.000664
3.425000E-8	0.001148
3.430000E-8	0.001461
3.435000E-8	0.001937
3.440000E-8	0.002414
3.445000E-8	0.003016
3.450000E-8	0.003453
3.455000E-8	0.003914
3.460000E-8	0.004016
3.465000E-8	0.004422
3.470000E-8	0.004258
3.475000E-8	0.004391
3.480000E-8	0.004055
3.485000E-8	0.003773
3.490000E-8	0.003383
3.495000E-8	0.003109
3.500000E-8	0.002820
3.505000E-8	0.002234
3.510000E-8	0.001820
3.515000E-8	0.001539
3.520000E-8	0.001141
3.525000E-8	0.000875
3.530000E-8	0.000344
3.535000E-8	0.000266
3.540000E-8	0.000211
3.545000E-8	0.000422
3.550000E-8	0.000672
3.555000E-8	0.001070
3.560000E-8	0.001180
3.565000E-8	0.001828
3.570000E-8	0.002219
3.575000E-8	0.002891
3.580000E-8	0.002977
3.585000E-8	0.003563
3.590000E-8	0.003781
3.595000E-8	0.003867
3.600000E-8	0.004023
3.605000E-8	0.004250
3.610000E-8	0.004117
3.615000E-8	0.003875
3.620000E-8	0.003586
3.625000E-8	0.003281
3.630000E-8	0.002719
3.635000E-8	0.002508
3.640000E-8	0.001891
3.645000E-8	0.001672
3.650000E-8	0.001336
3.655000E-8	0.001078
3.660000E-8	0.000945
3.665000E-8	0.000984
3.670000E-8	0.000711
3.675000E-8	0.000906
3.680000E-8	0.001125
3.685000E-8	0.001508
3.690000E-8	0.001805
3.695000E-8	0.001891
3.700000E-8	0.002289
3.705000E-8	0.002508
3.710000E-8	0.002867
3.715000E-8	0.003148
3.720000E-8	0.003453
3.725000E-8	0.003695
3.730000E-8	0.003820
3.735000E-8	0.003938
3.740000E-8	0.003812
3.745000E-8	0.003727
3.750000E-8	0.003344
3.755000E-8	0.003172
3.760000E-8	0.002891
3.765000E-8	0.002461
3.770000E-8	0.002047
3.775000E-8	0.002008
3.780000E-8	0.001609
3.785000E-8	0.001391
3.790000E-8	0.001195
3.795000E-8	0.001203
3.800000E-8	0.000773
3.805000E-8	0.000937
3.810000E-8	0.000977
3.815000E-8	0.001453
3.820000E-8	0.001555
3.825000E-8	0.002031
3.830000E-8	0.002164
3.835000E-8	0.002703
3.840000E-8	0.002820
3.845000E-8	0.002969
3.850000E-8	0.003195
3.855000E-8	0.003469
3.860000E-8	0.003516
3.865000E-8	0.003781
3.870000E-8	0.003625
3.875000E-8	0.003695
3.880000E-8	0.003461
3.885000E-8	0.003297
3.890000E-8	0.002961
3.895000E-8	0.002633
3.900000E-8	0.002266
3.905000E-8	0.001969
3.910000E-8	0.001461
3.915000E-8	0.001430
3.920000E-8	0.001039
3.925000E-8	0.001063
3.930000E-8	0.000937
3.935000E-8	0.000766
3.940000E-8	0.000719
3.945000E-8	0.000930
3.950000E-8	0.001250
3.955000E-8	0.001563
3.960000E-8	0.001844
3.965000E-8	0.002273
3.970000E-8	0.002398
3.975000E-8	0.002672
3.980000E-8	0.003078
3.985000E-8	0.003406
3.990000E-8	0.003453
3.995000E-8	0.003422
4.000000E-8	0.003289
4.005000E-8	0.003227
4.010000E-8	0.002930
4.015000E-8	0.002797
4.020000E-8	0.002688
4.025000E-8	0.002477
4.030000E-8	0.002219
4.035000E-8	0.001898
4.040000E-8	0.001953
4.045000E-8	0.001813
4.050000E-8	0.001320
4.055000E-8	0.001195
4.060000E-8	0.001117
4.065000E-8	0.001016
4.070000E-8	0.000852
4.075000E-8	0.001234
4.080000E-8	0.001273
4.085000E-8	0.001617
4.090000E-8	0.001680
4.095000E-8	0.002047
4.100000E-8	0.002258
4.105000E-8	0.002672
4.110000E-8	0.003141
4.115000E-8	0.003414
4.120000E-8	0.003508
4.125000E-8	0.003727
4.130000E-8	0.003828
4.135000E-8	0.003680
4.140000E-8	0.003461
4.145000E-8	0.003195
4.150000E-8	0.002891
4.155000E-8	0.002883
4.160000E-8	0.002555
4.165000E-8	0.002391
4.170000E-8	0.002000
4.175000E-8	0.001828
4.180000E-8	0.001703
4.185000E-8	0.001437
4.190000E-8	0.001453
4.195000E-8	0.001367
4.200000E-8	0.001172
4.205000E-8	0.001328
4.210000E-8	0.001320
4.215000E-8	0.001586
4.220000E-8	0.001727
4.225000E-8	0.001945
4.230000E-8	0.002000
4.235000E-8	0.002594
4.240000E-8	0.002500
4.245000E-8	0.003039
4.250000E-8	0.003102
4.255000E-8	0.003406
4.260000E-8	0.003469
4.265000E-8	0.003648
4.270000E-8	0.003484
4.275000E-8	0.003500
4.280000E-8	0.003141
4.285000E-8	0.002914
4.290000E-8	0.002586
4.295000E-8	0.002305
4.300000E-8	0.001820
4.305000E-8	0.001641
4.310000E-8	0.001477
4.315000E-8	0.001430
4.320000E-8	0.001086
4.325000E-8	0.001156
4.330000E-8	0.001180
4.335000E-8	0.001258
4.340000E-8	0.001281
4.345000E-8	0.001437
4.350000E-8	0.001602
4.355000E-8	0.002039
4.360000E-8	0.002102
4.365000E-8	0.002414
4.370000E-8	0.002766
4.375000E-8	0.002930
4.380000E-8	0.003047
4.385000E-8	0.003133
4.390000E-8	0.003203
4.395000E-8	0.003430
4.400000E-8	0.003328
4.405000E-8	0.003258
4.410000E-8	0.003086
4.415000E-8	0.003102
4.420000E-8	0.002656
4.425000E-8	0.002383
4.430000E-8	0.002063
4.435000E-8	0.001859
4.440000E-8	0.001570
4.445000E-8	0.001648
4.450000E-8	0.001109
4.455000E-8	0.001273
4.460000E-8	0.001109
4.465000E-8	0.001156
4.470000E-8	0.001148
4.475000E-8	0.001336
4.480000E-8	0.001633
4.485000E-8	0.001992
4.490000E-8	0.002320
4.495000E-8	0.002500
4.500000E-8	0.002680
4.505000E-8	0.002859
4.510000E-8	0.003008
4.515000E-8	0.003344
4.520000E-8	0.003180
4.525000E-8	0.003172
4.530000E-8	0.003094
4.535000E-8	0.003180
4.540000E-8	0.002938
4.545000E-8	0.002812
4.550000E-8	0.002523
4.555000E-8	0.002180
4.560000E-8	0.002156
4.565000E-8	0.002047
4.570000E-8	0.001617
4.575000E-8	0.001344
4.580000E-8	0.001172
4.585000E-8	0.001141
4.590000E-8	0.001219
4.595000E-8	0.001297
4.600000E-8	0.000891
4.605000E-8	0.001164
4.610000E-8	0.001094
4.615000E-8	0.001594
4.620000E-8	0.001758
4.625000E-8	0.002094
4.630000E-8	0.002227
4.635000E-8	0.002586
4.640000E-8	0.002656
4.645000E-8	0.002891
4.650000E-8	0.002859
4.655000E-8	0.003133
4.660000E-8	0.003195
4.665000E-8	0.003453
4.670000E-8	0.003148
4.675000E-8	0.003281
4.680000E-8	0.002883
4.685000E-8	0.002703
4.690000E-8	0.002281
4.695000E-8	0.001906
4.700000E-8	0.001773
4.705000E-8	0.001719
4.710000E-8	0.001625
4.715000E-8	0.001687
4.720000E-8	0.001594
4.725000E-8	0.001547
4.730000E-8	0.001500
4.735000E-8	0.001602
4.740000E-8	0.001695
4.745000E-8	0.001836
4.750000E-8	0.002023
4.755000E-8	0.002180
4.760000E-8	0.002445
4.765000E-8	0.002734
4.770000E-8	0.002750
4.775000E-8	0.002984
4.780000E-8	0.003031
4.785000E-8	0.003203
4.790000E-8	0.002938
4.795000E-8	0.002977
4.800000E-8	0.002992
4.805000E-8	0.002953
4.810000E-8	0.002758
4.815000E-8	0.002680
4.820000E-8	0.002437
4.825000E-8	0.002312
4.830000E-8	0.002141
4.835000E-8	0.002250
4.840000E-8	0.001695
4.845000E-8	0.001555
4.850000E-8	0.001508
4.855000E-8	0.001711
4.860000E-8	0.001422
4.865000E-8	0.001453
4.870000E-8	0.001492
4.875000E-8	0.001961
4.880000E-8	0.002188
4.885000E-8	0.002297
4.890000E-8	0.002703
4.895000E-8	0.002852
4.900000E-8	0.002977
4.905000E-8	0.003133
4.910000E-8	0.003328
4.915000E-8	0.003766
4.920000E-8	0.003461
4.925000E-8	0.003484
4.930000E-8	0.003297
4.935000E-8	0.003125
4.940000E-8	0.002938
4.945000E-8	0.002805
4.950000E-8	0.002477
4.955000E-8	0.002188
4.960000E-8	0.001898
4.965000E-8	0.001750
4.970000E-8	0.001492
4.975000E-8	0.001359
4.980000E-8	0.001180
4.985000E-8	0.001297
4.990000E-8	0.001219
4.995000E-8	0.001344
5.000000E-8	0.001422
5.005000E-8	0.001578
5.010000E-8	0.001570
5.015000E-8	0.001648
5.020000E-8	0.001875
5.025000E-8	0.002086
5.030000E-8	0.002047
5.035000E-8	0.002445
5.040000E-8	0.002594
5.045000E-8	0.002773
5.050000E-8	0.002844
5.055000E-8	0.003188
5.060000E-8	0.002938
5.065000E-8	0.002773
5.070000E-8	0.002563
5.075000E-8	0.002836
5.080000E-8	0.002500
5.085000E-8	0.002188
5.090000E-8	0.001828
5.095000E-8	0.001531
5.100000E-8	0.001273
5.105000E-8	0.001320
5.110000E-8	0.001172
5.115000E-8	0.001242
5.120000E-8	0.001391
5.125000E-8	0.001156
5.130000E-8	0.001477
5.135000E-8	0.001805
5.140000E-8	0.002078
5.145000E-8	0.002133
5.150000E-8	0.002234
5.155000E-8	0.002547
5.160000E-8	0.002563
5.165000E-8	0.002750
5.170000E-8	0.002750
5.175000E-8	0.003148
5.180000E-8	0.003016
5.185000E-8	0.002945
5.190000E-8	0.002969
5.195000E-8	0.002953
5.200000E-8	0.002789
5.205000E-8	0.002656
5.210000E-8	0.002305
5.215000E-8	0.001953
5.220000E-8	0.001867
5.225000E-8	0.001750
5.230000E-8	0.001484
5.235000E-8	0.001492
5.240000E-8	0.001180
5.245000E-8	0.000992
5.250000E-8	0.000992
5.255000E-8	0.000977
5.260000E-8	0.001063
5.265000E-8	0.001375
5.270000E-8	0.001617
5.275000E-8	0.001930
5.280000E-8	0.002227
5.285000E-8	0.002578
5.290000E-8	0.002664
5.295000E-8	0.002797
5.300000E-8	0.002750
5.305000E-8	0.002867
5.310000E-8	0.002789
5.315000E-8	0.002828
5.320000E-8	0.002750
5.325000E-8	0.002648
5.330000E-8	0.002375
5.335000E-8	0.002539
5.340000E-8	0.002242
5.345000E-8	0.002281
5.350000E-8	0.001992
5.355000E-8	0.001969
5.360000E-8	0.001852
5.365000E-8	0.001867
5.370000E-8	0.001789
5.375000E-8	0.001891
5.380000E-8	0.001695
5.385000E-8	0.001758
5.390000E-8	0.001648
5.395000E-8	0.001789
5.400000E-8	0.001914
5.405000E-8	0.001937
5.410000E-8	0.001875
5.415000E-8	0.002094
5.420000E-8	0.002148
5.425000E-8	0.002320
5.430000E-8	0.002492
5.435000E-8	0.002734
5.440000E-8	0.002789
5.445000E-8	0.002875
5.450000E-8	0.002641
5.455000E-8	0.002898
5.460000E-8	0.002789
5.465000E-8	0.002875
5.470000E-8	0.002508
5.475000E-8	0.002430
5.480000E-8	0.002234
5.485000E-8	0.002039
5.490000E-8	0.001797
5.495000E-8	0.001695
5.500000E-8	0.001508
5.505000E-8	0.001367
5.510000E-8	0.001383
5.515000E-8	0.001586
5.520000E-8	0.001813
5.525000E-8	0.001883
5.530000E-8	0.001961
5.535000E-8	0.002180
5.540000E-8	0.002188
5.545000E-8	0.002586
5.550000E-8	0.002500
5.555000E-8	0.002656
5.560000E-8	0.002781
5.565000E-8	0.002727
5.570000E-8	0.002961
5.575000E-8	0.002977
5.580000E-8	0.002844
5.585000E-8	0.002867
5.590000E-8	0.002750
5.595000E-8	0.002844
5.600000E-8	0.002570
5.605000E-8	0.002523
5.610000E-8	0.002273
5.615000E-8	0.002305
5.620000E-8	0.002102
5.625000E-8	0.001773
5.630000E-8	0.001469
5.635000E-8	0.001383
5.640000E-8	0.001297
5.645000E-8	0.001375
5.650000E-8	0.001570
5.655000E-8	0.001617
5.660000E-8	0.001945
5.665000E-8	0.002422
5.670000E-8	0.002203
5.675000E-8	0.002516
5.680000E-8	0.002805
5.685000E-8	0.002742
5.690000E-8	0.002883
5.695000E-8	0.002992
5.700000E-8	0.003109
5.705000E-8	0.002867
5.710000E-8	0.002727
5.715000E-8	0.002750
5.720000E-8	0.002617
5.725000E-8	0.002719
5.730000E-8	0.002680
5.735000E-8	0.002547
5.740000E-8	0.002531
5.745000E-8	0.002227
5.750000E-8	0.002242
5.755000E-8	0.002188
5.760000E-8	0.002047
5.765000E-8	0.001898
5.770000E-8	0.001914
5.775000E-8	0.001906
5.780000E-8	0.001828
5.785000E-8	0.001969
5.790000E-8	0.002109
5.795000E-8	0.002297
5.800000E-8	0.002312
5.805000E-8	0.002602
5.810000E-8	0.002727
5.815000E-8	0.002922
5.820000E-8	0.003109
5.825000E-8	0.003133
5.830000E-8	0.002797
5.835000E-8	0.002875
5.840000E-8	0.002742
5.845000E-8	0.002633
5.850000E-8	0.002477
5.855000E-8	0.002594
5.860000E-8	0.002563
5.865000E-8	0.002234
5.870000E-8	0.002031
5.875000E-8	0.002133
5.880000E-8	0.001844
5.885000E-8	0.001859
5.890000E-8	0.001703
5.895000E-8	0.001609
5.900000E-8	0.001680
5.905000E-8	0.001695
5.910000E-8	0.001500
5.915000E-8	0.001516
5.920000E-8	0.001703
5.925000E-8	0.001977
5.930000E-8	0.001992
5.935000E-8	0.002133
5.940000E-8	0.002156
5.945000E-8	0.002203
5.950000E-8	0.002305
5.955000E-8	0.002703
5.960000E-8	0.002680
5.965000E-8	0.002703
5.970000E-8	0.002570
5.975000E-8	0.002852
5.980000E-8	0.002703
5.985000E-8	0.002453
5.990000E-8	0.002063
5.995000E-8	0.002297
6.000000E-8	0.002047
6.005000E-8	0.002008
6.010000E-8	0.002078
6.015000E-8	0.002008
6.020000E-8	0.001898
6.025000E-8	0.001961
6.030000E-8	0.001719
6.035000E-8	0.001984
6.040000E-8	0.001875
6.045000E-8	0.001984
6.050000E-8	0.002141
6.055000E-8	0.002375
6.060000E-8	0.002445
6.065000E-8	0.002555
6.070000E-8	0.002664
6.075000E-8	0.002773
6.080000E-8	0.002789
6.085000E-8	0.002805
6.090000E-8	0.002750
6.095000E-8	0.003016
6.100000E-8	0.003070
6.105000E-8	0.003023
6.110000E-8	0.002859
6.115000E-8	0.002930
6.120000E-8	0.002789
6.125000E-8	0.002477
6.130000E-8	0.002398
6.135000E-8	0.002312
6.140000E-8	0.002227
6.145000E-8	0.002117
6.150000E-8	0.001750
6.155000E-8	0.001828
6.160000E-8	0.001563
6.165000E-8	0.001734
6.170000E-8	0.001492
6.175000E-8	0.001727
6.180000E-8	0.001922
6.185000E-8	0.001977
6.190000E-8	0.002031
6.195000E-8	0.002352
6.200000E-8	0.002516
6.205000E-8	0.002727
6.210000E-8	0.002742
6.215000E-8	0.002820
6.220000E-8	0.002812
6.225000E-8	0.002805
6.230000E-8	0.002922
6.235000E-8	0.002859
6.240000E-8	0.002695
6.245000E-8	0.002594
6.250000E-8	0.002516
6.255000E-8	0.002414
6.260000E-8	0.002359
6.265000E-8	0.002164
6.270000E-8	0.002047
6.275000E-8	0.002117
6.280000E-8	0.002008
6.285000E-8	0.002266
6.290000E-8	0.002211
6.295000E-8	0.002094
6.300000E-8	0.001906
6.305000E-8	0.001867
6.310000E-8	0.001789
6.315000E-8	0.001984
6.320000E-8	0.001930
6.325000E-8	0.002055
6.330000E-8	0.002312
6.335000E-8	0.002367
6.340000E-8	0.002469
6.345000E-8	0.002531
6.350000E-8	0.002453
6.355000E-8	0.002625
6.360000E-8	0.002414
6.365000E-8	0.002500
6.370000E-8	0.002375
6.375000E-8	0.002289
6.380000E-8	0.002367
6.385000E-8	0.002336
6.390000E-8	0.002102
6.395000E-8	0.002156
6.400000E-8	0.001922
6.405000E-8	0.001875
6.410000E-8	0.001664
6.415000E-8	0.001953
6.420000E-8	0.001914
6.425000E-8	0.002086
6.430000E-8	0.001875
6.435000E-8	0.001891
6.440000E-8	0.001836
6.445000E-8	0.001836
6.450000E-8	0.001742
6.455000E-8	0.001844
6.460000E-8	0.002086
6.465000E-8	0.002109
6.470000E-8	0.002133
6.475000E-8	0.002391
6.480000E-8	0.002242
6.485000E-8	0.002437
6.490000E-8	0.002516
6.495000E-8	0.002648
6.500000E-8	0.002523
6.505000E-8	0.002445
6.510000E-8	0.002594
6.515000E-8	0.002641
6.520000E-8	0.002469
6.525000E-8	0.002375
6.530000E-8	0.002289
6.535000E-8	0.002039
6.540000E-8	0.001703
6.545000E-8	0.001703
6.550000E-8	0.001805
6.555000E-8	0.001617
6.560000E-8	0.001586
6.565000E-8	0.001734
6.570000E-8	0.001766
6.575000E-8	0.001906
6.580000E-8	0.002188
6.585000E-8	0.002375
6.590000E-8	0.002250
6.595000E-8	0.002625
6.600000E-8	0.002555
6.605000E-8	0.002766
6.610000E-8	0.002820
6.615000E-8	0.003016
6.620000E-8	0.002898
6.625000E-8	0.002719
6.630000E-8	0.002422
6.635000E-8	0.002539
6.640000E-8	0.002508
6.645000E-8	0.002617
6.650000E-8	0.002430
6.655000E-8	0.002133
6.660000E-8	0.002172
6.665000E-8	0.002219
6.670000E-8	0.002031
6.675000E-8	0.001992
6.680000E-8	0.001937
6.685000E-8	0.001766
6.690000E-8	0.002000
6.695000E-8	0.001969
6.700000E-8	0.002258
6.705000E-8	0.002195
6.710000E-8	0.002289
6.715000E-8	0.002469
6.720000E-8	0.002414
6.725000E-8	0.002570
6.730000E-8	0.002563
6.735000E-8	0.002828
6.740000E-8	0.002789
6.745000E-8	0.002695
6.750000E-8	0.002906
6.755000E-8	0.002875
6.760000E-8	0.002703
6.765000E-8	0.002461
6.770000E-8	0.002414
6.775000E-8	0.002437
6.780000E-8	0.002437
6.785000E-8	0.002273
6.790000E-8	0.002016
6.795000E-8	0.002109
6.800000E-8	0.001937
6.805000E-8	0.001867
6.810000E-8	0.001789
6.815000E-8	0.001711
6.820000E-8	0.001937
6.825000E-8	0.002031
6.830000E-8	0.002000
6.835000E-8	0.002320
6.840000E-8	0.002328
6.845000E-8	0.002398
6.850000E-8	0.002492
6.855000E-8	0.002578
6.860000E-8	0.002625
6.865000E-8	0.002656
6.870000E-8	0.002492
6.875000E-8	0.002766
6.880000E-8	0.002719
6.885000E-8	0.002742
6.890000E-8	0.002812
6.895000E-8	0.002680
6.900000E-8	0.002688
6.905000E-8	0.002609
6.910000E-8	0.002664
6.915000E-8	0.002563
6.920000E-8	0.002453
6.925000E-8	0.002375
6.930000E-8	0.002406
6.935000E-8	0.002211
6.940000E-8	0.002273
6.945000E-8	0.002359
6.950000E-8	0.002133
6.955000E-8	0.002305
6.960000E-8	0.002281
6.965000E-8	0.002273
6.970000E-8	0.002375
6.975000E-8	0.002258
6.980000E-8	0.002367
6.985000E-8	0.002500
6.990000E-8	0.002508
6.995000E-8	0.002656
7.000000E-8	0.002508
7.005000E-8	0.002617
7.010000E-8	0.002531
7.015000E-8	0.002766
7.020000E-8	0.002758
7.025000E-8	0.002930
7.030000E-8	0.002672
7.035000E-8	0.002688
7.040000E-8	0.002344
7.045000E-8	0.002414
7.050000E-8	0.002211
7.055000E-8	0.002070
7.060000E-8	0.001805
7.065000E-8	0.001781
7.070000E-8	0.001820
7.075000E-8	0.001742
7.080000E-8	0.001742
7.085000E-8	0.001898
7.090000E-8	0.002063
7.095000E-8	0.002195
7.100000E-8	0.002031
7.105000E-8	0.002320
7.110000E-8	0.002430
7.115000E-8	0.002492
7.120000E-8	0.002195
7.125000E-8	0.002203
7.130000E-8	0.002219
7.135000E-8	0.002586
7.140000E-8	0.002648
7.145000E-8	0.002578
7.150000E-8	0.002578
7.155000E-8	0.002914
7.160000E-8	0.002891
7.165000E-8	0.002914
7.170000E-8	0.002922
7.175000E-8	0.002719
7.180000E-8	0.002516
7.185000E-8	0.002625
7.190000E-8	0.002453
7.195000E-8	0.002383
7.200000E-8	0.002086
7.205000E-8	0.002289
7.210000E-8	0.002117
7.215000E-8	0.002141
7.220000E-8	0.002047
7.225000E-8	0.002109
7.230000E-8	0.002086
7.235000E-8	0.002000
7.240000E-8	0.001961
7.245000E-8	0.002195
7.250000E-8	0.002219
7.255000E-8	0.002469
7.260000E-8	0.002328
7.265000E-8	0.002391
7.270000E-8	0.002453
7.275000E-8	0.002375
7.280000E-8	0.002305
7.285000E-8	0.002461
7.290000E-8	0.002359
7.295000E-8	0.002430
7.300000E-8	0.002539
7.305000E-8	0.002211
7.310000E-8	0.002180
7.315000E-8	0.002242
7.320000E-8	0.001797
7.325000E-8	0.002039
7.330000E-8	0.001852
7.335000E-8	0.001727
7.340000E-8	0.001586
7.345000E-8	0.001555
7.350000E-8	0.001453
7.355000E-8	0.001492
7.360000E-8	0.001258
7.365000E-8	0.001641
7.370000E-8	0.001781
7.375000E-8	0.001961
7.380000E-8	0.001820
7.385000E-8	0.002172
7.390000E-8	0.002242
7.395000E-8	0.002586
7.400000E-8	0.002578
7.405000E-8	0.002820
7.410000E-8	0.002734
7.415000E-8	0.002930
7.420000E-8	0.002625
7.425000E-8	0.002516
7.430000E-8	0.002391
7.435000E-8	0.002180
7.440000E-8	0.001922
7.445000E-8	0.002125
7.450000E-8	0.002102
7.455000E-8	0.002000
7.460000E-8	0.001922
7.465000E-8	0.001836
7.470000E-8	0.001820
7.475000E-8	0.002086
7.480000E-8	0.002227
7.485000E-8	0.002195
7.490000E-8	0.002078
7.495000E-8	0.002180
7.500000E-8	0.001891
7.505000E-8	0.001898
7.510000E-8	0.001859
7.515000E-8	0.002039
7.520000E-8	0.002086
7.525000E-8	0.002320
7.530000E-8	0.002437
7.535000E-8	0.002531
7.540000E-8	0.002648
7.545000E-8	0.002688
7.550000E-8	0.002703
7.555000E-8	0.002727
7.560000E-8	0.002195
7.565000E-8	0.002203
7.570000E-8	0.002227
7.575000E-8	0.002023
7.580000E-8	0.001859
7.585000E-8	0.001875
7.590000E-8	0.001750
7.595000E-8	0.001742
7.600000E-8	0.001852
7.605000E-8	0.001844
7.610000E-8	0.001742
7.615000E-8	0.002133
7.620000E-8	0.002063
7.625000E-8	0.002422
7.630000E-8	0.002312
7.635000E-8	0.002250
7.640000E-8	0.002102
7.645000E-8	0.002117
7.650000E-8	0.002008
7.655000E-8	0.002102
7.660000E-8	0.002125
7.665000E-8	0.001945
7.670000E-8	0.002070
7.675000E-8	0.002281
7.680000E-8	0.002297
7.685000E-8	0.002367
7.690000E-8	0.002148
7.695000E-8	0.002398
7.700000E-8	0.002375
7.705000E-8	0.002289
7.710000E-8	0.002250
7.715000E-8	0.002281
7.720000E-8	0.002133
7.725000E-8	0.002008
7.730000E-8	0.002078
7.735000E-8	0.001875
7.740000E-8	0.001766
7.745000E-8	0.002000
7.750000E-8	0.001680
7.755000E-8	0.001766
7.760000E-8	0.001813
7.765000E-8	0.002031
7.770000E-8	0.002078
7.775000E-8	0.002367
7.780000E-8	0.002422
7.785000E-8	0.002617
7.790000E-8	0.002531
7.795000E-8	0.002758
7.800000E-8	0.002750
7.805000E-8	0.002828
7.810000E-8	0.002594
7.815000E-8	0.002758
7.820000E-8	0.002500
7.825000E-8	0.002602
7.830000E-8	0.002289
7.835000E-8	0.002289
7.840000E-8	0.002195
7.845000E-8	0.002070
7.850000E-8	0.001883
7.855000E-8	0.001953
7.860000E-8	0.002047
7.865000E-8	0.001984
7.870000E-8	0.002211
7.875000E-8	0.002070
7.880000E-8	0.002047
7.885000E-8	0.002109
7.890000E-8	0.002125
7.895000E-8	0.002070
7.900000E-8	0.002055
7.905000E-8	0.002234
7.910000E-8	0.002305
7.915000E-8	0.002359
7.920000E-8	0.002352
7.925000E-8	0.002336
7.930000E-8	0.002281
7.935000E-8	0.002320
7.940000E-8	0.002367
7.945000E-8	0.002437
7.950000E-8	0.002375
7.955000E-8	0.002625
7.960000E-8	0.002766
7.965000E-8	0.002703
7.970000E-8	0.002555
7.975000E-8	0.002461
7.980000E-8	0.002109
7.985000E-8	0.002148
7.990000E-8	0.001891
7.995000E-8	0.001969
8.000000E-8	0.001844
8.005000E-8	0.001945
8.010000E-8	0.001984
8.015000E-8	0.001930
8.020000E-8	0.002133
8.025000E-8	0.002320
8.030000E-8	0.002430
8.035000E-8	0.002602
8.040000E-8	0.002547
8.045000E-8	0.002617
8.050000E-8	0.002547
8.055000E-8	0.002477
8.060000E-8	0.002563
8.065000E-8	0.002414
8.070000E-8	0.002437
8.075000E-8	0.002477
8.080000E-8	0.002305
8.085000E-8	0.002398
8.090000E-8	0.002180
8.095000E-8	0.002203
8.100000E-8	0.002328
8.105000E-8	0.002328
8.110000E-8	0.002305
8.115000E-8	0.002336
8.120000E-8	0.002281
8.125000E-8	0.002156
8.130000E-8	0.001984
8.135000E-8	0.001742
8.140000E-8	0.001727
8.145000E-8	0.001836
8.150000E-8	0.001672
8.155000E-8	0.001898
8.160000E-8	0.001984
8.165000E-8	0.001945
8.170000E-8	0.001773
8.175000E-8	0.002250
8.180000E-8	0.002336
8.185000E-8	0.002289
8.190000E-8	0.002312
8.195000E-8	0.002375
8.200000E-8	0.002164
8.205000E-8	0.002227
8.210000E-8	0.002031
8.215000E-8	0.002203
8.220000E-8	0.002094
8.225000E-8	0.002148
8.230000E-8	0.001969
8.235000E-8	0.001961
8.240000E-8	0.001906
8.245000E-8	0.001836
8.250000E-8	0.001625
8.255000E-8	0.001813
8.260000E-8	0.001883
8.265000E-8	0.001852
8.270000E-8	0.001805
8.275000E-8	0.001906
8.280000E-8	0.001883
8.285000E-8	0.002016
8.290000E-8	0.002156
8.295000E-8	0.002242
8.300000E-8	0.002359
8.305000E-8	0.002633
8.310000E-8	0.002664
8.315000E-8	0.002758
8.320000E-8	0.002719
8.325000E-8	0.002664
8.330000E-8	0.002563
8.335000E-8	0.002523
8.340000E-8	0.002539
8.345000E-8	0.002211
8.350000E-8	0.002164
8.355000E-8	0.002234
8.360000E-8	0.002047
8.365000E-8	0.001984
8.370000E-8	0.001977
8.375000E-8	0.001914
8.380000E-8	0.001836
8.385000E-8	0.001859
8.390000E-8	0.001875
8.395000E-8	0.002078
8.400000E-8	0.002109
8.405000E-8	0.002266
8.410000E-8	0.002219
8.415000E-8	0.002336
8.420000E-8	0.002219
8.425000E-8	0.002414
8.430000E-8	0.002242
8.435000E-8	0.002055
8.440000E-8	0.002180
8.445000E-8	0.002336
8.450000E-8	0.002250
8.455000E-8	0.002336
8.460000E-8	0.002242
8.465000E-8	0.002625
8.470000E-8	0.002789
8.475000E-8	0.002828
8.480000E-8	0.002711
8.485000E-8	0.002672
8.490000E-8	0.002563
8.495000E-8	0.002547
8.500000E-8	0.002469
8.505000E-8	0.002211
8.510000E-8	0.002203
8.515000E-8	0.002047
8.520000E-8	0.001930
8.525000E-8	0.002070
8.530000E-8	0.001984
8.535000E-8	0.002164
8.540000E-8	0.002039
8.545000E-8	0.002273
8.550000E-8	0.002211
8.555000E-8	0.002398
8.560000E-8	0.002320
8.565000E-8	0.002375
8.570000E-8	0.002445
8.575000E-8	0.002445
8.580000E-8	0.002602
8.585000E-8	0.002617
8.590000E-8	0.002422
8.595000E-8	0.002680
8.600000E-8	0.002508
8.605000E-8	0.002609
8.610000E-8	0.002563
8.615000E-8	0.002539
8.620000E-8	0.002328
8.625000E-8	0.002320
8.630000E-8	0.002086
8.635000E-8	0.002141
8.640000E-8	0.002172
8.645000E-8	0.002172
8.650000E-8	0.002242
8.655000E-8	0.002242
8.660000E-8	0.002234
8.665000E-8	0.002258
8.670000E-8	0.002164
8.675000E-8	0.002328
8.680000E-8	0.002266
8.685000E-8	0.002344
8.690000E-8	0.002367
8.695000E-8	0.002320
8.700000E-8	0.002437
8.705000E-8	0.002352
8.710000E-8	0.002094
8.715000E-8	0.002039
8.720000E-8	0.002125
8.725000E-8	0.002039
8.730000E-8	0.001508
8.735000E-8	0.001766
8.740000E-8	0.001695
8.745000E-8	0.001844
8.750000E-8	0.002008
8.755000E-8	0.002227
8.760000E-8	0.002078
8.765000E-8	0.002000
8.770000E-8	0.002227
8.775000E-8	0.002156
8.780000E-8	0.002242
8.785000E-8	0.002203
8.790000E-8	0.001945
8.795000E-8	0.002172
8.800000E-8	0.001977
8.805000E-8	0.001992
8.810000E-8	0.001937
8.815000E-8	0.002047
8.820000E-8	0.002055
8.825000E-8	0.002312
8.830000E-8	0.002156
8.835000E-8	0.002445
8.840000E-8	0.002375
8.845000E-8	0.002531
8.850000E-8	0.002406
8.855000E-8	0.002672
8.860000E-8	0.002477
8.865000E-8	0.002648
8.870000E-8	0.002352
8.875000E-8	0.002367
8.880000E-8	0.002180
8.885000E-8	0.002125
8.890000E-8	0.002031
8.895000E-8	0.002063
8.900000E-8	0.002063
8.905000E-8	0.002227
8.910000E-8	0.002219
8.915000E-8	0.002273
8.920000E-8	0.002219
8.925000E-8	0.002203
8.930000E-8	0.002195
8.935000E-8	0.002242
8.940000E-8	0.002211
8.945000E-8	0.002188
8.950000E-8	0.002258
8.955000E-8	0.002437
8.960000E-8	0.002570
8.965000E-8	0.002531
8.970000E-8	0.002398
8.975000E-8	0.002656
8.980000E-8	0.002656
8.985000E-8	0.002578
8.990000E-8	0.002719
8.995000E-8	0.002633
9.000000E-8	0.002453
9.005000E-8	0.002461
9.010000E-8	0.002359
9.015000E-8	0.002477
9.020000E-8	0.002516
9.025000E-8	0.002539
9.030000E-8	0.002516
9.035000E-8	0.002555
9.040000E-8	0.002500
9.045000E-8	0.002500
9.050000E-8	0.002422
9.055000E-8	0.002328
9.060000E-8	0.002078
9.065000E-8	0.002141
9.070000E-8	0.002211
9.075000E-8	0.002422
9.080000E-8	0.002234
9.085000E-8	0.002203
9.090000E-8	0.002484
9.095000E-8	0.002570
9.100000E-8	0.002484
9.105000E-8	0.002375
9.110000E-8	0.002375
9.115000E-8	0.002375
9.120000E-8	0.002336
9.125000E-8	0.002406
9.130000E-8	0.002516
9.135000E-8	0.002648
9.140000E-8	0.002578
9.145000E-8	0.002555
9.150000E-8	0.002398
9.155000E-8	0.002094
9.160000E-8	0.001891
9.165000E-8	0.002125
9.170000E-8	0.002211
9.175000E-8	0.001984
9.180000E-8	0.001969
9.185000E-8	0.001992
9.190000E-8	0.002039
9.195000E-8	0.002125
9.200000E-8	0.002383
9.205000E-8	0.002359
9.210000E-8	0.002445
9.215000E-8	0.002672
9.220000E-8	0.002555
9.225000E-8	0.002531
9.230000E-8	0.002461
9.235000E-8	0.002539
9.240000E-8	0.002445
9.245000E-8	0.002500
9.250000E-8	0.002461
9.255000E-8	0.002477
9.260000E-8	0.002336
9.265000E-8	0.002133
9.270000E-8	0.002125
9.275000E-8	0.002094
9.280000E-8	0.002008
9.285000E-8	0.002102
9.290000E-8	0.002000
9.295000E-8	0.002039
9.300000E-8	0.002109
9.305000E-8	0.002289
9.310000E-8	0.002156
9.315000E-8	0.002234
9.320000E-8	0.002164
9.325000E-8	0.002078
9.330000E-8	0.001945
9.335000E-8	0.002102
9.340000E-8	0.002070
9.345000E-8	0.002234
9.350000E-8	0.002063
9.355000E-8	0.002320
9.360000E-8	0.002273
9.365000E-8	0.002555
9.370000E-8	0.002680
9.375000E-8	0.002836
9.380000E-8	0.002758
9.385000E-8	0.002531
9.390000E-8	0.002484
9.395000E-8	0.002523
9.400000E-8	0.002398
9.405000E-8	0.002383
9.410000E-8	0.002320
9.415000E-8	0.002461
9.420000E-8	0.002055
9.425000E-8	0.001945
9.430000E-8	0.002078
9.435000E-8	0.002211
9.440000E-8	0.002039
9.445000E-8	0.002125
9.450000E-8	0.001969
9.455000E-8	0.002242
9.460000E-8	0.002375
9.465000E-8	0.002422
9.470000E-8	0.002359
9.475000E-8	0.002328
9.480000E-8	0.002250
9.485000E-8	0.002297
9.490000E-8	0.002430
9.495000E-8	0.002625
9.500000E-8	0.002477
9.505000E-8	0.002297
9.510000E-8	0.002375
9.515000E-8	0.002297
9.520000E-8	0.002461
9.525000E-8	0.002539
9.530000E-8	0.002570
9.535000E-8	0.002492
9.540000E-8	0.002266
9.545000E-8	0.002211
9.550000E-8	0.002203
9.555000E-8	0.002375
9.560000E-8	0.002367
9.565000E-8	0.002453
9.570000E-8	0.002406
9.575000E-8	0.002461
9.580000E-8	0.002492
9.585000E-8	0.002664
9.590000E-8	0.002641
9.595000E-8	0.002492
9.600000E-8	0.002469
9.605000E-8	0.002500
9.610000E-8	0.002500
9.615000E-8	0.002516
9.620000E-8	0.002563
9.625000E-8	0.002492
9.630000E-8	0.002227
9.635000E-8	0.002195
9.640000E-8	0.002047
9.645000E-8	0.002047
9.650000E-8	0.001953
9.655000E-8	0.002000
9.660000E-8	0.001906
9.665000E-8	0.001992
9.670000E-8	0.002000
9.675000E-8	0.002000
9.680000E-8	0.001766
9.685000E-8	0.001805
9.690000E-8	0.001625
9.695000E-8	0.001750
9.700000E-8	0.001773
9.705000E-8	0.001734
9.710000E-8	0.001961
9.715000E-8	0.002102
9.720000E-8	0.002133
9.725000E-8	0.002219
9.730000E-8	0.002281
9.735000E-8	0.002414
9.740000E-8	0.002430
9.745000E-8	0.002266
9.750000E-8	0.002102
9.755000E-8	0.002289
9.760000E-8	0.002336
9.765000E-8	0.002453
9.770000E-8	0.002336
9.775000E-8	0.002328
9.780000E-8	0.002117
9.785000E-8	0.001953
9.790000E-8	0.002070
9.795000E-8	0.002273
9.800000E-8	0.002047
9.805000E-8	0.001945
9.810000E-8	0.002063
9.815000E-8	0.002016
9.820000E-8	0.002070
9.825000E-8	0.001953
9.830000E-8	0.001859
9.835000E-8	0.002078
9.840000E-8	0.001937
9.845000E-8	0.002031
9.850000E-8	0.002039
9.855000E-8	0.002320
9.860000E-8	0.002094
9.865000E-8	0.002367
9.870000E-8	0.002180
9.875000E-8	0.002391
9.880000E-8	0.002414
9.885000E-8	0.002609
9.890000E-8	0.002805
9.895000E-8	0.002875
9.900000E-8	0.002742
9.905000E-8	0.002773
9.910000E-8	0.002477
9.915000E-8	0.002602
9.920000E-8	0.002727
9.925000E-8	0.002461
9.930000E-8	0.002398
9.935000E-8	0.002359
9.940000E-8	0.002258
9.945000E-8	0.002430
9.950000E-8	0.002305
9.955000E-8	0.002469
9.960000E-8	0.002273
9.965000E-8	0.002398
9.970000E-8	0.002359
9.975000E-8	0.002367
9.980000E-8	0.002359
9.985000E-8	0.002352
9.990000E-8	0.002156
9.995000E-8	0.002203
