LabVIEW Measurement	
Writer_Version	2
Reader_Version	2
Separator	Tab
Decimal_Separator	.
Multi_Headings	No
X_Columns	Multi
Time_Pref	Relative
Operator	TG lab
Date	2015/03/06
Time	16:19:56.1363592147827148437
***End_of_Header***	
	
Channels	1	
Samples	2000	
Date	1903/12/31	
Time	19:00:00	
X_Dimension	Time	
X0	0.0000000000000000E+0	
Delta_X	5.000000E-11	
***End_of_Header***		
X_Value	Untitled	Comment
0.000000	0.001822
5.000000E-11	0.001819
1.000000E-10	0.001834
1.500000E-10	0.001881
2.000000E-10	0.001919
2.500000E-10	0.001872
3.000000E-10	0.001866
3.500000E-10	0.001919
4.000000E-10	0.001925
4.500000E-10	0.001969
5.000000E-10	0.002116
5.500000E-10	0.002234
6.000000E-10	0.002134
6.500000E-10	0.002134
7.000000E-10	0.002078
7.500000E-10	0.002094
8.000000E-10	0.002025
8.500000E-10	0.002038
9.000000E-10	0.002031
9.500000E-10	0.002009
1.000000E-9	0.001944
1.050000E-9	0.002028
1.100000E-9	0.001922
1.150000E-9	0.001944
1.200000E-9	0.001759
1.250000E-9	0.001738
1.300000E-9	0.001725
1.350000E-9	0.001772
1.400000E-9	0.001638
1.450000E-9	0.001538
1.500000E-9	0.001488
1.550000E-9	0.001606
1.600000E-9	0.001731
1.650000E-9	0.001878
1.700000E-9	0.001806
1.750000E-9	0.001822
1.800000E-9	0.001884
1.850000E-9	0.002006
1.900000E-9	0.001900
1.950000E-9	0.001966
2.000000E-9	0.001934
2.050000E-9	0.001900
2.100000E-9	0.001819
2.150000E-9	0.001769
2.200000E-9	0.001756
2.250000E-9	0.001716
2.300000E-9	0.001753
2.350000E-9	0.001838
2.400000E-9	0.001847
2.450000E-9	0.001947
2.500000E-9	0.001994
2.550000E-9	0.002222
2.600000E-9	0.002122
2.650000E-9	0.002025
2.700000E-9	0.001937
2.750000E-9	0.001994
2.800000E-9	0.001772
2.850000E-9	0.001741
2.900000E-9	0.001656
2.950000E-9	0.001650
3.000000E-9	0.001687
3.050000E-9	0.001744
3.100000E-9	0.001841
3.150000E-9	0.001966
3.200000E-9	0.001847
3.250000E-9	0.002084
3.300000E-9	0.002063
3.350000E-9	0.002113
3.400000E-9	0.002134
3.450000E-9	0.002003
3.500000E-9	0.001909
3.550000E-9	0.001872
3.600000E-9	0.001844
3.650000E-9	0.001844
3.700000E-9	0.001809
3.750000E-9	0.001825
3.800000E-9	0.001856
3.850000E-9	0.001931
3.900000E-9	0.001897
3.950000E-9	0.002109
4.000000E-9	0.002131
4.050000E-9	0.002047
4.100000E-9	0.001903
4.150000E-9	0.001831
4.200000E-9	0.001719
4.250000E-9	0.001719
4.300000E-9	0.001650
4.350000E-9	0.001641
4.400000E-9	0.001538
4.450000E-9	0.001559
4.500000E-9	0.001466
4.550000E-9	0.001628
4.600000E-9	0.001691
4.650000E-9	0.001716
4.700000E-9	0.001753
4.750000E-9	0.001859
4.800000E-9	0.001881
4.850000E-9	0.001931
4.900000E-9	0.001937
4.950000E-9	0.001953
5.000000E-9	0.001828
5.050000E-9	0.001809
5.100000E-9	0.001753
5.150000E-9	0.001716
5.200000E-9	0.001644
5.250000E-9	0.001644
5.300000E-9	0.001575
5.350000E-9	0.001569
5.400000E-9	0.001559
5.450000E-9	0.001622
5.500000E-9	0.001816
5.550000E-9	0.001853
5.600000E-9	0.001809
5.650000E-9	0.001947
5.700000E-9	0.001941
5.750000E-9	0.001950
5.800000E-9	0.001872
5.850000E-9	0.001884
5.900000E-9	0.001666
5.950000E-9	0.001634
6.000000E-9	0.001488
6.050000E-9	0.001519
6.100000E-9	0.001481
6.150000E-9	0.001516
6.200000E-9	0.001409
6.250000E-9	0.001475
6.300000E-9	0.001478
6.350000E-9	0.001563
6.400000E-9	0.001656
6.450000E-9	0.001791
6.500000E-9	0.001697
6.550000E-9	0.001797
6.600000E-9	0.001666
6.650000E-9	0.001719
6.700000E-9	0.001687
6.750000E-9	0.001719
6.800000E-9	0.001719
6.850000E-9	0.001769
6.900000E-9	0.001803
6.950000E-9	0.001888
7.000000E-9	0.001859
7.050000E-9	0.001956
7.100000E-9	0.002175
7.150000E-9	0.002319
7.200000E-9	0.002466
7.250000E-9	0.002647
7.300000E-9	0.002853
7.350000E-9	0.003172
7.400000E-9	0.003481
7.450000E-9	0.003769
7.500000E-9	0.004181
7.550000E-9	0.004738
7.600000E-9	0.005006
7.650000E-9	0.005438
7.700000E-9	0.005419
7.750000E-9	0.005375
7.800000E-9	0.004700
7.850000E-9	0.003922
7.900000E-9	0.002512
7.950000E-9	0.000794
8.000000E-9	-0.001347
8.050000E-9	-0.003759
8.100000E-9	-0.006419
8.150000E-9	-0.009150
8.200000E-9	-0.011716
8.250000E-9	-0.014153
8.300000E-9	-0.016375
8.350000E-9	-0.018156
8.400000E-9	-0.019563
8.450000E-9	-0.020363
8.500000E-9	-0.020734
8.550000E-9	-0.020609
8.600000E-9	-0.020134
8.650000E-9	-0.019144
8.700000E-9	-0.017956
8.750000E-9	-0.016434
8.800000E-9	-0.015034
8.850000E-9	-0.013641
8.900000E-9	-0.012441
8.950000E-9	-0.011391
9.000000E-9	-0.010513
9.050000E-9	-0.009991
9.100000E-9	-0.009987
9.150000E-9	-0.010172
9.200000E-9	-0.010609
9.250000E-9	-0.011031
9.300000E-9	-0.011681
9.350000E-9	-0.012219
9.400000E-9	-0.012738
9.450000E-9	-0.012822
9.500000E-9	-0.012788
9.550000E-9	-0.012441
9.600000E-9	-0.011875
9.650000E-9	-0.011066
9.700000E-9	-0.010034
9.750000E-9	-0.008813
9.800000E-9	-0.007691
9.850000E-9	-0.006597
9.900000E-9	-0.005644
9.950000E-9	-0.004938
1.000000E-8	-0.004553
1.005000E-8	-0.004231
1.010000E-8	-0.004441
1.015000E-8	-0.004597
1.020000E-8	-0.005222
1.025000E-8	-0.005775
1.030000E-8	-0.006494
1.035000E-8	-0.006975
1.040000E-8	-0.007428
1.045000E-8	-0.007622
1.050000E-8	-0.007594
1.055000E-8	-0.007213
1.060000E-8	-0.006709
1.065000E-8	-0.005975
1.070000E-8	-0.005022
1.075000E-8	-0.003913
1.080000E-8	-0.002947
1.085000E-8	-0.002019
1.090000E-8	-0.001441
1.095000E-8	-0.000925
1.100000E-8	-0.000769
1.105000E-8	-0.000797
1.110000E-8	-0.001044
1.115000E-8	-0.001544
1.120000E-8	-0.002216
1.125000E-8	-0.002763
1.130000E-8	-0.003347
1.135000E-8	-0.003775
1.140000E-8	-0.004075
1.145000E-8	-0.004213
1.150000E-8	-0.004147
1.155000E-8	-0.003778
1.160000E-8	-0.003381
1.165000E-8	-0.002784
1.170000E-8	-0.002259
1.175000E-8	-0.001519
1.180000E-8	-0.000859
1.185000E-8	-0.000294
1.190000E-8	0.000131
1.195000E-8	0.000375
1.200000E-8	0.000534
1.205000E-8	0.000331
1.210000E-8	5.625000E-5
1.215000E-8	-0.000278
1.220000E-8	-0.000728
1.225000E-8	-0.001313
1.230000E-8	-0.001831
1.235000E-8	-0.002216
1.240000E-8	-0.002497
1.245000E-8	-0.002744
1.250000E-8	-0.002662
1.255000E-8	-0.002506
1.260000E-8	-0.002237
1.265000E-8	-0.001709
1.270000E-8	-0.001119
1.275000E-8	-0.000478
1.280000E-8	0.000106
1.285000E-8	0.000719
1.290000E-8	0.001138
1.295000E-8	0.001475
1.300000E-8	0.001578
1.305000E-8	0.001556
1.310000E-8	0.001353
1.315000E-8	0.000925
1.320000E-8	0.000359
1.325000E-8	-5.312500E-5
1.330000E-8	-0.000719
1.335000E-8	-0.001213
1.340000E-8	-0.001631
1.345000E-8	-0.001741
1.350000E-8	-0.001813
1.355000E-8	-0.001472
1.360000E-8	-0.000991
1.365000E-8	-0.000291
1.370000E-8	0.000403
1.375000E-8	0.001184
1.380000E-8	0.001784
1.385000E-8	0.002447
1.390000E-8	0.002897
1.395000E-8	0.002972
1.400000E-8	0.002800
1.405000E-8	0.002525
1.410000E-8	0.002056
1.415000E-8	0.001631
1.420000E-8	0.000984
1.425000E-8	0.000372
1.430000E-8	-0.000219
1.435000E-8	-0.000666
1.440000E-8	-0.001050
1.445000E-8	-0.001125
1.450000E-8	-0.001075
1.455000E-8	-0.000653
1.460000E-8	-0.000266
1.465000E-8	0.000428
1.470000E-8	0.001044
1.475000E-8	0.001756
1.480000E-8	0.002241
1.485000E-8	0.002775
1.490000E-8	0.003000
1.495000E-8	0.003156
1.500000E-8	0.003006
1.505000E-8	0.002556
1.510000E-8	0.001925
1.515000E-8	0.001334
1.520000E-8	0.000622
1.525000E-8	-1.562500E-5
1.530000E-8	-0.000534
1.535000E-8	-0.001016
1.540000E-8	-0.001172
1.545000E-8	-0.001166
1.550000E-8	-0.000972
1.555000E-8	-0.000531
1.560000E-8	7.187500E-5
1.565000E-8	0.000819
1.570000E-8	0.001409
1.575000E-8	0.002087
1.580000E-8	0.002713
1.585000E-8	0.003056
1.590000E-8	0.003144
1.595000E-8	0.003125
1.600000E-8	0.002947
1.605000E-8	0.002519
1.610000E-8	0.002025
1.615000E-8	0.001259
1.620000E-8	0.000603
1.625000E-8	5.625000E-5
1.630000E-8	-0.000406
1.635000E-8	-0.000737
1.640000E-8	-0.000844
1.645000E-8	-0.000609
1.650000E-8	-0.000203
1.655000E-8	0.000469
1.660000E-8	0.001059
1.665000E-8	0.001888
1.670000E-8	0.002484
1.675000E-8	0.003203
1.680000E-8	0.003613
1.685000E-8	0.003906
1.690000E-8	0.003816
1.695000E-8	0.003653
1.700000E-8	0.003169
1.705000E-8	0.002581
1.710000E-8	0.001931
1.715000E-8	0.001225
1.720000E-8	0.000584
1.725000E-8	0.000206
1.730000E-8	-0.000228
1.735000E-8	-0.000256
1.740000E-8	-0.000219
1.745000E-8	0.000206
1.750000E-8	0.000694
1.755000E-8	0.001325
1.760000E-8	0.002003
1.765000E-8	0.002722
1.770000E-8	0.003131
1.775000E-8	0.003544
1.780000E-8	0.003641
1.785000E-8	0.003813
1.790000E-8	0.003616
1.795000E-8	0.003278
1.800000E-8	0.002662
1.805000E-8	0.002084
1.810000E-8	0.001353
1.815000E-8	0.000859
1.820000E-8	0.000278
1.825000E-8	-0.000134
1.830000E-8	-0.000347
1.835000E-8	-0.000412
1.840000E-8	-0.000256
1.845000E-8	0.000166
1.850000E-8	0.000631
1.855000E-8	0.001306
1.860000E-8	0.001959
1.865000E-8	0.002563
1.870000E-8	0.003087
1.875000E-8	0.003497
1.880000E-8	0.003572
1.885000E-8	0.003512
1.890000E-8	0.003272
1.895000E-8	0.002900
1.900000E-8	0.002397
1.905000E-8	0.001875
1.910000E-8	0.001259
1.915000E-8	0.000709
1.920000E-8	0.000350
1.925000E-8	0.000125
1.930000E-8	-7.187500E-5
1.935000E-8	9.375000E-5
1.940000E-8	0.000341
1.945000E-8	0.000850
1.950000E-8	0.001334
1.955000E-8	0.001981
1.960000E-8	0.002503
1.965000E-8	0.003028
1.970000E-8	0.003266
1.975000E-8	0.003569
1.980000E-8	0.003547
1.985000E-8	0.003528
1.990000E-8	0.003106
1.995000E-8	0.002638
2.000000E-8	0.002122
2.005000E-8	0.001569
2.010000E-8	0.000975
2.015000E-8	0.000584
2.020000E-8	0.000116
2.025000E-8	-5.312500E-5
2.030000E-8	-5.000000E-5
2.035000E-8	0.000138
2.040000E-8	0.000416
2.045000E-8	0.000919
2.050000E-8	0.001434
2.055000E-8	0.001897
2.060000E-8	0.002394
2.065000E-8	0.002853
2.070000E-8	0.003181
2.075000E-8	0.003397
2.080000E-8	0.003272
2.085000E-8	0.003072
2.090000E-8	0.002719
2.095000E-8	0.002156
2.100000E-8	0.001534
2.105000E-8	0.001075
2.110000E-8	0.000388
2.115000E-8	3.125000E-6
2.120000E-8	-0.000466
2.125000E-8	-0.000522
2.130000E-8	-0.000491
2.135000E-8	-0.000213
2.140000E-8	0.000175
2.145000E-8	0.000772
2.150000E-8	0.001388
2.155000E-8	0.001988
2.160000E-8	0.002541
2.165000E-8	0.003100
2.170000E-8	0.003291
2.175000E-8	0.003497
2.180000E-8	0.003419
2.185000E-8	0.003141
2.190000E-8	0.002750
2.195000E-8	0.002197
2.200000E-8	0.001481
2.205000E-8	0.000934
2.210000E-8	0.000284
2.215000E-8	-2.812500E-5
2.220000E-8	-0.000272
2.225000E-8	-0.000331
2.230000E-8	-0.000300
2.235000E-8	0.000119
2.240000E-8	0.000672
2.245000E-8	0.001269
2.250000E-8	0.001959
2.255000E-8	0.002634
2.260000E-8	0.003109
2.265000E-8	0.003447
2.270000E-8	0.003466
2.275000E-8	0.003503
2.280000E-8	0.003275
2.285000E-8	0.002822
2.290000E-8	0.002316
2.295000E-8	0.001853
2.300000E-8	0.001059
2.305000E-8	0.000422
2.310000E-8	1.250000E-5
2.315000E-8	-0.000188
2.320000E-8	-0.000250
2.325000E-8	-0.000100
2.330000E-8	0.000122
2.335000E-8	0.000747
2.340000E-8	0.001266
2.345000E-8	0.001972
2.350000E-8	0.002619
2.355000E-8	0.003113
2.360000E-8	0.003419
2.365000E-8	0.003634
2.370000E-8	0.003600
2.375000E-8	0.003391
2.380000E-8	0.002997
2.385000E-8	0.002572
2.390000E-8	0.002003
2.395000E-8	0.001397
2.400000E-8	0.000788
2.405000E-8	0.000344
2.410000E-8	-3.437500E-5
2.415000E-8	-0.000175
2.420000E-8	-0.000138
2.425000E-8	0.000000
2.430000E-8	0.000369
2.435000E-8	0.000913
2.440000E-8	0.001309
2.445000E-8	0.001978
2.450000E-8	0.002419
2.455000E-8	0.002963
2.460000E-8	0.003334
2.465000E-8	0.003525
2.470000E-8	0.003428
2.475000E-8	0.003244
2.480000E-8	0.002828
2.485000E-8	0.002413
2.490000E-8	0.001775
2.495000E-8	0.001309
2.500000E-8	0.000784
2.505000E-8	0.000438
2.510000E-8	0.000122
2.515000E-8	6.875000E-5
2.520000E-8	0.000237
2.525000E-8	0.000625
2.530000E-8	0.001056
2.535000E-8	0.001631
2.540000E-8	0.002159
2.545000E-8	0.002744
2.550000E-8	0.003153
2.555000E-8	0.003459
2.560000E-8	0.003591
2.565000E-8	0.003578
2.570000E-8	0.003359
2.575000E-8	0.002966
2.580000E-8	0.002534
2.585000E-8	0.002019
2.590000E-8	0.001491
2.595000E-8	0.001075
2.600000E-8	0.000700
2.605000E-8	0.000541
2.610000E-8	0.000466
2.615000E-8	0.000584
2.620000E-8	0.000731
2.625000E-8	0.001247
2.630000E-8	0.001647
2.635000E-8	0.002100
2.640000E-8	0.002547
2.645000E-8	0.003044
2.650000E-8	0.003128
2.655000E-8	0.003291
2.660000E-8	0.003319
2.665000E-8	0.003203
2.670000E-8	0.002888
2.675000E-8	0.002403
2.680000E-8	0.001897
2.685000E-8	0.001547
2.690000E-8	0.001069
2.695000E-8	0.000769
2.700000E-8	0.000559
2.705000E-8	0.000453
2.710000E-8	0.000294
2.715000E-8	0.000488
2.720000E-8	0.000641
2.725000E-8	0.001000
2.730000E-8	0.001425
2.735000E-8	0.001922
2.740000E-8	0.002219
2.745000E-8	0.002584
2.750000E-8	0.002947
2.755000E-8	0.003125
2.760000E-8	0.003069
2.765000E-8	0.003069
2.770000E-8	0.002828
2.775000E-8	0.002628
2.780000E-8	0.002253
2.785000E-8	0.001859
2.790000E-8	0.001403
2.795000E-8	0.001078
2.800000E-8	0.000797
2.805000E-8	0.000713
2.810000E-8	0.000769
2.815000E-8	0.000966
2.820000E-8	0.001075
2.825000E-8	0.001491
2.830000E-8	0.001900
2.835000E-8	0.002434
2.840000E-8	0.002919
2.845000E-8	0.003291
2.850000E-8	0.003575
2.855000E-8	0.003672
2.860000E-8	0.003597
2.865000E-8	0.003444
2.870000E-8	0.002994
2.875000E-8	0.002600
2.880000E-8	0.002075
2.885000E-8	0.001472
2.890000E-8	0.000959
2.895000E-8	0.000612
2.900000E-8	0.000381
2.905000E-8	0.000178
2.910000E-8	0.000216
2.915000E-8	0.000553
2.920000E-8	0.000872
2.925000E-8	0.001416
2.930000E-8	0.001878
2.935000E-8	0.002488
2.940000E-8	0.003000
2.945000E-8	0.003106
2.950000E-8	0.003294
2.955000E-8	0.003431
2.960000E-8	0.003244
2.965000E-8	0.002941
2.970000E-8	0.002534
2.975000E-8	0.002119
2.980000E-8	0.001600
2.985000E-8	0.001222
2.990000E-8	0.000825
2.995000E-8	0.000497
3.000000E-8	0.000263
3.005000E-8	0.000375
3.010000E-8	0.000537
3.015000E-8	0.000791
3.020000E-8	0.001275
3.025000E-8	0.001691
3.030000E-8	0.002103
3.035000E-8	0.002634
3.040000E-8	0.003084
3.045000E-8	0.003344
3.050000E-8	0.003281
3.055000E-8	0.003306
3.060000E-8	0.003122
3.065000E-8	0.002922
3.070000E-8	0.002331
3.075000E-8	0.001944
3.080000E-8	0.001397
3.085000E-8	0.001025
3.090000E-8	0.000644
3.095000E-8	0.000444
3.100000E-8	0.000409
3.105000E-8	0.000419
3.110000E-8	0.000744
3.115000E-8	0.001122
3.120000E-8	0.001628
3.125000E-8	0.002069
3.130000E-8	0.002419
3.135000E-8	0.002800
3.140000E-8	0.002978
3.145000E-8	0.003147
3.150000E-8	0.003206
3.155000E-8	0.003097
3.160000E-8	0.002725
3.165000E-8	0.002466
3.170000E-8	0.002066
3.175000E-8	0.001612
3.180000E-8	0.001231
3.185000E-8	0.000916
3.190000E-8	0.000578
3.195000E-8	0.000600
3.200000E-8	0.000563
3.205000E-8	0.000753
3.210000E-8	0.001016
3.215000E-8	0.001269
3.220000E-8	0.001781
3.225000E-8	0.002119
3.230000E-8	0.002456
3.235000E-8	0.002744
3.240000E-8	0.002888
3.245000E-8	0.003050
3.250000E-8	0.003006
3.255000E-8	0.002906
3.260000E-8	0.002522
3.265000E-8	0.002219
3.270000E-8	0.001891
3.275000E-8	0.001466
3.280000E-8	0.001006
3.285000E-8	0.000731
3.290000E-8	0.000469
3.295000E-8	0.000409
3.300000E-8	0.000519
3.305000E-8	0.000719
3.310000E-8	0.001003
3.315000E-8	0.001503
3.320000E-8	0.001788
3.325000E-8	0.002162
3.330000E-8	0.002384
3.335000E-8	0.002619
3.340000E-8	0.002725
3.345000E-8	0.002709
3.350000E-8	0.002613
3.355000E-8	0.002344
3.360000E-8	0.001944
3.365000E-8	0.001741
3.370000E-8	0.001313
3.375000E-8	0.001012
3.380000E-8	0.000831
3.385000E-8	0.000828
3.390000E-8	0.000778
3.395000E-8	0.000884
3.400000E-8	0.001106
3.405000E-8	0.001381
3.410000E-8	0.001588
3.415000E-8	0.001916
3.420000E-8	0.002213
3.425000E-8	0.002547
3.430000E-8	0.002741
3.435000E-8	0.002994
3.440000E-8	0.003025
3.445000E-8	0.003009
3.450000E-8	0.002734
3.455000E-8	0.002553
3.460000E-8	0.002263
3.465000E-8	0.001988
3.470000E-8	0.001622
3.475000E-8	0.001303
3.480000E-8	0.001075
3.485000E-8	0.000853
3.490000E-8	0.000828
3.495000E-8	0.000853
3.500000E-8	0.001069
3.505000E-8	0.001306
3.510000E-8	0.001663
3.515000E-8	0.001956
3.520000E-8	0.002206
3.525000E-8	0.002525
3.530000E-8	0.002709
3.535000E-8	0.002766
3.540000E-8	0.002759
3.545000E-8	0.002625
3.550000E-8	0.002369
3.555000E-8	0.002072
3.560000E-8	0.001622
3.565000E-8	0.001322
3.570000E-8	0.000947
3.575000E-8	0.000700
3.580000E-8	0.000428
3.585000E-8	0.000475
3.590000E-8	0.000500
3.595000E-8	0.000713
3.600000E-8	0.000931
3.605000E-8	0.001263
3.610000E-8	0.001622
3.615000E-8	0.002069
3.620000E-8	0.002391
3.625000E-8	0.002659
3.630000E-8	0.002850
3.635000E-8	0.003003
3.640000E-8	0.002969
3.645000E-8	0.002878
3.650000E-8	0.002541
3.655000E-8	0.002241
3.660000E-8	0.001750
3.665000E-8	0.001394
3.670000E-8	0.000928
3.675000E-8	0.000734
3.680000E-8	0.000631
3.685000E-8	0.000609
3.690000E-8	0.000688
3.695000E-8	0.000903
3.700000E-8	0.001159
3.705000E-8	0.001575
3.710000E-8	0.001900
3.715000E-8	0.002431
3.720000E-8	0.002716
3.725000E-8	0.002928
3.730000E-8	0.003113
3.735000E-8	0.003169
3.740000E-8	0.003091
3.745000E-8	0.002850
3.750000E-8	0.002544
3.755000E-8	0.002044
3.760000E-8	0.001675
3.765000E-8	0.001375
3.770000E-8	0.000988
3.775000E-8	0.000788
3.780000E-8	0.000650
3.785000E-8	0.000772
3.790000E-8	0.000869
3.795000E-8	0.001266
3.800000E-8	0.001563
3.805000E-8	0.002072
3.810000E-8	0.002338
3.815000E-8	0.002797
3.820000E-8	0.003028
3.825000E-8	0.003263
3.830000E-8	0.003231
3.835000E-8	0.003097
3.840000E-8	0.002872
3.845000E-8	0.002606
3.850000E-8	0.002166
3.855000E-8	0.001834
3.860000E-8	0.001391
3.865000E-8	0.001138
3.870000E-8	0.000878
3.875000E-8	0.000859
3.880000E-8	0.000838
3.885000E-8	0.001081
3.890000E-8	0.001325
3.895000E-8	0.001738
3.900000E-8	0.002047
3.905000E-8	0.002403
3.910000E-8	0.002659
3.915000E-8	0.002869
3.920000E-8	0.002994
3.925000E-8	0.002963
3.930000E-8	0.002803
3.935000E-8	0.002587
3.940000E-8	0.002375
3.945000E-8	0.002078
3.950000E-8	0.001781
3.955000E-8	0.001556
3.960000E-8	0.001241
3.965000E-8	0.001034
3.970000E-8	0.000997
3.975000E-8	0.000953
3.980000E-8	0.001050
3.985000E-8	0.001297
3.990000E-8	0.001534
3.995000E-8	0.001753
4.000000E-8	0.002009
4.005000E-8	0.002197
4.010000E-8	0.002466
4.015000E-8	0.002684
4.020000E-8	0.002794
4.025000E-8	0.002816
4.030000E-8	0.002681
4.035000E-8	0.002547
4.040000E-8	0.002253
4.045000E-8	0.002019
4.050000E-8	0.001731
4.055000E-8	0.001400
4.060000E-8	0.001134
4.065000E-8	0.001012
4.070000E-8	0.000909
4.075000E-8	0.000978
4.080000E-8	0.001034
4.085000E-8	0.001219
4.090000E-8	0.001544
4.095000E-8	0.001888
4.100000E-8	0.002141
4.105000E-8	0.002531
4.110000E-8	0.002725
4.115000E-8	0.002931
4.120000E-8	0.002881
4.125000E-8	0.002822
4.130000E-8	0.002572
4.135000E-8	0.002381
4.140000E-8	0.002081
4.145000E-8	0.001803
4.150000E-8	0.001522
4.155000E-8	0.001306
4.160000E-8	0.001009
4.165000E-8	0.001022
4.170000E-8	0.000916
4.175000E-8	0.000947
4.180000E-8	0.000994
4.185000E-8	0.001234
4.190000E-8	0.001381
4.195000E-8	0.001747
4.200000E-8	0.001916
4.205000E-8	0.002300
4.210000E-8	0.002419
4.215000E-8	0.002534
4.220000E-8	0.002591
4.225000E-8	0.002572
4.230000E-8	0.002313
4.235000E-8	0.002131
4.240000E-8	0.001897
4.245000E-8	0.001563
4.250000E-8	0.001256
4.255000E-8	0.001150
4.260000E-8	0.000944
4.265000E-8	0.000913
4.270000E-8	0.000872
4.275000E-8	0.001012
4.280000E-8	0.001175
4.285000E-8	0.001469
4.290000E-8	0.001684
4.295000E-8	0.002016
4.300000E-8	0.002275
4.305000E-8	0.002591
4.310000E-8	0.002706
4.315000E-8	0.002759
4.320000E-8	0.002700
4.325000E-8	0.002631
4.330000E-8	0.002325
4.335000E-8	0.002159
4.340000E-8	0.001913
4.345000E-8	0.001763
4.350000E-8	0.001612
4.355000E-8	0.001422
4.360000E-8	0.001347
4.365000E-8	0.001506
4.370000E-8	0.001450
4.375000E-8	0.001594
4.380000E-8	0.001713
4.385000E-8	0.002019
4.390000E-8	0.002150
4.395000E-8	0.002419
4.400000E-8	0.002519
4.405000E-8	0.002713
4.410000E-8	0.002684
4.415000E-8	0.002719
4.420000E-8	0.002713
4.425000E-8	0.002625
4.430000E-8	0.002394
4.435000E-8	0.002172
4.440000E-8	0.001906
4.445000E-8	0.001722
4.450000E-8	0.001466
4.455000E-8	0.001322
4.460000E-8	0.001234
4.465000E-8	0.001334
4.470000E-8	0.001422
4.475000E-8	0.001550
4.480000E-8	0.001597
4.485000E-8	0.001978
4.490000E-8	0.002109
4.495000E-8	0.002266
4.500000E-8	0.002353
4.505000E-8	0.002372
4.510000E-8	0.002506
4.515000E-8	0.002528
4.520000E-8	0.002391
4.525000E-8	0.002191
4.530000E-8	0.001869
4.535000E-8	0.001666
4.540000E-8	0.001300
4.545000E-8	0.001134
4.550000E-8	0.000806
4.555000E-8	0.000697
4.560000E-8	0.000653
4.565000E-8	0.000663
4.570000E-8	0.000772
4.575000E-8	0.001153
4.580000E-8	0.001328
4.585000E-8	0.001650
4.590000E-8	0.001975
4.595000E-8	0.002263
4.600000E-8	0.002522
4.605000E-8	0.002541
4.610000E-8	0.002563
4.615000E-8	0.002541
4.620000E-8	0.002334
4.625000E-8	0.002113
4.630000E-8	0.001866
4.635000E-8	0.001634
4.640000E-8	0.001413
4.645000E-8	0.001322
4.650000E-8	0.001219
4.655000E-8	0.001244
4.660000E-8	0.001250
4.665000E-8	0.001334
4.670000E-8	0.001453
4.675000E-8	0.001713
4.680000E-8	0.001753
4.685000E-8	0.002022
4.690000E-8	0.002228
4.695000E-8	0.002391
4.700000E-8	0.002434
4.705000E-8	0.002444
4.710000E-8	0.002284
4.715000E-8	0.002269
4.720000E-8	0.002041
4.725000E-8	0.001859
4.730000E-8	0.001663
4.735000E-8	0.001503
4.740000E-8	0.001362
4.745000E-8	0.001244
4.750000E-8	0.001122
4.755000E-8	0.001053
4.760000E-8	0.001134
4.765000E-8	0.001316
4.770000E-8	0.001447
4.775000E-8	0.001678
4.780000E-8	0.001856
4.785000E-8	0.002203
4.790000E-8	0.002347
4.795000E-8	0.002553
4.800000E-8	0.002581
4.805000E-8	0.002597
4.810000E-8	0.002500
4.815000E-8	0.002406
4.820000E-8	0.002275
4.825000E-8	0.001937
4.830000E-8	0.001753
4.835000E-8	0.001488
4.840000E-8	0.001244
4.845000E-8	0.001172
4.850000E-8	0.001103
4.855000E-8	0.001156
4.860000E-8	0.001247
4.865000E-8	0.001503
4.870000E-8	0.001584
4.875000E-8	0.001800
4.880000E-8	0.002059
4.885000E-8	0.002284
4.890000E-8	0.002469
4.895000E-8	0.002563
4.900000E-8	0.002541
4.905000E-8	0.002569
4.910000E-8	0.002328
4.915000E-8	0.002297
4.920000E-8	0.002116
4.925000E-8	0.001894
4.930000E-8	0.001650
4.935000E-8	0.001556
4.940000E-8	0.001419
4.945000E-8	0.001362
4.950000E-8	0.001319
4.955000E-8	0.001447
4.960000E-8	0.001550
4.965000E-8	0.001813
4.970000E-8	0.001925
4.975000E-8	0.002125
4.980000E-8	0.002213
4.985000E-8	0.002475
4.990000E-8	0.002569
4.995000E-8	0.002619
5.000000E-8	0.002544
5.005000E-8	0.002538
5.010000E-8	0.002275
5.015000E-8	0.002109
5.020000E-8	0.001913
5.025000E-8	0.001666
5.030000E-8	0.001428
5.035000E-8	0.001403
5.040000E-8	0.001381
5.045000E-8	0.001366
5.050000E-8	0.001334
5.055000E-8	0.001494
5.060000E-8	0.001694
5.065000E-8	0.002047
5.070000E-8	0.002028
5.075000E-8	0.002138
5.080000E-8	0.002325
5.085000E-8	0.002466
5.090000E-8	0.002431
5.095000E-8	0.002416
5.100000E-8	0.002284
5.105000E-8	0.002159
5.110000E-8	0.002131
5.115000E-8	0.001934
5.120000E-8	0.001775
5.125000E-8	0.001603
5.130000E-8	0.001409
5.135000E-8	0.001244
5.140000E-8	0.001269
5.145000E-8	0.001256
5.150000E-8	0.001238
5.155000E-8	0.001366
5.160000E-8	0.001519
5.165000E-8	0.001691
5.170000E-8	0.001825
5.175000E-8	0.001906
5.180000E-8	0.002012
5.185000E-8	0.002059
5.190000E-8	0.002191
5.195000E-8	0.002228
5.200000E-8	0.002116
5.205000E-8	0.002050
5.210000E-8	0.001797
5.215000E-8	0.001588
5.220000E-8	0.001453
5.225000E-8	0.001362
5.230000E-8	0.001025
5.235000E-8	0.000928
5.240000E-8	0.001006
5.245000E-8	0.000994
5.250000E-8	0.001116
5.255000E-8	0.001316
5.260000E-8	0.001556
5.265000E-8	0.001847
5.270000E-8	0.002109
5.275000E-8	0.002388
5.280000E-8	0.002522
5.285000E-8	0.002662
5.290000E-8	0.002566
5.295000E-8	0.002531
5.300000E-8	0.002234
5.305000E-8	0.001991
5.310000E-8	0.001750
5.315000E-8	0.001612
5.320000E-8	0.001378
5.325000E-8	0.001281
5.330000E-8	0.001175
5.335000E-8	0.001281
5.340000E-8	0.001313
5.345000E-8	0.001450
5.350000E-8	0.001456
5.355000E-8	0.001653
5.360000E-8	0.001753
5.365000E-8	0.001941
5.370000E-8	0.001959
5.375000E-8	0.002147
5.380000E-8	0.002106
5.385000E-8	0.002259
5.390000E-8	0.002188
5.395000E-8	0.002175
5.400000E-8	0.002072
5.405000E-8	0.001975
5.410000E-8	0.001772
5.415000E-8	0.001619
5.420000E-8	0.001241
5.425000E-8	0.001131
5.430000E-8	0.001066
5.435000E-8	0.001066
5.440000E-8	0.001081
5.445000E-8	0.001150
5.450000E-8	0.001225
5.455000E-8	0.001484
5.460000E-8	0.001794
5.465000E-8	0.002072
5.470000E-8	0.002194
5.475000E-8	0.002222
5.480000E-8	0.002422
5.485000E-8	0.002478
5.490000E-8	0.002384
5.495000E-8	0.002428
5.500000E-8	0.002350
5.505000E-8	0.002153
5.510000E-8	0.001937
5.515000E-8	0.001788
5.520000E-8	0.001653
5.525000E-8	0.001506
5.530000E-8	0.001409
5.535000E-8	0.001491
5.540000E-8	0.001425
5.545000E-8	0.001591
5.550000E-8	0.001644
5.555000E-8	0.001891
5.560000E-8	0.002000
5.565000E-8	0.002219
5.570000E-8	0.002194
5.575000E-8	0.002266
5.580000E-8	0.002316
5.585000E-8	0.002306
5.590000E-8	0.002241
5.595000E-8	0.002138
5.600000E-8	0.002050
5.605000E-8	0.001944
5.610000E-8	0.001644
5.615000E-8	0.001516
5.620000E-8	0.001422
5.625000E-8	0.001400
5.630000E-8	0.001331
5.635000E-8	0.001369
5.640000E-8	0.001362
5.645000E-8	0.001453
5.650000E-8	0.001575
5.655000E-8	0.001747
5.660000E-8	0.001850
5.665000E-8	0.001897
5.670000E-8	0.002028
5.675000E-8	0.002175
5.680000E-8	0.002303
5.685000E-8	0.002306
5.690000E-8	0.002284
5.695000E-8	0.002166
5.700000E-8	0.002009
5.705000E-8	0.001831
5.710000E-8	0.001581
5.715000E-8	0.001538
5.720000E-8	0.001369
5.725000E-8	0.001319
5.730000E-8	0.001222
5.735000E-8	0.001341
5.740000E-8	0.001397
5.745000E-8	0.001653
5.750000E-8	0.001653
5.755000E-8	0.001828
5.760000E-8	0.001937
5.765000E-8	0.002166
5.770000E-8	0.002188
5.775000E-8	0.002278
5.780000E-8	0.002259
5.785000E-8	0.002322
5.790000E-8	0.002181
5.795000E-8	0.002022
5.800000E-8	0.001888
5.805000E-8	0.001894
5.810000E-8	0.001763
5.815000E-8	0.001719
5.820000E-8	0.001644
5.825000E-8	0.001756
5.830000E-8	0.001700
5.835000E-8	0.001800
5.840000E-8	0.002019
5.845000E-8	0.002219
5.850000E-8	0.002237
5.855000E-8	0.002291
5.860000E-8	0.002431
5.865000E-8	0.002512
5.870000E-8	0.002488
5.875000E-8	0.002459
5.880000E-8	0.002400
5.885000E-8	0.002306
5.890000E-8	0.002134
5.895000E-8	0.002022
5.900000E-8	0.001816
5.905000E-8	0.001581
5.910000E-8	0.001516
5.915000E-8	0.001453
5.920000E-8	0.001516
5.925000E-8	0.001594
5.930000E-8	0.001594
5.935000E-8	0.001716
5.940000E-8	0.001794
5.945000E-8	0.002094
5.950000E-8	0.002203
5.955000E-8	0.002272
5.960000E-8	0.002241
5.965000E-8	0.002316
5.970000E-8	0.002328
5.975000E-8	0.002197
5.980000E-8	0.002041
5.985000E-8	0.001944
5.990000E-8	0.001838
5.995000E-8	0.001709
6.000000E-8	0.001553
6.005000E-8	0.001362
6.010000E-8	0.001281
6.015000E-8	0.001375
6.020000E-8	0.001434
6.025000E-8	0.001553
6.030000E-8	0.001625
6.035000E-8	0.001872
6.040000E-8	0.001916
6.045000E-8	0.002216
6.050000E-8	0.002278
6.055000E-8	0.002437
6.060000E-8	0.002431
6.065000E-8	0.002528
6.070000E-8	0.002584
6.075000E-8	0.002500
6.080000E-8	0.002431
6.085000E-8	0.002409
6.090000E-8	0.002281
6.095000E-8	0.002106
6.100000E-8	0.002050
6.105000E-8	0.001953
6.110000E-8	0.001784
6.115000E-8	0.001816
6.120000E-8	0.001616
6.125000E-8	0.001659
6.130000E-8	0.001700
6.135000E-8	0.001781
6.140000E-8	0.001984
6.145000E-8	0.002047
6.150000E-8	0.002219
6.155000E-8	0.002222
6.160000E-8	0.002250
6.165000E-8	0.002356
6.170000E-8	0.002234
6.175000E-8	0.002144
6.180000E-8	0.002116
6.185000E-8	0.001937
6.190000E-8	0.001794
6.195000E-8	0.001691
6.200000E-8	0.001447
6.205000E-8	0.001300
6.210000E-8	0.001253
6.215000E-8	0.001213
6.220000E-8	0.001122
6.225000E-8	0.001303
6.230000E-8	0.001366
6.235000E-8	0.001559
6.240000E-8	0.001666
6.245000E-8	0.001900
6.250000E-8	0.002031
6.255000E-8	0.002237
6.260000E-8	0.002213
6.265000E-8	0.002331
6.270000E-8	0.002350
6.275000E-8	0.002300
6.280000E-8	0.002203
6.285000E-8	0.002134
6.290000E-8	0.002016
6.295000E-8	0.001772
6.300000E-8	0.001616
6.305000E-8	0.001663
6.310000E-8	0.001638
6.315000E-8	0.001719
6.320000E-8	0.001869
6.325000E-8	0.001947
6.330000E-8	0.002006
6.335000E-8	0.002081
6.340000E-8	0.002169
6.345000E-8	0.002331
6.350000E-8	0.002381
6.355000E-8	0.002453
6.360000E-8	0.002441
6.365000E-8	0.002284
6.370000E-8	0.002181
6.375000E-8	0.002019
6.380000E-8	0.001738
6.385000E-8	0.001550
6.390000E-8	0.001394
6.395000E-8	0.001297
6.400000E-8	0.001234
6.405000E-8	0.001216
6.410000E-8	0.001138
6.415000E-8	0.001381
6.420000E-8	0.001513
6.425000E-8	0.001644
6.430000E-8	0.001772
6.435000E-8	0.002022
6.440000E-8	0.002103
6.445000E-8	0.002228
6.450000E-8	0.002222
6.455000E-8	0.002206
6.460000E-8	0.002084
6.465000E-8	0.002038
6.470000E-8	0.001881
6.475000E-8	0.001891
6.480000E-8	0.001672
6.485000E-8	0.001653
6.490000E-8	0.001525
6.495000E-8	0.001544
6.500000E-8	0.001609
6.505000E-8	0.001669
6.510000E-8	0.001556
6.515000E-8	0.001634
6.520000E-8	0.001700
6.525000E-8	0.001756
6.530000E-8	0.001872
6.535000E-8	0.001909
6.540000E-8	0.001966
6.545000E-8	0.001966
6.550000E-8	0.001975
6.555000E-8	0.002091
6.560000E-8	0.002041
6.565000E-8	0.002113
6.570000E-8	0.002031
6.575000E-8	0.002097
6.580000E-8	0.002047
6.585000E-8	0.002009
6.590000E-8	0.001937
6.595000E-8	0.001803
6.600000E-8	0.001744
6.605000E-8	0.001778
6.610000E-8	0.001659
6.615000E-8	0.001706
6.620000E-8	0.001791
6.625000E-8	0.001953
6.630000E-8	0.002031
6.635000E-8	0.002106
6.640000E-8	0.002109
6.645000E-8	0.002156
6.650000E-8	0.002138
6.655000E-8	0.002309
6.660000E-8	0.002256
6.665000E-8	0.002266
6.670000E-8	0.002075
6.675000E-8	0.002012
6.680000E-8	0.001853
6.685000E-8	0.001834
6.690000E-8	0.001656
6.695000E-8	0.001606
6.700000E-8	0.001606
6.705000E-8	0.001687
6.710000E-8	0.001684
6.715000E-8	0.001687
6.720000E-8	0.001706
6.725000E-8	0.001806
6.730000E-8	0.001894
6.735000E-8	0.002066
6.740000E-8	0.002019
6.745000E-8	0.002091
6.750000E-8	0.002031
6.755000E-8	0.002063
6.760000E-8	0.001931
6.765000E-8	0.001947
6.770000E-8	0.001863
6.775000E-8	0.001766
6.780000E-8	0.001681
6.785000E-8	0.001753
6.790000E-8	0.001612
6.795000E-8	0.001716
6.800000E-8	0.001741
6.805000E-8	0.001628
6.810000E-8	0.001725
6.815000E-8	0.001884
6.820000E-8	0.001981
6.825000E-8	0.002047
6.830000E-8	0.002031
6.835000E-8	0.002125
6.840000E-8	0.002069
6.845000E-8	0.002116
6.850000E-8	0.002006
6.855000E-8	0.002056
6.860000E-8	0.002031
6.865000E-8	0.002009
6.870000E-8	0.001813
6.875000E-8	0.001844
6.880000E-8	0.001616
6.885000E-8	0.001569
6.890000E-8	0.001491
6.895000E-8	0.001597
6.900000E-8	0.001691
6.905000E-8	0.001863
6.910000E-8	0.001928
6.915000E-8	0.001978
6.920000E-8	0.001997
6.925000E-8	0.002128
6.930000E-8	0.002178
6.935000E-8	0.002219
6.940000E-8	0.002281
6.945000E-8	0.002134
6.950000E-8	0.002144
6.955000E-8	0.002034
6.960000E-8	0.001894
6.965000E-8	0.001822
6.970000E-8	0.001822
6.975000E-8	0.001781
6.980000E-8	0.001741
6.985000E-8	0.001744
6.990000E-8	0.001691
6.995000E-8	0.001775
7.000000E-8	0.001831
7.005000E-8	0.001884
7.010000E-8	0.001981
7.015000E-8	0.002131
7.020000E-8	0.002103
7.025000E-8	0.002091
7.030000E-8	0.002066
7.035000E-8	0.002119
7.040000E-8	0.002078
7.045000E-8	0.002141
7.050000E-8	0.001972
7.055000E-8	0.001984
7.060000E-8	0.001831
7.065000E-8	0.001825
7.070000E-8	0.001734
7.075000E-8	0.001906
7.080000E-8	0.001753
7.085000E-8	0.001803
7.090000E-8	0.001763
7.095000E-8	0.001825
7.100000E-8	0.001869
7.105000E-8	0.001847
7.110000E-8	0.001816
7.115000E-8	0.001963
7.120000E-8	0.001934
7.125000E-8	0.002031
7.130000E-8	0.002041
7.135000E-8	0.002063
7.140000E-8	0.002006
7.145000E-8	0.002047
7.150000E-8	0.002072
7.155000E-8	0.002041
7.160000E-8	0.002019
7.165000E-8	0.002038
7.170000E-8	0.001906
7.175000E-8	0.001991
7.180000E-8	0.001825
7.185000E-8	0.001931
7.190000E-8	0.001944
7.195000E-8	0.001856
7.200000E-8	0.001766
7.205000E-8	0.001866
7.210000E-8	0.001906
7.215000E-8	0.002016
7.220000E-8	0.002109
7.225000E-8	0.002119
7.230000E-8	0.002281
7.235000E-8	0.002334
7.240000E-8	0.002306
7.245000E-8	0.002366
7.250000E-8	0.002213
7.255000E-8	0.002156
7.260000E-8	0.002156
7.265000E-8	0.002028
7.270000E-8	0.001941
7.275000E-8	0.001978
7.280000E-8	0.001881
7.285000E-8	0.001906
7.290000E-8	0.001863
7.295000E-8	0.001881
7.300000E-8	0.001891
7.305000E-8	0.001988
7.310000E-8	0.002078
7.315000E-8	0.002087
7.320000E-8	0.002128
7.325000E-8	0.002175
7.330000E-8	0.002147
7.335000E-8	0.002103
7.340000E-8	0.002097
7.345000E-8	0.002053
7.350000E-8	0.002003
7.355000E-8	0.001906
7.360000E-8	0.001803
7.365000E-8	0.001959
7.370000E-8	0.001800
7.375000E-8	0.001813
7.380000E-8	0.001937
7.385000E-8	0.002006
7.390000E-8	0.001975
7.395000E-8	0.001988
7.400000E-8	0.002025
7.405000E-8	0.002119
7.410000E-8	0.002153
7.415000E-8	0.002306
7.420000E-8	0.002253
7.425000E-8	0.002338
7.430000E-8	0.002375
7.435000E-8	0.002366
7.440000E-8	0.002328
7.445000E-8	0.002234
7.450000E-8	0.002063
7.455000E-8	0.002063
7.460000E-8	0.001975
7.465000E-8	0.001969
7.470000E-8	0.001934
7.475000E-8	0.002022
7.480000E-8	0.002025
7.485000E-8	0.002141
7.490000E-8	0.002153
7.495000E-8	0.002272
7.500000E-8	0.002384
7.505000E-8	0.002306
7.510000E-8	0.002316
7.515000E-8	0.002406
7.520000E-8	0.002244
7.525000E-8	0.002269
7.530000E-8	0.002172
7.535000E-8	0.002200
7.540000E-8	0.002072
7.545000E-8	0.002038
7.550000E-8	0.001853
7.555000E-8	0.001791
7.560000E-8	0.001738
7.565000E-8	0.001656
7.570000E-8	0.001497
7.575000E-8	0.001550
7.580000E-8	0.001634
7.585000E-8	0.001738
7.590000E-8	0.001791
7.595000E-8	0.001972
7.600000E-8	0.002097
7.605000E-8	0.002203
7.610000E-8	0.002178
7.615000E-8	0.002325
7.620000E-8	0.002319
7.625000E-8	0.002309
7.630000E-8	0.002213
7.635000E-8	0.002125
7.640000E-8	0.002050
7.645000E-8	0.002019
7.650000E-8	0.001847
7.655000E-8	0.001859
7.660000E-8	0.001788
7.665000E-8	0.001728
7.670000E-8	0.001719
7.675000E-8	0.001731
7.680000E-8	0.001687
7.685000E-8	0.001769
7.690000E-8	0.001803
7.695000E-8	0.001841
7.700000E-8	0.001831
7.705000E-8	0.002006
7.710000E-8	0.002041
7.715000E-8	0.002169
7.720000E-8	0.002122
7.725000E-8	0.002131
7.730000E-8	0.002072
7.735000E-8	0.002084
7.740000E-8	0.002047
7.745000E-8	0.002038
7.750000E-8	0.001956
7.755000E-8	0.001819
7.760000E-8	0.001719
7.765000E-8	0.001834
7.770000E-8	0.001825
7.775000E-8	0.001891
7.780000E-8	0.001906
7.785000E-8	0.002069
7.790000E-8	0.002103
7.795000E-8	0.002203
7.800000E-8	0.002225
7.805000E-8	0.002313
7.810000E-8	0.002319
7.815000E-8	0.002175
7.820000E-8	0.002131
7.825000E-8	0.002025
7.830000E-8	0.001972
7.835000E-8	0.001875
7.840000E-8	0.001697
7.845000E-8	0.001600
7.850000E-8	0.001647
7.855000E-8	0.001528
7.860000E-8	0.001503
7.865000E-8	0.001472
7.870000E-8	0.001503
7.875000E-8	0.001631
7.880000E-8	0.001672
7.885000E-8	0.001819
7.890000E-8	0.001875
7.895000E-8	0.002019
7.900000E-8	0.002012
7.905000E-8	0.001978
7.910000E-8	0.001894
7.915000E-8	0.001997
7.920000E-8	0.002006
7.925000E-8	0.001934
7.930000E-8	0.001803
7.935000E-8	0.001800
7.940000E-8	0.001709
7.945000E-8	0.001622
7.950000E-8	0.001713
7.955000E-8	0.001681
7.960000E-8	0.001609
7.965000E-8	0.001575
7.970000E-8	0.001606
7.975000E-8	0.001681
7.980000E-8	0.001566
7.985000E-8	0.001722
7.990000E-8	0.001709
7.995000E-8	0.001872
8.000000E-8	0.001863
8.005000E-8	0.001878
8.010000E-8	0.001950
8.015000E-8	0.001975
8.020000E-8	0.001900
8.025000E-8	0.001819
8.030000E-8	0.001784
8.035000E-8	0.001759
8.040000E-8	0.001609
8.045000E-8	0.001606
8.050000E-8	0.001569
8.055000E-8	0.001519
8.060000E-8	0.001475
8.065000E-8	0.001516
8.070000E-8	0.001544
8.075000E-8	0.001612
8.080000E-8	0.001772
8.085000E-8	0.001875
8.090000E-8	0.001953
8.095000E-8	0.002156
8.100000E-8	0.002134
8.105000E-8	0.002181
8.110000E-8	0.002141
8.115000E-8	0.002231
8.120000E-8	0.002194
8.125000E-8	0.002131
8.130000E-8	0.002081
8.135000E-8	0.002106
8.140000E-8	0.002103
8.145000E-8	0.002059
8.150000E-8	0.001988
8.155000E-8	0.001981
8.160000E-8	0.001925
8.165000E-8	0.001903
8.170000E-8	0.001803
8.175000E-8	0.001872
8.180000E-8	0.001825
8.185000E-8	0.001841
8.190000E-8	0.001869
8.195000E-8	0.001953
8.200000E-8	0.002087
8.205000E-8	0.002159
8.210000E-8	0.002122
8.215000E-8	0.002131
8.220000E-8	0.001966
8.225000E-8	0.001909
8.230000E-8	0.001856
8.235000E-8	0.001809
8.240000E-8	0.001644
8.245000E-8	0.001494
8.250000E-8	0.001481
8.255000E-8	0.001344
8.260000E-8	0.001316
8.265000E-8	0.001394
8.270000E-8	0.001525
8.275000E-8	0.001478
8.280000E-8	0.001687
8.285000E-8	0.001788
8.290000E-8	0.001878
8.295000E-8	0.001937
8.300000E-8	0.001919
8.305000E-8	0.002044
8.310000E-8	0.002078
8.315000E-8	0.002081
8.320000E-8	0.002147
8.325000E-8	0.002203
8.330000E-8	0.002072
8.335000E-8	0.002066
8.340000E-8	0.002053
8.345000E-8	0.001972
8.350000E-8	0.001809
8.355000E-8	0.001759
8.360000E-8	0.001759
8.365000E-8	0.001834
8.370000E-8	0.001766
8.375000E-8	0.001931
8.380000E-8	0.001966
8.385000E-8	0.002078
8.390000E-8	0.001969
8.395000E-8	0.002066
8.400000E-8	0.002069
8.405000E-8	0.002056
8.410000E-8	0.001881
8.415000E-8	0.001944
8.420000E-8	0.001809
8.425000E-8	0.001847
8.430000E-8	0.001753
8.435000E-8	0.001828
8.440000E-8	0.001766
8.445000E-8	0.001859
8.450000E-8	0.001834
8.455000E-8	0.001856
8.460000E-8	0.001838
8.465000E-8	0.001822
8.470000E-8	0.001859
8.475000E-8	0.001928
8.480000E-8	0.001928
8.485000E-8	0.001981
8.490000E-8	0.001934
8.495000E-8	0.001916
8.500000E-8	0.001972
8.505000E-8	0.001972
8.510000E-8	0.001894
8.515000E-8	0.001859
8.520000E-8	0.001859
8.525000E-8	0.001834
8.530000E-8	0.001756
8.535000E-8	0.001700
8.540000E-8	0.001625
8.545000E-8	0.001575
8.550000E-8	0.001469
8.555000E-8	0.001469
8.560000E-8	0.001697
8.565000E-8	0.001725
8.570000E-8	0.001656
8.575000E-8	0.001772
8.580000E-8	0.001844
8.585000E-8	0.001931
8.590000E-8	0.001831
8.595000E-8	0.001888
8.600000E-8	0.001797
8.605000E-8	0.001966
8.610000E-8	0.001969
8.615000E-8	0.001941
8.620000E-8	0.001934
8.625000E-8	0.001838
8.630000E-8	0.001872
8.635000E-8	0.001838
8.640000E-8	0.001828
8.645000E-8	0.001863
8.650000E-8	0.001894
8.655000E-8	0.002009
8.660000E-8	0.001956
8.665000E-8	0.002044
8.670000E-8	0.002066
8.675000E-8	0.002056
8.680000E-8	0.001972
8.685000E-8	0.002100
8.690000E-8	0.001937
8.695000E-8	0.001963
8.700000E-8	0.001881
8.705000E-8	0.001884
8.710000E-8	0.001959
8.715000E-8	0.002041
8.720000E-8	0.002044
8.725000E-8	0.002063
8.730000E-8	0.001963
8.735000E-8	0.002019
8.740000E-8	0.001966
8.745000E-8	0.001934
8.750000E-8	0.002028
8.755000E-8	0.001950
8.760000E-8	0.001978
8.765000E-8	0.001853
8.770000E-8	0.002019
8.775000E-8	0.002097
8.780000E-8	0.002066
8.785000E-8	0.002097
8.790000E-8	0.002059
8.795000E-8	0.002138
8.800000E-8	0.002059
8.805000E-8	0.002022
8.810000E-8	0.002012
8.815000E-8	0.001978
8.820000E-8	0.001828
8.825000E-8	0.001694
8.830000E-8	0.001672
8.835000E-8	0.001584
8.840000E-8	0.001547
8.845000E-8	0.001484
8.850000E-8	0.001413
8.855000E-8	0.001672
8.860000E-8	0.001675
8.865000E-8	0.001759
8.870000E-8	0.001875
8.875000E-8	0.002025
8.880000E-8	0.002194
8.885000E-8	0.002253
8.890000E-8	0.002150
8.895000E-8	0.002153
8.900000E-8	0.002087
8.905000E-8	0.002028
8.910000E-8	0.001881
8.915000E-8	0.001766
8.920000E-8	0.001647
8.925000E-8	0.001566
8.930000E-8	0.001547
8.935000E-8	0.001591
8.940000E-8	0.001606
8.945000E-8	0.001684
8.950000E-8	0.001609
8.955000E-8	0.001744
8.960000E-8	0.001856
8.965000E-8	0.001844
8.970000E-8	0.001884
8.975000E-8	0.001838
8.980000E-8	0.001897
8.985000E-8	0.001897
8.990000E-8	0.002053
8.995000E-8	0.002081
9.000000E-8	0.002097
9.005000E-8	0.002100
9.010000E-8	0.002006
9.015000E-8	0.001875
9.020000E-8	0.001778
9.025000E-8	0.001850
9.030000E-8	0.001806
9.035000E-8	0.001656
9.040000E-8	0.001741
9.045000E-8	0.001756
9.050000E-8	0.001669
9.055000E-8	0.001834
9.060000E-8	0.001803
9.065000E-8	0.001844
9.070000E-8	0.001956
9.075000E-8	0.002025
9.080000E-8	0.002009
9.085000E-8	0.002134
9.090000E-8	0.002063
9.095000E-8	0.002109
9.100000E-8	0.002091
9.105000E-8	0.002166
9.110000E-8	0.002066
9.115000E-8	0.002084
9.120000E-8	0.001988
9.125000E-8	0.001925
9.130000E-8	0.001937
9.135000E-8	0.002016
9.140000E-8	0.001956
9.145000E-8	0.002044
9.150000E-8	0.002063
9.155000E-8	0.002144
9.160000E-8	0.002188
9.165000E-8	0.002237
9.170000E-8	0.002113
9.175000E-8	0.002091
9.180000E-8	0.001931
9.185000E-8	0.001963
9.190000E-8	0.001803
9.195000E-8	0.001788
9.200000E-8	0.001653
9.205000E-8	0.001700
9.210000E-8	0.001703
9.215000E-8	0.001653
9.220000E-8	0.001566
9.225000E-8	0.001616
9.230000E-8	0.001669
9.235000E-8	0.001634
9.240000E-8	0.001569
9.245000E-8	0.001659
9.250000E-8	0.001581
9.255000E-8	0.001616
9.260000E-8	0.001638
9.265000E-8	0.001669
9.270000E-8	0.001744
9.275000E-8	0.001878
9.280000E-8	0.001991
9.285000E-8	0.002041
9.290000E-8	0.001966
9.295000E-8	0.002141
9.300000E-8	0.002066
9.305000E-8	0.002094
9.310000E-8	0.002016
9.315000E-8	0.002038
9.320000E-8	0.001997
9.325000E-8	0.001863
9.330000E-8	0.001772
9.335000E-8	0.001800
9.340000E-8	0.001713
9.345000E-8	0.001741
9.350000E-8	0.001697
9.355000E-8	0.001706
9.360000E-8	0.001881
9.365000E-8	0.001903
9.370000E-8	0.001856
9.375000E-8	0.001984
9.380000E-8	0.001984
9.385000E-8	0.001937
9.390000E-8	0.001959
9.395000E-8	0.001847
9.400000E-8	0.001878
9.405000E-8	0.001894
9.410000E-8	0.001809
9.415000E-8	0.001731
9.420000E-8	0.001550
9.425000E-8	0.001547
9.430000E-8	0.001669
9.435000E-8	0.001722
9.440000E-8	0.001719
9.445000E-8	0.001884
9.450000E-8	0.001788
9.455000E-8	0.001916
9.460000E-8	0.001959
9.465000E-8	0.001959
9.470000E-8	0.001991
9.475000E-8	0.001847
9.480000E-8	0.001822
9.485000E-8	0.001819
9.490000E-8	0.001606
9.495000E-8	0.001569
9.500000E-8	0.001559
9.505000E-8	0.001553
9.510000E-8	0.001656
9.515000E-8	0.001766
9.520000E-8	0.001844
9.525000E-8	0.001869
9.530000E-8	0.001875
9.535000E-8	0.001991
9.540000E-8	0.001966
9.545000E-8	0.001931
9.550000E-8	0.001816
9.555000E-8	0.001847
9.560000E-8	0.001825
9.565000E-8	0.001863
9.570000E-8	0.001813
9.575000E-8	0.001700
9.580000E-8	0.001647
9.585000E-8	0.001725
9.590000E-8	0.001738
9.595000E-8	0.001828
9.600000E-8	0.001800
9.605000E-8	0.001919
9.610000E-8	0.001856
9.615000E-8	0.001903
9.620000E-8	0.001788
9.625000E-8	0.001703
9.630000E-8	0.001719
9.635000E-8	0.001769
9.640000E-8	0.001747
9.645000E-8	0.001825
9.650000E-8	0.001775
9.655000E-8	0.001869
9.660000E-8	0.001863
9.665000E-8	0.001825
9.670000E-8	0.001844
9.675000E-8	0.001794
9.680000E-8	0.001706
9.685000E-8	0.001619
9.690000E-8	0.001522
9.695000E-8	0.001559
9.700000E-8	0.001437
9.705000E-8	0.001313
9.710000E-8	0.001266
9.715000E-8	0.001244
9.720000E-8	0.001128
9.725000E-8	0.001216
9.730000E-8	0.001266
9.735000E-8	0.001325
9.740000E-8	0.001413
9.745000E-8	0.001538
9.750000E-8	0.001631
9.755000E-8	0.001766
9.760000E-8	0.001738
9.765000E-8	0.001850
9.770000E-8	0.001866
9.775000E-8	0.001894
9.780000E-8	0.001959
9.785000E-8	0.001934
9.790000E-8	0.001850
9.795000E-8	0.001794
9.800000E-8	0.001828
9.805000E-8	0.001884
9.810000E-8	0.001734
9.815000E-8	0.001809
9.820000E-8	0.001878
9.825000E-8	0.001981
9.830000E-8	0.001897
9.835000E-8	0.001913
9.840000E-8	0.001872
9.845000E-8	0.001878
9.850000E-8	0.001856
9.855000E-8	0.001966
9.860000E-8	0.001816
9.865000E-8	0.001772
9.870000E-8	0.001719
9.875000E-8	0.001663
9.880000E-8	0.001678
9.885000E-8	0.001691
9.890000E-8	0.001700
9.895000E-8	0.001794
9.900000E-8	0.001800
9.905000E-8	0.001875
9.910000E-8	0.001878
9.915000E-8	0.001959
9.920000E-8	0.001853
9.925000E-8	0.001934
9.930000E-8	0.001897
9.935000E-8	0.001944
9.940000E-8	0.001925
9.945000E-8	0.002041
9.950000E-8	0.001944
9.955000E-8	0.001906
9.960000E-8	0.001856
9.965000E-8	0.001903
9.970000E-8	0.001828
9.975000E-8	0.001822
9.980000E-8	0.001875
9.985000E-8	0.001941
9.990000E-8	0.001863
9.995000E-8	0.001856
