LabVIEW Measurement	
Writer_Version	2
Reader_Version	2
Separator	Tab
Decimal_Separator	.
Multi_Headings	No
X_Columns	Multi
Time_Pref	Relative
Operator	TG lab
Date	2015/03/06
Time	16:37:41.0852708816528320313
***End_of_Header***	
	
Channels	1	
Samples	2000	
Date	2015/03/06	
Time	16:37:41.0852708816528320313	
X_Dimension	Time	
X0	0.0000000000000000E+0	
Delta_X	5.000000E-11	
***End_of_Header***		
X_Value	Untitled	Comment
0.000000	0.002631
5.000000E-11	0.002681
1.000000E-10	0.002784
1.500000E-10	0.002769
2.000000E-10	0.002634
2.500000E-10	0.002662
3.000000E-10	0.002728
3.500000E-10	0.002703
4.000000E-10	0.002722
4.500000E-10	0.002766
5.000000E-10	0.002834
5.500000E-10	0.002816
6.000000E-10	0.002725
6.500000E-10	0.002591
7.000000E-10	0.002444
7.500000E-10	0.002316
8.000000E-10	0.002128
8.500000E-10	0.002109
9.000000E-10	0.002075
9.500000E-10	0.002213
1.000000E-9	0.002237
1.050000E-9	0.002256
1.100000E-9	0.002366
1.150000E-9	0.002559
1.200000E-9	0.002444
1.250000E-9	0.002528
1.300000E-9	0.002463
1.350000E-9	0.002525
1.400000E-9	0.002409
1.450000E-9	0.002531
1.500000E-9	0.002450
1.550000E-9	0.002447
1.600000E-9	0.002453
1.650000E-9	0.002478
1.700000E-9	0.002491
1.750000E-9	0.002472
1.800000E-9	0.002447
1.850000E-9	0.002400
1.900000E-9	0.002441
1.950000E-9	0.002578
2.000000E-9	0.002456
2.050000E-9	0.002622
2.100000E-9	0.002591
2.150000E-9	0.002559
2.200000E-9	0.002622
2.250000E-9	0.002625
2.300000E-9	0.002631
2.350000E-9	0.002625
2.400000E-9	0.002575
2.450000E-9	0.002541
2.500000E-9	0.002484
2.550000E-9	0.002453
2.600000E-9	0.002409
2.650000E-9	0.002500
2.700000E-9	0.002366
2.750000E-9	0.002447
2.800000E-9	0.002375
2.850000E-9	0.002431
2.900000E-9	0.002509
2.950000E-9	0.002538
3.000000E-9	0.002434
3.050000E-9	0.002416
3.100000E-9	0.002409
3.150000E-9	0.002453
3.200000E-9	0.002437
3.250000E-9	0.002344
3.300000E-9	0.002372
3.350000E-9	0.002353
3.400000E-9	0.002378
3.450000E-9	0.002344
3.500000E-9	0.002381
3.550000E-9	0.002409
3.600000E-9	0.002400
3.650000E-9	0.002434
3.700000E-9	0.002459
3.750000E-9	0.002519
3.800000E-9	0.002534
3.850000E-9	0.002450
3.900000E-9	0.002456
3.950000E-9	0.002531
4.000000E-9	0.002428
4.050000E-9	0.002372
4.100000E-9	0.002272
4.150000E-9	0.002272
4.200000E-9	0.002053
4.250000E-9	0.002031
4.300000E-9	0.001978
4.350000E-9	0.001928
4.400000E-9	0.001950
4.450000E-9	0.002128
4.500000E-9	0.002228
4.550000E-9	0.002256
4.600000E-9	0.002338
4.650000E-9	0.002478
4.700000E-9	0.002437
4.750000E-9	0.002409
4.800000E-9	0.002291
4.850000E-9	0.002244
4.900000E-9	0.002219
4.950000E-9	0.002153
5.000000E-9	0.002078
5.050000E-9	0.002066
5.100000E-9	0.002022
5.150000E-9	0.002053
5.200000E-9	0.002047
5.250000E-9	0.002188
5.300000E-9	0.002147
5.350000E-9	0.002116
5.400000E-9	0.002150
5.450000E-9	0.002153
5.500000E-9	0.002097
5.550000E-9	0.002059
5.600000E-9	0.002078
5.650000E-9	0.001975
5.700000E-9	0.001956
5.750000E-9	0.001891
5.800000E-9	0.001791
5.850000E-9	0.001894
5.900000E-9	0.001800
5.950000E-9	0.001859
6.000000E-9	0.001903
6.050000E-9	0.002059
6.100000E-9	0.001963
6.150000E-9	0.001972
6.200000E-9	0.001906
6.250000E-9	0.001978
6.300000E-9	0.001878
6.350000E-9	0.001959
6.400000E-9	0.002000
6.450000E-9	0.001909
6.500000E-9	0.001894
6.550000E-9	0.001825
6.600000E-9	0.001750
6.650000E-9	0.001750
6.700000E-9	0.001822
6.750000E-9	0.001828
6.800000E-9	0.001925
6.850000E-9	0.002009
6.900000E-9	0.002169
6.950000E-9	0.002316
7.000000E-9	0.002572
7.050000E-9	0.002613
7.100000E-9	0.002753
7.150000E-9	0.002722
7.200000E-9	0.002856
7.250000E-9	0.002919
7.300000E-9	0.003159
7.350000E-9	0.003450
7.400000E-9	0.003581
7.450000E-9	0.003891
7.500000E-9	0.004228
7.550000E-9	0.004494
7.600000E-9	0.004759
7.650000E-9	0.004781
7.700000E-9	0.004741
7.750000E-9	0.004387
7.800000E-9	0.003494
7.850000E-9	0.002250
7.900000E-9	0.000500
7.950000E-9	-0.001628
8.000000E-9	-0.004397
8.050000E-9	-0.007184
8.100000E-9	-0.010372
8.150000E-9	-0.013719
8.200000E-9	-0.017031
8.250000E-9	-0.020216
8.300000E-9	-0.022959
8.350000E-9	-0.025381
8.400000E-9	-0.027269
8.450000E-9	-0.028488
8.500000E-9	-0.029175
8.550000E-9	-0.029003
8.600000E-9	-0.028378
8.650000E-9	-0.027106
8.700000E-9	-0.025384
8.750000E-9	-0.023466
8.800000E-9	-0.021397
8.850000E-9	-0.019319
8.900000E-9	-0.017522
8.950000E-9	-0.016025
9.000000E-9	-0.015144
9.050000E-9	-0.014459
9.100000E-9	-0.014381
9.150000E-9	-0.014588
9.200000E-9	-0.015216
9.250000E-9	-0.015878
9.300000E-9	-0.016719
9.350000E-9	-0.017450
9.400000E-9	-0.017828
9.450000E-9	-0.018063
9.500000E-9	-0.017750
9.550000E-9	-0.017237
9.600000E-9	-0.016438
9.650000E-9	-0.015191
9.700000E-9	-0.013816
9.750000E-9	-0.012241
9.800000E-9	-0.010694
9.850000E-9	-0.009303
9.900000E-9	-0.008094
9.950000E-9	-0.007188
1.000000E-8	-0.006681
1.005000E-8	-0.006447
1.010000E-8	-0.006581
1.015000E-8	-0.007094
1.020000E-8	-0.007772
1.025000E-8	-0.008513
1.030000E-8	-0.009256
1.035000E-8	-0.009891
1.040000E-8	-0.010375
1.045000E-8	-0.010522
1.050000E-8	-0.010412
1.055000E-8	-0.009984
1.060000E-8	-0.009272
1.065000E-8	-0.008281
1.070000E-8	-0.007059
1.075000E-8	-0.005841
1.080000E-8	-0.004775
1.085000E-8	-0.003591
1.090000E-8	-0.002744
1.095000E-8	-0.002056
1.100000E-8	-0.001909
1.105000E-8	-0.001947
1.110000E-8	-0.002322
1.115000E-8	-0.002722
1.120000E-8	-0.003559
1.125000E-8	-0.004381
1.130000E-8	-0.005025
1.135000E-8	-0.005706
1.140000E-8	-0.006216
1.145000E-8	-0.006359
1.150000E-8	-0.006256
1.155000E-8	-0.005972
1.160000E-8	-0.005359
1.165000E-8	-0.004497
1.170000E-8	-0.003584
1.175000E-8	-0.002597
1.180000E-8	-0.001750
1.185000E-8	-0.000778
1.190000E-8	-0.000237
1.195000E-8	9.062500E-5
1.200000E-8	0.000153
1.205000E-8	-4.375000E-5
1.210000E-8	-0.000519
1.215000E-8	-0.001047
1.220000E-8	-0.001822
1.225000E-8	-0.002434
1.230000E-8	-0.003203
1.235000E-8	-0.003713
1.240000E-8	-0.004294
1.245000E-8	-0.004375
1.250000E-8	-0.004397
1.255000E-8	-0.003997
1.260000E-8	-0.003353
1.265000E-8	-0.002625
1.270000E-8	-0.001672
1.275000E-8	-0.000872
1.280000E-8	3.437500E-5
1.285000E-8	0.000913
1.290000E-8	0.001334
1.295000E-8	0.001781
1.300000E-8	0.001809
1.305000E-8	0.001669
1.310000E-8	0.001353
1.315000E-8	0.000700
1.320000E-8	-2.187500E-5
1.325000E-8	-0.000884
1.330000E-8	-0.001553
1.335000E-8	-0.002122
1.340000E-8	-0.002619
1.345000E-8	-0.002578
1.350000E-8	-0.002481
1.355000E-8	-0.002162
1.360000E-8	-0.001534
1.365000E-8	-0.000766
1.370000E-8	0.000119
1.375000E-8	0.001028
1.380000E-8	0.001988
1.385000E-8	0.002684
1.390000E-8	0.003116
1.395000E-8	0.003444
1.400000E-8	0.003413
1.405000E-8	0.003191
1.410000E-8	0.002425
1.415000E-8	0.001678
1.420000E-8	0.000853
1.425000E-8	-1.562500E-5
1.430000E-8	-0.000834
1.435000E-8	-0.001456
1.440000E-8	-0.001894
1.445000E-8	-0.001875
1.450000E-8	-0.001838
1.455000E-8	-0.001272
1.460000E-8	-0.000628
1.465000E-8	0.000194
1.470000E-8	0.001081
1.475000E-8	0.001900
1.480000E-8	0.002725
1.485000E-8	0.003309
1.490000E-8	0.003675
1.495000E-8	0.003634
1.500000E-8	0.003559
1.505000E-8	0.003144
1.510000E-8	0.002309
1.515000E-8	0.001538
1.520000E-8	0.000431
1.525000E-8	-0.000338
1.530000E-8	-0.001025
1.535000E-8	-0.001531
1.540000E-8	-0.001850
1.545000E-8	-0.001612
1.550000E-8	-0.001147
1.555000E-8	-0.000466
1.560000E-8	0.000256
1.565000E-8	0.001325
1.570000E-8	0.002291
1.575000E-8	0.003128
1.580000E-8	0.003725
1.585000E-8	0.004241
1.590000E-8	0.004247
1.595000E-8	0.003997
1.600000E-8	0.003522
1.605000E-8	0.002841
1.610000E-8	0.001966
1.615000E-8	0.001134
1.620000E-8	9.687500E-5
1.625000E-8	-0.000569
1.630000E-8	-0.000950
1.635000E-8	-0.001194
1.640000E-8	-0.001222
1.645000E-8	-0.000844
1.650000E-8	-0.000272
1.655000E-8	0.000513
1.660000E-8	0.001328
1.665000E-8	0.002313
1.670000E-8	0.003241
1.675000E-8	0.003969
1.680000E-8	0.004441
1.685000E-8	0.004678
1.690000E-8	0.004697
1.695000E-8	0.004297
1.700000E-8	0.003797
1.705000E-8	0.003066
1.710000E-8	0.002109
1.715000E-8	0.001372
1.720000E-8	0.000625
1.725000E-8	-3.125000E-6
1.730000E-8	-0.000313
1.735000E-8	-0.000588
1.740000E-8	-0.000416
1.745000E-8	-1.562500E-5
1.750000E-8	0.000597
1.755000E-8	0.001384
1.760000E-8	0.002213
1.765000E-8	0.003012
1.770000E-8	0.003725
1.775000E-8	0.004316
1.780000E-8	0.004647
1.785000E-8	0.004706
1.790000E-8	0.004413
1.795000E-8	0.003897
1.800000E-8	0.003219
1.805000E-8	0.002500
1.810000E-8	0.001741
1.815000E-8	0.001041
1.820000E-8	0.000416
1.825000E-8	-2.500000E-5
1.830000E-8	-0.000319
1.835000E-8	-0.000341
1.840000E-8	-0.000206
1.845000E-8	0.000206
1.850000E-8	0.000763
1.855000E-8	0.001419
1.860000E-8	0.002138
1.865000E-8	0.002778
1.870000E-8	0.003403
1.875000E-8	0.003791
1.880000E-8	0.004116
1.885000E-8	0.004072
1.890000E-8	0.004006
1.895000E-8	0.003512
1.900000E-8	0.003022
1.905000E-8	0.002309
1.910000E-8	0.001716
1.915000E-8	0.000994
1.920000E-8	0.000391
1.925000E-8	0.000119
1.930000E-8	-0.000100
1.935000E-8	-3.125000E-6
1.940000E-8	0.000359
1.945000E-8	0.000875
1.950000E-8	0.001497
1.955000E-8	0.002228
1.960000E-8	0.002978
1.965000E-8	0.003622
1.970000E-8	0.004141
1.975000E-8	0.004513
1.980000E-8	0.004622
1.985000E-8	0.004466
1.990000E-8	0.004050
1.995000E-8	0.003616
2.000000E-8	0.002850
2.005000E-8	0.002097
2.010000E-8	0.001488
2.015000E-8	0.000788
2.020000E-8	0.000156
2.025000E-8	5.937500E-5
2.030000E-8	6.562500E-5
2.035000E-8	0.000319
2.040000E-8	0.000691
2.045000E-8	0.001375
2.050000E-8	0.001972
2.055000E-8	0.002841
2.060000E-8	0.003409
2.065000E-8	0.003994
2.070000E-8	0.004341
2.075000E-8	0.004500
2.080000E-8	0.004537
2.085000E-8	0.004244
2.090000E-8	0.003803
2.095000E-8	0.003256
2.100000E-8	0.002522
2.105000E-8	0.001775
2.110000E-8	0.001009
2.115000E-8	0.000391
2.120000E-8	-5.312500E-5
2.125000E-8	-0.000309
2.130000E-8	-0.000306
2.135000E-8	2.187500E-5
2.140000E-8	0.000425
2.145000E-8	0.001141
2.150000E-8	0.001928
2.155000E-8	0.002741
2.160000E-8	0.003500
2.165000E-8	0.004003
2.170000E-8	0.004409
2.175000E-8	0.004634
2.180000E-8	0.004553
2.185000E-8	0.004341
2.190000E-8	0.003781
2.195000E-8	0.003172
2.200000E-8	0.002369
2.205000E-8	0.001619
2.210000E-8	0.000900
2.215000E-8	0.000388
2.220000E-8	4.062500E-5
2.225000E-8	-2.812500E-5
2.230000E-8	0.000156
2.235000E-8	0.000494
2.240000E-8	0.000938
2.245000E-8	0.001650
2.250000E-8	0.002456
2.255000E-8	0.003156
2.260000E-8	0.003728
2.265000E-8	0.004259
2.270000E-8	0.004484
2.275000E-8	0.004441
2.280000E-8	0.004291
2.285000E-8	0.003962
2.290000E-8	0.003288
2.295000E-8	0.002728
2.300000E-8	0.001881
2.305000E-8	0.001116
2.310000E-8	0.000572
2.315000E-8	0.000175
2.320000E-8	2.187500E-5
2.325000E-8	2.812500E-5
2.330000E-8	0.000363
2.335000E-8	0.000806
2.340000E-8	0.001413
2.345000E-8	0.002119
2.350000E-8	0.002969
2.355000E-8	0.003719
2.360000E-8	0.004197
2.365000E-8	0.004572
2.370000E-8	0.004563
2.375000E-8	0.004484
2.380000E-8	0.004100
2.385000E-8	0.003500
2.390000E-8	0.002809
2.395000E-8	0.002038
2.400000E-8	0.001263
2.405000E-8	0.000781
2.410000E-8	0.000294
2.415000E-8	8.125000E-5
2.420000E-8	-9.375000E-6
2.425000E-8	0.000372
2.430000E-8	0.000769
2.435000E-8	0.001400
2.440000E-8	0.002087
2.445000E-8	0.002825
2.450000E-8	0.003534
2.455000E-8	0.004128
2.460000E-8	0.004391
2.465000E-8	0.004513
2.470000E-8	0.004375
2.475000E-8	0.004028
2.480000E-8	0.003491
2.485000E-8	0.002838
2.490000E-8	0.002200
2.495000E-8	0.001569
2.500000E-8	0.000944
2.505000E-8	0.000513
2.510000E-8	0.000269
2.515000E-8	0.000234
2.520000E-8	0.000409
2.525000E-8	0.000828
2.530000E-8	0.001272
2.535000E-8	0.001984
2.540000E-8	0.002706
2.545000E-8	0.003347
2.550000E-8	0.003750
2.555000E-8	0.004284
2.560000E-8	0.004488
2.565000E-8	0.004597
2.570000E-8	0.004391
2.575000E-8	0.004041
2.580000E-8	0.003559
2.585000E-8	0.002959
2.590000E-8	0.002466
2.595000E-8	0.001844
2.600000E-8	0.001294
2.605000E-8	0.000981
2.610000E-8	0.000819
2.615000E-8	0.000859
2.620000E-8	0.001034
2.625000E-8	0.001350
2.630000E-8	0.001731
2.635000E-8	0.002403
2.640000E-8	0.002819
2.645000E-8	0.003369
2.650000E-8	0.003847
2.655000E-8	0.004131
2.660000E-8	0.004169
2.665000E-8	0.004200
2.670000E-8	0.003841
2.675000E-8	0.003381
2.680000E-8	0.002894
2.685000E-8	0.002328
2.690000E-8	0.001841
2.695000E-8	0.001119
2.700000E-8	0.000547
2.705000E-8	0.000381
2.710000E-8	0.000291
2.715000E-8	0.000419
2.720000E-8	0.000612
2.725000E-8	0.001184
2.730000E-8	0.001788
2.735000E-8	0.002347
2.740000E-8	0.002906
2.745000E-8	0.003531
2.750000E-8	0.003938
2.755000E-8	0.004091
2.760000E-8	0.004188
2.765000E-8	0.004041
2.770000E-8	0.003722
2.775000E-8	0.003334
2.780000E-8	0.002809
2.785000E-8	0.002278
2.790000E-8	0.001647
2.795000E-8	0.001194
2.800000E-8	0.000875
2.805000E-8	0.000634
2.810000E-8	0.000788
2.815000E-8	0.000906
2.820000E-8	0.001088
2.825000E-8	0.001500
2.830000E-8	0.002097
2.835000E-8	0.002672
2.840000E-8	0.003147
2.845000E-8	0.003697
2.850000E-8	0.003975
2.855000E-8	0.004059
2.860000E-8	0.004025
2.865000E-8	0.003747
2.870000E-8	0.003378
2.875000E-8	0.002859
2.880000E-8	0.002253
2.885000E-8	0.001763
2.890000E-8	0.001344
2.895000E-8	0.000875
2.900000E-8	0.000653
2.905000E-8	0.000591
2.910000E-8	0.000684
2.915000E-8	0.001091
2.920000E-8	0.001413
2.925000E-8	0.002063
2.930000E-8	0.002559
2.935000E-8	0.003106
2.940000E-8	0.003488
2.945000E-8	0.003950
2.950000E-8	0.004087
2.955000E-8	0.004147
2.960000E-8	0.003950
2.965000E-8	0.003719
2.970000E-8	0.003341
2.975000E-8	0.002888
2.980000E-8	0.002297
2.985000E-8	0.001825
2.990000E-8	0.001300
2.995000E-8	0.000853
3.000000E-8	0.000747
3.005000E-8	0.000625
3.010000E-8	0.000828
3.015000E-8	0.001150
3.020000E-8	0.001563
3.025000E-8	0.002222
3.030000E-8	0.002722
3.035000E-8	0.003219
3.040000E-8	0.003684
3.045000E-8	0.003988
3.050000E-8	0.004003
3.055000E-8	0.003975
3.060000E-8	0.003719
3.065000E-8	0.003363
3.070000E-8	0.002969
3.075000E-8	0.002378
3.080000E-8	0.001850
3.085000E-8	0.001391
3.090000E-8	0.001059
3.095000E-8	0.000894
3.100000E-8	0.000841
3.105000E-8	0.001056
3.110000E-8	0.001328
3.115000E-8	0.001784
3.120000E-8	0.002159
3.125000E-8	0.002681
3.130000E-8	0.003081
3.135000E-8	0.003591
3.140000E-8	0.003831
3.145000E-8	0.004172
3.150000E-8	0.004128
3.155000E-8	0.004059
3.160000E-8	0.003659
3.165000E-8	0.003206
3.170000E-8	0.002625
3.175000E-8	0.002078
3.180000E-8	0.001619
3.185000E-8	0.001269
3.190000E-8	0.000959
3.195000E-8	0.000841
3.200000E-8	0.000838
3.205000E-8	0.001166
3.210000E-8	0.001459
3.215000E-8	0.001928
3.220000E-8	0.002341
3.225000E-8	0.002775
3.230000E-8	0.003166
3.235000E-8	0.003456
3.240000E-8	0.003659
3.245000E-8	0.003716
3.250000E-8	0.003656
3.255000E-8	0.003447
3.260000E-8	0.002956
3.265000E-8	0.002650
3.270000E-8	0.002156
3.275000E-8	0.001709
3.280000E-8	0.001175
3.285000E-8	0.000944
3.290000E-8	0.000775
3.295000E-8	0.000659
3.300000E-8	0.000750
3.305000E-8	0.001134
3.310000E-8	0.001394
3.315000E-8	0.001853
3.320000E-8	0.002234
3.325000E-8	0.002769
3.330000E-8	0.003109
3.335000E-8	0.003550
3.340000E-8	0.003650
3.345000E-8	0.003722
3.350000E-8	0.003672
3.355000E-8	0.003444
3.360000E-8	0.003119
3.365000E-8	0.002791
3.370000E-8	0.002325
3.375000E-8	0.001900
3.380000E-8	0.001403
3.385000E-8	0.001253
3.390000E-8	0.001172
3.395000E-8	0.001169
3.400000E-8	0.001300
3.405000E-8	0.001516
3.410000E-8	0.001841
3.415000E-8	0.002313
3.420000E-8	0.002709
3.425000E-8	0.003188
3.430000E-8	0.003516
3.435000E-8	0.003797
3.440000E-8	0.003753
3.445000E-8	0.003659
3.450000E-8	0.003525
3.455000E-8	0.003288
3.460000E-8	0.002878
3.465000E-8	0.002572
3.470000E-8	0.002134
3.475000E-8	0.001750
3.480000E-8	0.001444
3.485000E-8	0.001269
3.490000E-8	0.001219
3.495000E-8	0.001231
3.500000E-8	0.001344
3.505000E-8	0.001653
3.510000E-8	0.002016
3.515000E-8	0.002416
3.520000E-8	0.002869
3.525000E-8	0.003141
3.530000E-8	0.003441
3.535000E-8	0.003681
3.540000E-8	0.003656
3.545000E-8	0.003647
3.550000E-8	0.003403
3.555000E-8	0.003141
3.560000E-8	0.002619
3.565000E-8	0.002200
3.570000E-8	0.001775
3.575000E-8	0.001394
3.580000E-8	0.001097
3.585000E-8	0.000956
3.590000E-8	0.000888
3.595000E-8	0.000975
3.600000E-8	0.001175
3.605000E-8	0.001559
3.610000E-8	0.002066
3.615000E-8	0.002459
3.620000E-8	0.002859
3.625000E-8	0.003316
3.630000E-8	0.003447
3.635000E-8	0.003597
3.640000E-8	0.003628
3.645000E-8	0.003578
3.650000E-8	0.003313
3.655000E-8	0.002997
3.660000E-8	0.002575
3.665000E-8	0.002197
3.670000E-8	0.001753
3.675000E-8	0.001384
3.680000E-8	0.001131
3.685000E-8	0.001147
3.690000E-8	0.001141
3.695000E-8	0.001434
3.700000E-8	0.001622
3.705000E-8	0.002025
3.710000E-8	0.002472
3.715000E-8	0.002825
3.720000E-8	0.003281
3.725000E-8	0.003603
3.730000E-8	0.003663
3.735000E-8	0.003819
3.740000E-8	0.003691
3.745000E-8	0.003512
3.750000E-8	0.003069
3.755000E-8	0.002706
3.760000E-8	0.002225
3.765000E-8	0.001981
3.770000E-8	0.001584
3.775000E-8	0.001309
3.780000E-8	0.001100
3.785000E-8	0.001094
3.790000E-8	0.001138
3.795000E-8	0.001450
3.800000E-8	0.001766
3.805000E-8	0.002294
3.810000E-8	0.002666
3.815000E-8	0.003056
3.820000E-8	0.003416
3.825000E-8	0.003666
3.830000E-8	0.003575
3.835000E-8	0.003613
3.840000E-8	0.003359
3.845000E-8	0.003081
3.850000E-8	0.002653
3.855000E-8	0.002253
3.860000E-8	0.001816
3.865000E-8	0.001437
3.870000E-8	0.001263
3.875000E-8	0.001203
3.880000E-8	0.001278
3.885000E-8	0.001356
3.890000E-8	0.001697
3.895000E-8	0.001891
3.900000E-8	0.002328
3.905000E-8	0.002669
3.910000E-8	0.002975
3.915000E-8	0.003303
3.920000E-8	0.003503
3.925000E-8	0.003644
3.930000E-8	0.003641
3.935000E-8	0.003478
3.940000E-8	0.003150
3.945000E-8	0.002906
3.950000E-8	0.002509
3.955000E-8	0.002153
3.960000E-8	0.001713
3.965000E-8	0.001484
3.970000E-8	0.001303
3.975000E-8	0.001216
3.980000E-8	0.001281
3.985000E-8	0.001497
3.990000E-8	0.001881
3.995000E-8	0.002075
4.000000E-8	0.002375
4.005000E-8	0.002794
4.010000E-8	0.003169
4.015000E-8	0.003394
4.020000E-8	0.003581
4.025000E-8	0.003666
4.030000E-8	0.003641
4.035000E-8	0.003472
4.040000E-8	0.003122
4.045000E-8	0.002869
4.050000E-8	0.002541
4.055000E-8	0.002184
4.060000E-8	0.001753
4.065000E-8	0.001484
4.070000E-8	0.001366
4.075000E-8	0.001359
4.080000E-8	0.001391
4.085000E-8	0.001625
4.090000E-8	0.001894
4.095000E-8	0.002325
4.100000E-8	0.002616
4.105000E-8	0.002838
4.110000E-8	0.003116
4.115000E-8	0.003425
4.120000E-8	0.003472
4.125000E-8	0.003578
4.130000E-8	0.003356
4.135000E-8	0.003241
4.140000E-8	0.002984
4.145000E-8	0.002734
4.150000E-8	0.002469
4.155000E-8	0.002216
4.160000E-8	0.001956
4.165000E-8	0.001772
4.170000E-8	0.001606
4.175000E-8	0.001622
4.180000E-8	0.001750
4.185000E-8	0.001941
4.190000E-8	0.002113
4.195000E-8	0.002447
4.200000E-8	0.002662
4.205000E-8	0.002938
4.210000E-8	0.003209
4.215000E-8	0.003425
4.220000E-8	0.003522
4.225000E-8	0.003488
4.230000E-8	0.003369
4.235000E-8	0.003316
4.240000E-8	0.003006
4.245000E-8	0.002653
4.250000E-8	0.002288
4.255000E-8	0.002075
4.260000E-8	0.001731
4.265000E-8	0.001597
4.270000E-8	0.001372
4.275000E-8	0.001344
4.280000E-8	0.001459
4.285000E-8	0.001669
4.290000E-8	0.001944
4.295000E-8	0.002359
4.300000E-8	0.002466
4.305000E-8	0.002800
4.310000E-8	0.003003
4.315000E-8	0.003269
4.320000E-8	0.003309
4.325000E-8	0.003266
4.330000E-8	0.003175
4.335000E-8	0.003003
4.340000E-8	0.002662
4.345000E-8	0.002434
4.350000E-8	0.002034
4.355000E-8	0.001913
4.360000E-8	0.001756
4.365000E-8	0.001612
4.370000E-8	0.001663
4.375000E-8	0.001844
4.380000E-8	0.001981
4.385000E-8	0.002250
4.390000E-8	0.002525
4.395000E-8	0.002809
4.400000E-8	0.003091
4.405000E-8	0.003353
4.410000E-8	0.003469
4.415000E-8	0.003525
4.420000E-8	0.003409
4.425000E-8	0.003231
4.430000E-8	0.002909
4.435000E-8	0.002728
4.440000E-8	0.002447
4.445000E-8	0.002103
4.450000E-8	0.001937
4.455000E-8	0.001769
4.460000E-8	0.001528
4.465000E-8	0.001437
4.470000E-8	0.001641
4.475000E-8	0.001828
4.480000E-8	0.002022
4.485000E-8	0.002334
4.490000E-8	0.002534
4.495000E-8	0.002894
4.500000E-8	0.003109
4.505000E-8	0.003291
4.510000E-8	0.003319
4.515000E-8	0.003313
4.520000E-8	0.003275
4.525000E-8	0.003041
4.530000E-8	0.002800
4.535000E-8	0.002491
4.540000E-8	0.002247
4.545000E-8	0.001966
4.550000E-8	0.001709
4.555000E-8	0.001628
4.560000E-8	0.001550
4.565000E-8	0.001678
4.570000E-8	0.001719
4.575000E-8	0.001944
4.580000E-8	0.002166
4.585000E-8	0.002369
4.590000E-8	0.002631
4.595000E-8	0.002816
4.600000E-8	0.003031
4.605000E-8	0.003116
4.610000E-8	0.003047
4.615000E-8	0.003028
4.620000E-8	0.002884
4.625000E-8	0.002728
4.630000E-8	0.002650
4.635000E-8	0.002316
4.640000E-8	0.002166
4.645000E-8	0.001919
4.650000E-8	0.001878
4.655000E-8	0.001775
4.660000E-8	0.001725
4.665000E-8	0.001659
4.670000E-8	0.001731
4.675000E-8	0.001853
4.680000E-8	0.001878
4.685000E-8	0.002237
4.690000E-8	0.002481
4.695000E-8	0.002753
4.700000E-8	0.002938
4.705000E-8	0.003188
4.710000E-8	0.003284
4.715000E-8	0.003288
4.720000E-8	0.003113
4.725000E-8	0.002941
4.730000E-8	0.002722
4.735000E-8	0.002466
4.740000E-8	0.002200
4.745000E-8	0.002031
4.750000E-8	0.001788
4.755000E-8	0.001666
4.760000E-8	0.001697
4.765000E-8	0.001884
4.770000E-8	0.001922
4.775000E-8	0.002181
4.780000E-8	0.002413
4.785000E-8	0.002644
4.790000E-8	0.002766
4.795000E-8	0.003091
4.800000E-8	0.003109
4.805000E-8	0.003159
4.810000E-8	0.003091
4.815000E-8	0.002938
4.820000E-8	0.002806
4.825000E-8	0.002459
4.830000E-8	0.002241
4.835000E-8	0.002006
4.840000E-8	0.001797
4.845000E-8	0.001631
4.850000E-8	0.001534
4.855000E-8	0.001572
4.860000E-8	0.001663
4.865000E-8	0.001769
4.870000E-8	0.001956
4.875000E-8	0.002300
4.880000E-8	0.002587
4.885000E-8	0.002794
4.890000E-8	0.002984
4.895000E-8	0.003178
4.900000E-8	0.003234
4.905000E-8	0.003128
4.910000E-8	0.003038
4.915000E-8	0.002919
4.920000E-8	0.002538
4.925000E-8	0.002300
4.930000E-8	0.002038
4.935000E-8	0.001816
4.940000E-8	0.001547
4.945000E-8	0.001525
4.950000E-8	0.001444
4.955000E-8	0.001584
4.960000E-8	0.001769
4.965000E-8	0.002025
4.970000E-8	0.002322
4.975000E-8	0.002531
4.980000E-8	0.002656
4.985000E-8	0.002763
4.990000E-8	0.002869
4.995000E-8	0.003016
5.000000E-8	0.003028
5.005000E-8	0.002903
5.010000E-8	0.002759
5.015000E-8	0.002525
5.020000E-8	0.002366
5.025000E-8	0.002091
5.030000E-8	0.001978
5.035000E-8	0.001678
5.040000E-8	0.001550
5.045000E-8	0.001584
5.050000E-8	0.001672
5.055000E-8	0.001819
5.060000E-8	0.001994
5.065000E-8	0.002072
5.070000E-8	0.002256
5.075000E-8	0.002363
5.080000E-8	0.002619
5.085000E-8	0.002859
5.090000E-8	0.002938
5.095000E-8	0.003044
5.100000E-8	0.003044
5.105000E-8	0.002941
5.110000E-8	0.002778
5.115000E-8	0.002556
5.120000E-8	0.002325
5.125000E-8	0.002075
5.130000E-8	0.001672
5.135000E-8	0.001538
5.140000E-8	0.001500
5.145000E-8	0.001369
5.150000E-8	0.001400
5.155000E-8	0.001591
5.160000E-8	0.001766
5.165000E-8	0.002050
5.170000E-8	0.002344
5.175000E-8	0.002600
5.180000E-8	0.002894
5.185000E-8	0.003069
5.190000E-8	0.003250
5.195000E-8	0.003406
5.200000E-8	0.003228
5.205000E-8	0.003131
5.210000E-8	0.002881
5.215000E-8	0.002750
5.220000E-8	0.002516
5.225000E-8	0.002191
5.230000E-8	0.002009
5.235000E-8	0.001906
5.240000E-8	0.001700
5.245000E-8	0.001844
5.250000E-8	0.001841
5.255000E-8	0.002044
5.260000E-8	0.002156
5.265000E-8	0.002422
5.270000E-8	0.002591
5.275000E-8	0.002809
5.280000E-8	0.002856
5.285000E-8	0.003031
5.290000E-8	0.003159
5.295000E-8	0.003194
5.300000E-8	0.003150
5.305000E-8	0.003050
5.310000E-8	0.002853
5.315000E-8	0.002634
5.320000E-8	0.002300
5.325000E-8	0.002138
5.330000E-8	0.001825
5.335000E-8	0.001847
5.340000E-8	0.001753
5.345000E-8	0.001759
5.350000E-8	0.001747
5.355000E-8	0.001881
5.360000E-8	0.001903
5.365000E-8	0.002034
5.370000E-8	0.002288
5.375000E-8	0.002437
5.380000E-8	0.002563
5.385000E-8	0.002678
5.390000E-8	0.002731
5.395000E-8	0.002794
5.400000E-8	0.002753
5.405000E-8	0.002769
5.410000E-8	0.002634
5.415000E-8	0.002625
5.420000E-8	0.002547
5.425000E-8	0.002459
5.430000E-8	0.002313
5.435000E-8	0.002206
5.440000E-8	0.002188
5.445000E-8	0.002259
5.450000E-8	0.002441
5.455000E-8	0.002509
5.460000E-8	0.002622
5.465000E-8	0.002766
5.470000E-8	0.002906
5.475000E-8	0.003078
5.480000E-8	0.003091
5.485000E-8	0.003075
5.490000E-8	0.002972
5.495000E-8	0.002863
5.500000E-8	0.002672
5.505000E-8	0.002522
5.510000E-8	0.002400
5.515000E-8	0.002206
5.520000E-8	0.002084
5.525000E-8	0.001981
5.530000E-8	0.002022
5.535000E-8	0.002016
5.540000E-8	0.001956
5.545000E-8	0.002081
5.550000E-8	0.002072
5.555000E-8	0.002162
5.560000E-8	0.002281
5.565000E-8	0.002484
5.570000E-8	0.002563
5.575000E-8	0.002656
5.580000E-8	0.002672
5.585000E-8	0.002703
5.590000E-8	0.002559
5.595000E-8	0.002478
5.600000E-8	0.002284
5.605000E-8	0.002209
5.610000E-8	0.002038
5.615000E-8	0.002012
5.620000E-8	0.001709
5.625000E-8	0.001653
5.630000E-8	0.001638
5.635000E-8	0.001659
5.640000E-8	0.001759
5.645000E-8	0.001950
5.650000E-8	0.002125
5.655000E-8	0.002328
5.660000E-8	0.002512
5.665000E-8	0.002656
5.670000E-8	0.002816
5.675000E-8	0.002850
5.680000E-8	0.002775
5.685000E-8	0.002778
5.690000E-8	0.002750
5.695000E-8	0.002591
5.700000E-8	0.002397
5.705000E-8	0.002338
5.710000E-8	0.002078
5.715000E-8	0.001953
5.720000E-8	0.001794
5.725000E-8	0.001706
5.730000E-8	0.001672
5.735000E-8	0.001781
5.740000E-8	0.001763
5.745000E-8	0.001894
5.750000E-8	0.001994
5.755000E-8	0.002322
5.760000E-8	0.002494
5.765000E-8	0.002678
5.770000E-8	0.002778
5.775000E-8	0.002906
5.780000E-8	0.002775
5.785000E-8	0.002797
5.790000E-8	0.002775
5.795000E-8	0.002606
5.800000E-8	0.002431
5.805000E-8	0.002359
5.810000E-8	0.002197
5.815000E-8	0.002116
5.820000E-8	0.001994
5.825000E-8	0.001978
5.830000E-8	0.001966
5.835000E-8	0.002009
5.840000E-8	0.002134
5.845000E-8	0.002359
5.850000E-8	0.002659
5.855000E-8	0.002719
5.860000E-8	0.002803
5.865000E-8	0.002891
5.870000E-8	0.003003
5.875000E-8	0.003097
5.880000E-8	0.003025
5.885000E-8	0.002956
5.890000E-8	0.002800
5.895000E-8	0.002653
5.900000E-8	0.002478
5.905000E-8	0.002338
5.910000E-8	0.002097
5.915000E-8	0.001841
5.920000E-8	0.001803
5.925000E-8	0.001778
5.930000E-8	0.001884
5.935000E-8	0.001941
5.940000E-8	0.001959
5.945000E-8	0.002056
5.950000E-8	0.002266
5.955000E-8	0.002425
5.960000E-8	0.002550
5.965000E-8	0.002750
5.970000E-8	0.002809
5.975000E-8	0.002856
5.980000E-8	0.002875
5.985000E-8	0.002756
5.990000E-8	0.002759
5.995000E-8	0.002725
6.000000E-8	0.002622
6.005000E-8	0.002437
6.010000E-8	0.002334
6.015000E-8	0.002231
6.020000E-8	0.002278
6.025000E-8	0.002294
6.030000E-8	0.002437
6.035000E-8	0.002500
6.040000E-8	0.002681
6.045000E-8	0.002953
6.050000E-8	0.003072
6.055000E-8	0.003134
6.060000E-8	0.003200
6.065000E-8	0.003228
6.070000E-8	0.003213
6.075000E-8	0.003241
6.080000E-8	0.003053
6.085000E-8	0.003059
6.090000E-8	0.002866
6.095000E-8	0.002719
6.100000E-8	0.002553
6.105000E-8	0.002272
6.110000E-8	0.002100
6.115000E-8	0.002078
6.120000E-8	0.001978
6.125000E-8	0.001947
6.130000E-8	0.002012
6.135000E-8	0.002109
6.140000E-8	0.002219
6.145000E-8	0.002381
6.150000E-8	0.002459
6.155000E-8	0.002634
6.160000E-8	0.002744
6.165000E-8	0.002788
6.170000E-8	0.002750
6.175000E-8	0.002744
6.180000E-8	0.002675
6.185000E-8	0.002603
6.190000E-8	0.002509
6.195000E-8	0.002409
6.200000E-8	0.002078
6.205000E-8	0.001909
6.210000E-8	0.001853
6.215000E-8	0.001734
6.220000E-8	0.001619
6.225000E-8	0.001531
6.230000E-8	0.001575
6.235000E-8	0.001731
6.240000E-8	0.001834
6.245000E-8	0.001947
6.250000E-8	0.002091
6.255000E-8	0.002253
6.260000E-8	0.002450
6.265000E-8	0.002722
6.270000E-8	0.002934
6.275000E-8	0.003019
6.280000E-8	0.002959
6.285000E-8	0.003016
6.290000E-8	0.002900
6.295000E-8	0.002753
6.300000E-8	0.002503
6.305000E-8	0.002466
6.310000E-8	0.002366
6.315000E-8	0.002300
6.320000E-8	0.002172
6.325000E-8	0.002181
6.330000E-8	0.002256
6.335000E-8	0.002303
6.340000E-8	0.002331
6.345000E-8	0.002538
6.350000E-8	0.002816
6.355000E-8	0.002916
6.360000E-8	0.002934
6.365000E-8	0.002991
6.370000E-8	0.002994
6.375000E-8	0.002925
6.380000E-8	0.002838
6.385000E-8	0.002691
6.390000E-8	0.002525
6.395000E-8	0.002403
6.400000E-8	0.002228
6.405000E-8	0.002197
6.410000E-8	0.002081
6.415000E-8	0.002172
6.420000E-8	0.002075
6.425000E-8	0.002097
6.430000E-8	0.002116
6.435000E-8	0.002197
6.440000E-8	0.002259
6.445000E-8	0.002344
6.450000E-8	0.002506
6.455000E-8	0.002522
6.460000E-8	0.002553
6.465000E-8	0.002606
6.470000E-8	0.002650
6.475000E-8	0.002697
6.480000E-8	0.002525
6.485000E-8	0.002597
6.490000E-8	0.002403
6.495000E-8	0.002334
6.500000E-8	0.002169
6.505000E-8	0.002084
6.510000E-8	0.002087
6.515000E-8	0.002025
6.520000E-8	0.001956
6.525000E-8	0.002134
6.530000E-8	0.002134
6.535000E-8	0.002191
6.540000E-8	0.002344
6.545000E-8	0.002509
6.550000E-8	0.002584
6.555000E-8	0.002659
6.560000E-8	0.002709
6.565000E-8	0.002734
6.570000E-8	0.002709
6.575000E-8	0.002750
6.580000E-8	0.002650
6.585000E-8	0.002528
6.590000E-8	0.002400
6.595000E-8	0.002428
6.600000E-8	0.002313
6.605000E-8	0.002303
6.610000E-8	0.002353
6.615000E-8	0.002313
6.620000E-8	0.002275
6.625000E-8	0.002388
6.630000E-8	0.002547
6.635000E-8	0.002581
6.640000E-8	0.002628
6.645000E-8	0.002647
6.650000E-8	0.002713
6.655000E-8	0.002906
6.660000E-8	0.002731
6.665000E-8	0.002769
6.670000E-8	0.002734
6.675000E-8	0.002628
6.680000E-8	0.002466
6.685000E-8	0.002488
6.690000E-8	0.002319
6.695000E-8	0.002297
6.700000E-8	0.002294
6.705000E-8	0.002147
6.710000E-8	0.002141
6.715000E-8	0.002081
6.720000E-8	0.002178
6.725000E-8	0.002094
6.730000E-8	0.002181
6.735000E-8	0.002309
6.740000E-8	0.002319
6.745000E-8	0.002391
6.750000E-8	0.002581
6.755000E-8	0.002591
6.760000E-8	0.002575
6.765000E-8	0.002628
6.770000E-8	0.002569
6.775000E-8	0.002491
6.780000E-8	0.002413
6.785000E-8	0.002353
6.790000E-8	0.002228
6.795000E-8	0.002091
6.800000E-8	0.002063
6.805000E-8	0.001969
6.810000E-8	0.002075
6.815000E-8	0.002200
6.820000E-8	0.002213
6.825000E-8	0.002347
6.830000E-8	0.002413
6.835000E-8	0.002644
6.840000E-8	0.002662
6.845000E-8	0.002662
6.850000E-8	0.002859
6.855000E-8	0.002875
6.860000E-8	0.002884
6.865000E-8	0.002803
6.870000E-8	0.002722
6.875000E-8	0.002662
6.880000E-8	0.002478
6.885000E-8	0.002400
6.890000E-8	0.002378
6.895000E-8	0.002284
6.900000E-8	0.002116
6.905000E-8	0.002122
6.910000E-8	0.002169
6.915000E-8	0.002272
6.920000E-8	0.002347
6.925000E-8	0.002313
6.930000E-8	0.002291
6.935000E-8	0.002434
6.940000E-8	0.002450
6.945000E-8	0.002581
6.950000E-8	0.002713
6.955000E-8	0.002809
6.960000E-8	0.002731
6.965000E-8	0.002763
6.970000E-8	0.002753
6.975000E-8	0.002825
6.980000E-8	0.002728
6.985000E-8	0.002716
6.990000E-8	0.002628
6.995000E-8	0.002575
7.000000E-8	0.002581
7.005000E-8	0.002572
7.010000E-8	0.002525
7.015000E-8	0.002559
7.020000E-8	0.002572
7.025000E-8	0.002628
7.030000E-8	0.002644
7.035000E-8	0.002741
7.040000E-8	0.002753
7.045000E-8	0.002744
7.050000E-8	0.002863
7.055000E-8	0.002859
7.060000E-8	0.002681
7.065000E-8	0.002641
7.070000E-8	0.002456
7.075000E-8	0.002369
7.080000E-8	0.002256
7.085000E-8	0.002200
7.090000E-8	0.002084
7.095000E-8	0.002153
7.100000E-8	0.002144
7.105000E-8	0.002059
7.110000E-8	0.002184
7.115000E-8	0.002272
7.120000E-8	0.002334
7.125000E-8	0.002434
7.130000E-8	0.002662
7.135000E-8	0.002750
7.140000E-8	0.002800
7.145000E-8	0.002819
7.150000E-8	0.002756
7.155000E-8	0.002788
7.160000E-8	0.002700
7.165000E-8	0.002591
7.170000E-8	0.002444
7.175000E-8	0.002281
7.180000E-8	0.002169
7.185000E-8	0.002184
7.190000E-8	0.002200
7.195000E-8	0.002213
7.200000E-8	0.002284
7.205000E-8	0.002375
7.210000E-8	0.002413
7.215000E-8	0.002525
7.220000E-8	0.002531
7.225000E-8	0.002603
7.230000E-8	0.002641
7.235000E-8	0.002522
7.240000E-8	0.002381
7.245000E-8	0.002381
7.250000E-8	0.002566
7.255000E-8	0.002503
7.260000E-8	0.002431
7.265000E-8	0.002463
7.270000E-8	0.002291
7.275000E-8	0.002275
7.280000E-8	0.002219
7.285000E-8	0.002263
7.290000E-8	0.002281
7.295000E-8	0.002237
7.300000E-8	0.002231
7.305000E-8	0.002294
7.310000E-8	0.002384
7.315000E-8	0.002428
7.320000E-8	0.002494
7.325000E-8	0.002641
7.330000E-8	0.002706
7.335000E-8	0.002781
7.340000E-8	0.002800
7.345000E-8	0.002809
7.350000E-8	0.002688
7.355000E-8	0.002691
7.360000E-8	0.002609
7.365000E-8	0.002559
7.370000E-8	0.002547
7.375000E-8	0.002425
7.380000E-8	0.002481
7.385000E-8	0.002441
7.390000E-8	0.002384
7.395000E-8	0.002428
7.400000E-8	0.002494
7.405000E-8	0.002591
7.410000E-8	0.002656
7.415000E-8	0.002769
7.420000E-8	0.002659
7.425000E-8	0.002747
7.430000E-8	0.002678
7.435000E-8	0.002650
7.440000E-8	0.002581
7.445000E-8	0.002463
7.450000E-8	0.002378
7.455000E-8	0.002297
7.460000E-8	0.002297
7.465000E-8	0.002313
7.470000E-8	0.002188
7.475000E-8	0.002166
7.480000E-8	0.002103
7.485000E-8	0.002025
7.490000E-8	0.002078
7.495000E-8	0.002219
7.500000E-8	0.002316
7.505000E-8	0.002366
7.510000E-8	0.002563
7.515000E-8	0.002713
7.520000E-8	0.002713
7.525000E-8	0.002828
7.530000E-8	0.002816
7.535000E-8	0.002831
7.540000E-8	0.002931
7.545000E-8	0.002734
7.550000E-8	0.002706
7.555000E-8	0.002434
7.560000E-8	0.002216
7.565000E-8	0.002144
7.570000E-8	0.001959
7.575000E-8	0.001869
7.580000E-8	0.001697
7.585000E-8	0.001672
7.590000E-8	0.001678
7.595000E-8	0.001775
7.600000E-8	0.002016
7.605000E-8	0.002209
7.610000E-8	0.002394
7.615000E-8	0.002581
7.620000E-8	0.002688
7.625000E-8	0.002719
7.630000E-8	0.002709
7.635000E-8	0.002766
7.640000E-8	0.002587
7.645000E-8	0.002503
7.650000E-8	0.002541
7.655000E-8	0.002356
7.660000E-8	0.002306
7.665000E-8	0.002250
7.670000E-8	0.002162
7.675000E-8	0.002197
7.680000E-8	0.002106
7.685000E-8	0.002109
7.690000E-8	0.002219
7.695000E-8	0.002459
7.700000E-8	0.002512
7.705000E-8	0.002569
7.710000E-8	0.002478
7.715000E-8	0.002647
7.720000E-8	0.002594
7.725000E-8	0.002688
7.730000E-8	0.002759
7.735000E-8	0.002628
7.740000E-8	0.002603
7.745000E-8	0.002644
7.750000E-8	0.002469
7.755000E-8	0.002441
7.760000E-8	0.002388
7.765000E-8	0.002334
7.770000E-8	0.002172
7.775000E-8	0.002172
7.780000E-8	0.002269
7.785000E-8	0.002159
7.790000E-8	0.002244
7.795000E-8	0.002344
7.800000E-8	0.002509
7.805000E-8	0.002597
7.810000E-8	0.002719
7.815000E-8	0.002700
7.820000E-8	0.002856
7.825000E-8	0.002969
7.830000E-8	0.003056
7.835000E-8	0.003047
7.840000E-8	0.002950
7.845000E-8	0.002875
7.850000E-8	0.002769
7.855000E-8	0.002703
7.860000E-8	0.002488
7.865000E-8	0.002431
7.870000E-8	0.002322
7.875000E-8	0.002263
7.880000E-8	0.002184
7.885000E-8	0.002172
7.890000E-8	0.002169
7.895000E-8	0.002272
7.900000E-8	0.002197
7.905000E-8	0.002372
7.910000E-8	0.002378
7.915000E-8	0.002431
7.920000E-8	0.002378
7.925000E-8	0.002475
7.930000E-8	0.002434
7.935000E-8	0.002456
7.940000E-8	0.002409
7.945000E-8	0.002456
7.950000E-8	0.002331
7.955000E-8	0.002150
7.960000E-8	0.002159
7.965000E-8	0.002119
7.970000E-8	0.002225
7.975000E-8	0.002344
7.980000E-8	0.002209
7.985000E-8	0.002300
7.990000E-8	0.002372
7.995000E-8	0.002428
8.000000E-8	0.002369
8.005000E-8	0.002331
8.010000E-8	0.002344
8.015000E-8	0.002281
8.020000E-8	0.002134
8.025000E-8	0.002138
8.030000E-8	0.002188
8.035000E-8	0.002141
8.040000E-8	0.002119
8.045000E-8	0.002228
8.050000E-8	0.002228
8.055000E-8	0.002369
8.060000E-8	0.002388
8.065000E-8	0.002384
8.070000E-8	0.002388
8.075000E-8	0.002334
8.080000E-8	0.002447
8.085000E-8	0.002497
8.090000E-8	0.002516
8.095000E-8	0.002575
8.100000E-8	0.002619
8.105000E-8	0.002613
8.110000E-8	0.002556
8.115000E-8	0.002559
8.120000E-8	0.002525
8.125000E-8	0.002591
8.130000E-8	0.002566
8.135000E-8	0.002553
8.140000E-8	0.002453
8.145000E-8	0.002350
8.150000E-8	0.002363
8.155000E-8	0.002397
8.160000E-8	0.002269
8.165000E-8	0.002237
8.170000E-8	0.002244
8.175000E-8	0.002372
8.180000E-8	0.002375
8.185000E-8	0.002381
8.190000E-8	0.002394
8.195000E-8	0.002422
8.200000E-8	0.002484
8.205000E-8	0.002662
8.210000E-8	0.002603
8.215000E-8	0.002669
8.220000E-8	0.002484
8.225000E-8	0.002456
8.230000E-8	0.002303
8.235000E-8	0.002359
8.240000E-8	0.002188
8.245000E-8	0.002050
8.250000E-8	0.001997
8.255000E-8	0.001981
8.260000E-8	0.002131
8.265000E-8	0.002147
8.270000E-8	0.002200
8.275000E-8	0.002350
8.280000E-8	0.002375
8.285000E-8	0.002400
8.290000E-8	0.002344
8.295000E-8	0.002416
8.300000E-8	0.002297
8.305000E-8	0.002406
8.310000E-8	0.002369
8.315000E-8	0.002319
8.320000E-8	0.002459
8.325000E-8	0.002497
8.330000E-8	0.002503
8.335000E-8	0.002416
8.340000E-8	0.002316
8.345000E-8	0.002453
8.350000E-8	0.002375
8.355000E-8	0.002353
8.360000E-8	0.002309
8.365000E-8	0.002413
8.370000E-8	0.002378
8.375000E-8	0.002403
8.380000E-8	0.002491
8.385000E-8	0.002553
8.390000E-8	0.002572
8.395000E-8	0.002791
8.400000E-8	0.002828
8.405000E-8	0.002828
8.410000E-8	0.002763
8.415000E-8	0.002944
8.420000E-8	0.002841
8.425000E-8	0.002753
8.430000E-8	0.002678
8.435000E-8	0.002616
8.440000E-8	0.002472
8.445000E-8	0.002353
8.450000E-8	0.002253
8.455000E-8	0.002259
8.460000E-8	0.002175
8.465000E-8	0.002281
8.470000E-8	0.002216
8.475000E-8	0.002394
8.480000E-8	0.002428
8.485000E-8	0.002584
8.490000E-8	0.002566
8.495000E-8	0.002669
8.500000E-8	0.002622
8.505000E-8	0.002703
8.510000E-8	0.002675
8.515000E-8	0.002694
8.520000E-8	0.002597
8.525000E-8	0.002653
8.530000E-8	0.002587
8.535000E-8	0.002559
8.540000E-8	0.002419
8.545000E-8	0.002400
8.550000E-8	0.002359
8.555000E-8	0.002541
8.560000E-8	0.002453
8.565000E-8	0.002550
8.570000E-8	0.002606
8.575000E-8	0.002656
8.580000E-8	0.002597
8.585000E-8	0.002678
8.590000E-8	0.002703
8.595000E-8	0.002763
8.600000E-8	0.002641
8.605000E-8	0.002791
8.610000E-8	0.002600
8.615000E-8	0.002684
8.620000E-8	0.002706
8.625000E-8	0.002581
8.630000E-8	0.002544
8.635000E-8	0.002559
8.640000E-8	0.002437
8.645000E-8	0.002409
8.650000E-8	0.002350
8.655000E-8	0.002303
8.660000E-8	0.002194
8.665000E-8	0.002294
8.670000E-8	0.002125
8.675000E-8	0.002094
8.680000E-8	0.001988
8.685000E-8	0.001988
8.690000E-8	0.001953
8.695000E-8	0.002019
8.700000E-8	0.002050
8.705000E-8	0.002116
8.710000E-8	0.002031
8.715000E-8	0.002241
8.720000E-8	0.002319
8.725000E-8	0.002372
8.730000E-8	0.002178
8.735000E-8	0.002291
8.740000E-8	0.002247
8.745000E-8	0.002144
8.750000E-8	0.002166
8.755000E-8	0.002147
8.760000E-8	0.002113
8.765000E-8	0.002156
8.770000E-8	0.002188
8.775000E-8	0.002213
8.780000E-8	0.002347
8.785000E-8	0.002381
8.790000E-8	0.002456
8.795000E-8	0.002509
8.800000E-8	0.002609
8.805000E-8	0.002444
8.810000E-8	0.002509
8.815000E-8	0.002525
8.820000E-8	0.002503
8.825000E-8	0.002512
8.830000E-8	0.002478
8.835000E-8	0.002469
8.840000E-8	0.002413
8.845000E-8	0.002475
8.850000E-8	0.002481
8.855000E-8	0.002538
8.860000E-8	0.002550
8.865000E-8	0.002587
8.870000E-8	0.002600
8.875000E-8	0.002603
8.880000E-8	0.002581
8.885000E-8	0.002569
8.890000E-8	0.002512
8.895000E-8	0.002463
8.900000E-8	0.002250
8.905000E-8	0.002213
8.910000E-8	0.002244
8.915000E-8	0.002209
8.920000E-8	0.002162
8.925000E-8	0.002250
8.930000E-8	0.002200
8.935000E-8	0.002328
8.940000E-8	0.002319
8.945000E-8	0.002375
8.950000E-8	0.002484
8.955000E-8	0.002400
8.960000E-8	0.002456
8.965000E-8	0.002541
8.970000E-8	0.002600
8.975000E-8	0.002581
8.980000E-8	0.002591
8.985000E-8	0.002584
8.990000E-8	0.002659
8.995000E-8	0.002725
9.000000E-8	0.002656
9.005000E-8	0.002516
9.010000E-8	0.002434
9.015000E-8	0.002450
9.020000E-8	0.002334
9.025000E-8	0.002366
9.030000E-8	0.002331
9.035000E-8	0.002369
9.040000E-8	0.002497
9.045000E-8	0.002606
9.050000E-8	0.002578
9.055000E-8	0.002656
9.060000E-8	0.002603
9.065000E-8	0.002556
9.070000E-8	0.002603
9.075000E-8	0.002594
9.080000E-8	0.002544
9.085000E-8	0.002553
9.090000E-8	0.002531
9.095000E-8	0.002669
9.100000E-8	0.002606
9.105000E-8	0.002550
9.110000E-8	0.002569
9.115000E-8	0.002578
9.120000E-8	0.002450
9.125000E-8	0.002413
9.130000E-8	0.002363
9.135000E-8	0.002434
9.140000E-8	0.002431
9.145000E-8	0.002366
9.150000E-8	0.002309
9.155000E-8	0.002341
9.160000E-8	0.002306
9.165000E-8	0.002384
9.170000E-8	0.002406
9.175000E-8	0.002509
9.180000E-8	0.002388
9.185000E-8	0.002375
9.190000E-8	0.002363
9.195000E-8	0.002381
9.200000E-8	0.002344
9.205000E-8	0.002425
9.210000E-8	0.002444
9.215000E-8	0.002459
9.220000E-8	0.002469
9.225000E-8	0.002428
9.230000E-8	0.002341
9.235000E-8	0.002219
9.240000E-8	0.002175
9.245000E-8	0.002084
9.250000E-8	0.002122
9.255000E-8	0.002131
9.260000E-8	0.002091
9.265000E-8	0.002097
9.270000E-8	0.002075
9.275000E-8	0.002237
9.280000E-8	0.002244
9.285000E-8	0.002369
9.290000E-8	0.002416
9.295000E-8	0.002450
9.300000E-8	0.002453
9.305000E-8	0.002437
9.310000E-8	0.002466
9.315000E-8	0.002341
9.320000E-8	0.002363
9.325000E-8	0.002375
9.330000E-8	0.002275
9.335000E-8	0.002266
9.340000E-8	0.002313
9.345000E-8	0.002300
9.350000E-8	0.002231
9.355000E-8	0.002284
9.360000E-8	0.002391
9.365000E-8	0.002444
9.370000E-8	0.002478
9.375000E-8	0.002566
9.380000E-8	0.002509
9.385000E-8	0.002525
9.390000E-8	0.002578
9.395000E-8	0.002534
9.400000E-8	0.002447
9.405000E-8	0.002422
9.410000E-8	0.002425
9.415000E-8	0.002394
9.420000E-8	0.002363
9.425000E-8	0.002372
9.430000E-8	0.002256
9.435000E-8	0.002228
9.440000E-8	0.002425
9.445000E-8	0.002456
9.450000E-8	0.002378
9.455000E-8	0.002347
9.460000E-8	0.002256
9.465000E-8	0.002459
9.470000E-8	0.002478
9.475000E-8	0.002453
9.480000E-8	0.002500
9.485000E-8	0.002559
9.490000E-8	0.002672
9.495000E-8	0.002647
9.500000E-8	0.002609
9.505000E-8	0.002447
9.510000E-8	0.002328
9.515000E-8	0.002319
9.520000E-8	0.002203
9.525000E-8	0.002059
9.530000E-8	0.001975
9.535000E-8	0.001975
9.540000E-8	0.001931
9.545000E-8	0.002041
9.550000E-8	0.002075
9.555000E-8	0.002203
9.560000E-8	0.002128
9.565000E-8	0.002291
9.570000E-8	0.002325
9.575000E-8	0.002375
9.580000E-8	0.002366
9.585000E-8	0.002391
9.590000E-8	0.002469
9.595000E-8	0.002413
9.600000E-8	0.002425
9.605000E-8	0.002344
9.610000E-8	0.002313
9.615000E-8	0.002366
9.620000E-8	0.002244
9.625000E-8	0.002197
9.630000E-8	0.002141
9.635000E-8	0.002116
9.640000E-8	0.002094
9.645000E-8	0.002100
9.650000E-8	0.002119
9.655000E-8	0.002253
9.660000E-8	0.002253
9.665000E-8	0.002291
9.670000E-8	0.002428
9.675000E-8	0.002500
9.680000E-8	0.002572
9.685000E-8	0.002728
9.690000E-8	0.002672
9.695000E-8	0.002822
9.700000E-8	0.002844
9.705000E-8	0.002769
9.710000E-8	0.002653
9.715000E-8	0.002816
9.720000E-8	0.002728
9.725000E-8	0.002697
9.730000E-8	0.002538
9.735000E-8	0.002413
9.740000E-8	0.002350
9.745000E-8	0.002316
9.750000E-8	0.002297
9.755000E-8	0.002181
9.760000E-8	0.002203
9.765000E-8	0.002206
9.770000E-8	0.002191
9.775000E-8	0.002322
9.780000E-8	0.002281
9.785000E-8	0.002478
9.790000E-8	0.002494
9.795000E-8	0.002581
9.800000E-8	0.002531
9.805000E-8	0.002516
9.810000E-8	0.002497
9.815000E-8	0.002422
9.820000E-8	0.002416
9.825000E-8	0.002394
9.830000E-8	0.002397
9.835000E-8	0.002356
9.840000E-8	0.002266
9.845000E-8	0.002366
9.850000E-8	0.002281
9.855000E-8	0.002372
9.860000E-8	0.002400
9.865000E-8	0.002394
9.870000E-8	0.002338
9.875000E-8	0.002363
9.880000E-8	0.002344
9.885000E-8	0.002450
9.890000E-8	0.002444
9.895000E-8	0.002431
9.900000E-8	0.002466
9.905000E-8	0.002488
9.910000E-8	0.002550
9.915000E-8	0.002497
9.920000E-8	0.002478
9.925000E-8	0.002500
9.930000E-8	0.002506
9.935000E-8	0.002378
9.940000E-8	0.002366
9.945000E-8	0.002372
9.950000E-8	0.002344
9.955000E-8	0.002356
9.960000E-8	0.002375
9.965000E-8	0.002425
9.970000E-8	0.002372
9.975000E-8	0.002478
9.980000E-8	0.002516
9.985000E-8	0.002484
9.990000E-8	0.002512
9.995000E-8	0.002400
