LabVIEW Measurement	
Writer_Version	2
Reader_Version	2
Separator	Tab
Decimal_Separator	.
Multi_Headings	No
X_Columns	Multi
Time_Pref	Relative
Operator	TG lab
Date	2015/03/06
Time	17:44:30.9556226730346679688
***End_of_Header***	
	
Channels	1	
Samples	2000	
Date	2015/03/06	
Time	17:44:30.9556226730346679688	
X_Dimension	Time	
X0	0.0000000000000000E+0	
Delta_X	5.000000E-11	
***End_of_Header***		
X_Value	Untitled	Comment
0.000000	0.002675
5.000000E-11	0.002591
1.000000E-10	0.002547
1.500000E-10	0.002559
2.000000E-10	0.002591
2.500000E-10	0.002662
3.000000E-10	0.002578
3.500000E-10	0.002669
4.000000E-10	0.002641
4.500000E-10	0.002556
5.000000E-10	0.002469
5.500000E-10	0.002428
6.000000E-10	0.002388
6.500000E-10	0.002306
7.000000E-10	0.002303
7.500000E-10	0.002225
8.000000E-10	0.002172
8.500000E-10	0.002194
9.000000E-10	0.002306
9.500000E-10	0.002344
1.000000E-9	0.002266
1.050000E-9	0.002416
1.100000E-9	0.002344
1.150000E-9	0.002375
1.200000E-9	0.002391
1.250000E-9	0.002381
1.300000E-9	0.002250
1.350000E-9	0.002384
1.400000E-9	0.002381
1.450000E-9	0.002388
1.500000E-9	0.002384
1.550000E-9	0.002434
1.600000E-9	0.002450
1.650000E-9	0.002397
1.700000E-9	0.002431
1.750000E-9	0.002456
1.800000E-9	0.002300
1.850000E-9	0.002303
1.900000E-9	0.002069
1.950000E-9	0.002059
2.000000E-9	0.001966
2.050000E-9	0.002025
2.100000E-9	0.001978
2.150000E-9	0.001988
2.200000E-9	0.002053
2.250000E-9	0.002056
2.300000E-9	0.002000
2.350000E-9	0.002053
2.400000E-9	0.001966
2.450000E-9	0.001975
2.500000E-9	0.001872
2.550000E-9	0.001847
2.600000E-9	0.001791
2.650000E-9	0.001872
2.700000E-9	0.001856
2.750000E-9	0.001931
2.800000E-9	0.001872
2.850000E-9	0.001888
2.900000E-9	0.001881
2.950000E-9	0.001838
3.000000E-9	0.001831
3.050000E-9	0.001763
3.100000E-9	0.001697
3.150000E-9	0.001681
3.200000E-9	0.001509
3.250000E-9	0.001522
3.300000E-9	0.001531
3.350000E-9	0.001513
3.400000E-9	0.001466
3.450000E-9	0.001453
3.500000E-9	0.001416
3.550000E-9	0.001503
3.600000E-9	0.001475
3.650000E-9	0.001625
3.700000E-9	0.001687
3.750000E-9	0.001691
3.800000E-9	0.001584
3.850000E-9	0.001672
3.900000E-9	0.001750
3.950000E-9	0.001675
4.000000E-9	0.001694
4.050000E-9	0.001684
4.100000E-9	0.001800
4.150000E-9	0.001950
4.200000E-9	0.001988
4.250000E-9	0.002197
4.300000E-9	0.002316
4.350000E-9	0.002428
4.400000E-9	0.002569
4.450000E-9	0.002750
4.500000E-9	0.002888
4.550000E-9	0.003003
4.600000E-9	0.002931
4.650000E-9	0.002834
4.700000E-9	0.002575
4.750000E-9	0.001966
4.800000E-9	0.000903
4.850000E-9	-0.000412
4.900000E-9	-0.002278
4.950000E-9	-0.004591
5.000000E-9	-0.007531
5.050000E-9	-0.010603
5.100000E-9	-0.014206
5.150000E-9	-0.017913
5.200000E-9	-0.021612
5.250000E-9	-0.024988
5.300000E-9	-0.028322
5.350000E-9	-0.031244
5.400000E-9	-0.033853
5.450000E-9	-0.035747
5.500000E-9	-0.037397
5.550000E-9	-0.038497
5.600000E-9	-0.039172
5.650000E-9	-0.039137
5.700000E-9	-0.038812
5.750000E-9	-0.037956
5.800000E-9	-0.036669
5.850000E-9	-0.035034
5.900000E-9	-0.033144
5.950000E-9	-0.030913
6.000000E-9	-0.028644
6.050000E-9	-0.026478
6.100000E-9	-0.024494
6.150000E-9	-0.022716
6.200000E-9	-0.021422
6.250000E-9	-0.020444
6.300000E-9	-0.020050
6.350000E-9	-0.019888
6.400000E-9	-0.020169
6.450000E-9	-0.020713
6.500000E-9	-0.021475
6.550000E-9	-0.022309
6.600000E-9	-0.023350
6.650000E-9	-0.024066
6.700000E-9	-0.024728
6.750000E-9	-0.025288
6.800000E-9	-0.025866
6.850000E-9	-0.026056
6.900000E-9	-0.026231
6.950000E-9	-0.025953
7.000000E-9	-0.025456
7.050000E-9	-0.024678
7.100000E-9	-0.023803
7.150000E-9	-0.022581
7.200000E-9	-0.021119
7.250000E-9	-0.019481
7.300000E-9	-0.017794
7.350000E-9	-0.016231
7.400000E-9	-0.014684
7.450000E-9	-0.013200
7.500000E-9	-0.011987
7.550000E-9	-0.011231
7.600000E-9	-0.010794
7.650000E-9	-0.010525
7.700000E-9	-0.010613
7.750000E-9	-0.011097
7.800000E-9	-0.011716
7.850000E-9	-0.012416
7.900000E-9	-0.013306
7.950000E-9	-0.014216
8.000000E-9	-0.015031
8.050000E-9	-0.015784
8.100000E-9	-0.016400
8.150000E-9	-0.016766
8.200000E-9	-0.017144
8.250000E-9	-0.017194
8.300000E-9	-0.016953
8.350000E-9	-0.016494
8.400000E-9	-0.015844
8.450000E-9	-0.014894
8.500000E-9	-0.013953
8.550000E-9	-0.012719
8.600000E-9	-0.011553
8.650000E-9	-0.010319
8.700000E-9	-0.009084
8.750000E-9	-0.007888
8.800000E-9	-0.006988
8.850000E-9	-0.006253
8.900000E-9	-0.005766
8.950000E-9	-0.005372
9.000000E-9	-0.005403
9.050000E-9	-0.005638
9.100000E-9	-0.006119
9.150000E-9	-0.006688
9.200000E-9	-0.007597
9.250000E-9	-0.008328
9.300000E-9	-0.009353
9.350000E-9	-0.010172
9.400000E-9	-0.010975
9.450000E-9	-0.011488
9.500000E-9	-0.011894
9.550000E-9	-0.012078
9.600000E-9	-0.012103
9.650000E-9	-0.011747
9.700000E-9	-0.011331
9.750000E-9	-0.010666
9.800000E-9	-0.009703
9.850000E-9	-0.008828
9.900000E-9	-0.007909
9.950000E-9	-0.006812
1.000000E-8	-0.005772
1.005000E-8	-0.004691
1.010000E-8	-0.003850
1.015000E-8	-0.003012
1.020000E-8	-0.002578
1.025000E-8	-0.002091
1.030000E-8	-0.001928
1.035000E-8	-0.002025
1.040000E-8	-0.002403
1.045000E-8	-0.002828
1.050000E-8	-0.003681
1.055000E-8	-0.004375
1.060000E-8	-0.005181
1.065000E-8	-0.005975
1.070000E-8	-0.006713
1.075000E-8	-0.007338
1.080000E-8	-0.007875
1.085000E-8	-0.008141
1.090000E-8	-0.008316
1.095000E-8	-0.008209
1.100000E-8	-0.008069
1.105000E-8	-0.007597
1.110000E-8	-0.007028
1.115000E-8	-0.006272
1.120000E-8	-0.005444
1.125000E-8	-0.004403
1.130000E-8	-0.003406
1.135000E-8	-0.002491
1.140000E-8	-0.001684
1.145000E-8	-0.000863
1.150000E-8	-0.000219
1.155000E-8	0.000219
1.160000E-8	0.000300
1.165000E-8	0.000313
1.170000E-8	0.000134
1.175000E-8	-0.000300
1.180000E-8	-0.001028
1.185000E-8	-0.001609
1.190000E-8	-0.002463
1.195000E-8	-0.003372
1.200000E-8	-0.004216
1.205000E-8	-0.004972
1.210000E-8	-0.005691
1.215000E-8	-0.006100
1.220000E-8	-0.006381
1.225000E-8	-0.006488
1.230000E-8	-0.006434
1.235000E-8	-0.006088
1.240000E-8	-0.005703
1.245000E-8	-0.005028
1.250000E-8	-0.004284
1.255000E-8	-0.003344
1.260000E-8	-0.002581
1.265000E-8	-0.001697
1.270000E-8	-0.000825
1.275000E-8	0.000109
1.280000E-8	0.000766
1.285000E-8	0.001366
1.290000E-8	0.001800
1.295000E-8	0.002069
1.300000E-8	0.001966
1.305000E-8	0.001709
1.310000E-8	0.001209
1.315000E-8	0.000631
1.320000E-8	-0.000128
1.325000E-8	-0.000969
1.330000E-8	-0.002006
1.335000E-8	-0.002825
1.340000E-8	-0.003753
1.345000E-8	-0.004409
1.350000E-8	-0.004897
1.355000E-8	-0.005197
1.360000E-8	-0.005387
1.365000E-8	-0.005078
1.370000E-8	-0.004803
1.375000E-8	-0.004066
1.380000E-8	-0.003238
1.385000E-8	-0.002284
1.390000E-8	-0.001163
1.395000E-8	-6.562500E-5
1.400000E-8	0.000953
1.405000E-8	0.001928
1.410000E-8	0.002722
1.415000E-8	0.003450
1.420000E-8	0.003722
1.425000E-8	0.003975
1.430000E-8	0.003916
1.435000E-8	0.003678
1.440000E-8	0.003184
1.445000E-8	0.002437
1.450000E-8	0.001556
1.455000E-8	0.000641
1.460000E-8	-0.000488
1.465000E-8	-0.001612
1.470000E-8	-0.002459
1.475000E-8	-0.003241
1.480000E-8	-0.003959
1.485000E-8	-0.004250
1.490000E-8	-0.004272
1.495000E-8	-0.004103
1.500000E-8	-0.003738
1.505000E-8	-0.003053
1.510000E-8	-0.002272
1.515000E-8	-0.001241
1.520000E-8	-0.000234
1.525000E-8	0.000809
1.530000E-8	0.001791
1.535000E-8	0.002756
1.540000E-8	0.003456
1.545000E-8	0.004166
1.550000E-8	0.004519
1.555000E-8	0.004788
1.560000E-8	0.004647
1.565000E-8	0.004381
1.570000E-8	0.003888
1.575000E-8	0.003072
1.580000E-8	0.002275
1.585000E-8	0.001119
1.590000E-8	2.812500E-5
1.595000E-8	-0.000853
1.600000E-8	-0.001750
1.605000E-8	-0.002547
1.610000E-8	-0.003263
1.615000E-8	-0.003556
1.620000E-8	-0.003700
1.625000E-8	-0.003509
1.630000E-8	-0.003131
1.635000E-8	-0.002437
1.640000E-8	-0.001675
1.645000E-8	-0.000688
1.650000E-8	0.000328
1.655000E-8	0.001519
1.660000E-8	0.002603
1.665000E-8	0.003625
1.670000E-8	0.004391
1.675000E-8	0.005022
1.680000E-8	0.005356
1.685000E-8	0.005450
1.690000E-8	0.005284
1.695000E-8	0.005063
1.700000E-8	0.004525
1.705000E-8	0.003803
1.710000E-8	0.002903
1.715000E-8	0.002012
1.720000E-8	0.001069
1.725000E-8	0.000156
1.730000E-8	-0.000697
1.735000E-8	-0.001375
1.740000E-8	-0.002028
1.745000E-8	-0.002269
1.750000E-8	-0.002500
1.755000E-8	-0.002488
1.760000E-8	-0.002188
1.765000E-8	-0.001663
1.770000E-8	-0.000872
1.775000E-8	-2.812500E-5
1.780000E-8	0.000916
1.785000E-8	0.001919
1.790000E-8	0.002809
1.795000E-8	0.003775
1.800000E-8	0.004459
1.805000E-8	0.004994
1.810000E-8	0.005347
1.815000E-8	0.005653
1.820000E-8	0.005516
1.825000E-8	0.005241
1.830000E-8	0.004759
1.835000E-8	0.004053
1.840000E-8	0.003147
1.845000E-8	0.002303
1.850000E-8	0.001219
1.855000E-8	0.000325
1.860000E-8	-0.000578
1.865000E-8	-0.001300
1.870000E-8	-0.001894
1.875000E-8	-0.002247
1.880000E-8	-0.002469
1.885000E-8	-0.002309
1.890000E-8	-0.001956
1.895000E-8	-0.001359
1.900000E-8	-0.000797
1.905000E-8	0.000113
1.910000E-8	0.000984
1.915000E-8	0.001981
1.920000E-8	0.002722
1.925000E-8	0.003644
1.930000E-8	0.004291
1.935000E-8	0.004984
1.940000E-8	0.005378
1.945000E-8	0.005700
1.950000E-8	0.005647
1.955000E-8	0.005522
1.960000E-8	0.005063
1.965000E-8	0.004500
1.970000E-8	0.003609
1.975000E-8	0.002853
1.980000E-8	0.001913
1.985000E-8	0.001038
1.990000E-8	0.000253
1.995000E-8	-0.000419
2.000000E-8	-0.001112
2.005000E-8	-0.001428
2.010000E-8	-0.001778
2.015000E-8	-0.001809
2.020000E-8	-0.001556
2.025000E-8	-0.001088
2.030000E-8	-0.000559
2.035000E-8	0.000181
2.040000E-8	0.000959
2.045000E-8	0.001828
2.050000E-8	0.002622
2.055000E-8	0.003375
2.060000E-8	0.003909
2.065000E-8	0.004556
2.070000E-8	0.004884
2.075000E-8	0.005228
2.080000E-8	0.005237
2.085000E-8	0.005050
2.090000E-8	0.004772
2.095000E-8	0.004356
2.100000E-8	0.003813
2.105000E-8	0.003078
2.110000E-8	0.002322
2.115000E-8	0.001481
2.120000E-8	0.000600
2.125000E-8	-0.000109
2.130000E-8	-0.000769
2.135000E-8	-0.001156
2.140000E-8	-0.001566
2.145000E-8	-0.001744
2.150000E-8	-0.001625
2.155000E-8	-0.001316
2.160000E-8	-0.000894
2.165000E-8	-0.000116
2.170000E-8	0.000706
2.175000E-8	0.001563
2.180000E-8	0.002459
2.185000E-8	0.003206
2.190000E-8	0.003988
2.195000E-8	0.004625
2.200000E-8	0.005025
2.205000E-8	0.005275
2.210000E-8	0.005456
2.215000E-8	0.005344
2.220000E-8	0.005078
2.225000E-8	0.004700
2.230000E-8	0.004109
2.235000E-8	0.003456
2.240000E-8	0.002734
2.245000E-8	0.002034
2.250000E-8	0.001316
2.255000E-8	0.000575
2.260000E-8	-0.000131
2.265000E-8	-0.000647
2.270000E-8	-0.001031
2.275000E-8	-0.001172
2.280000E-8	-0.001244
2.285000E-8	-0.000944
2.290000E-8	-0.000684
2.295000E-8	-5.625000E-5
2.300000E-8	0.000566
2.305000E-8	0.001353
2.310000E-8	0.002131
2.315000E-8	0.002909
2.320000E-8	0.003625
2.325000E-8	0.004266
2.330000E-8	0.004809
2.335000E-8	0.005197
2.340000E-8	0.005325
2.345000E-8	0.005428
2.350000E-8	0.005266
2.355000E-8	0.005003
2.360000E-8	0.004469
2.365000E-8	0.003897
2.370000E-8	0.003141
2.375000E-8	0.002447
2.380000E-8	0.001547
2.385000E-8	0.000847
2.390000E-8	0.000122
2.395000E-8	-0.000409
2.400000E-8	-0.000838
2.405000E-8	-0.001094
2.410000E-8	-0.001184
2.415000E-8	-0.001038
2.420000E-8	-0.000825
2.425000E-8	-0.000163
2.430000E-8	0.000434
2.435000E-8	0.001275
2.440000E-8	0.002009
2.445000E-8	0.002856
2.450000E-8	0.003753
2.455000E-8	0.004488
2.460000E-8	0.005178
2.465000E-8	0.005541
2.470000E-8	0.005725
2.475000E-8	0.005731
2.480000E-8	0.005638
2.485000E-8	0.005169
2.490000E-8	0.004628
2.495000E-8	0.004094
2.500000E-8	0.003350
2.505000E-8	0.002644
2.510000E-8	0.001756
2.515000E-8	0.001038
2.520000E-8	0.000294
2.525000E-8	-0.000231
2.530000E-8	-0.000766
2.535000E-8	-0.000938
2.540000E-8	-0.000991
2.545000E-8	-0.000875
2.550000E-8	-0.000603
2.555000E-8	-0.000116
2.560000E-8	0.000525
2.565000E-8	0.001284
2.570000E-8	0.002188
2.575000E-8	0.002981
2.580000E-8	0.003803
2.585000E-8	0.004534
2.590000E-8	0.005306
2.595000E-8	0.005687
2.600000E-8	0.005991
2.605000E-8	0.006163
2.610000E-8	0.005922
2.615000E-8	0.005581
2.620000E-8	0.005063
2.625000E-8	0.004363
2.630000E-8	0.003369
2.635000E-8	0.002447
2.640000E-8	0.001434
2.645000E-8	0.000569
2.650000E-8	-0.000103
2.655000E-8	-0.000638
2.660000E-8	-0.001150
2.665000E-8	-0.001216
2.670000E-8	-0.001181
2.675000E-8	-0.001006
2.680000E-8	-0.000603
2.685000E-8	-2.812500E-5
2.690000E-8	0.000513
2.695000E-8	0.001259
2.700000E-8	0.001959
2.705000E-8	0.002822
2.710000E-8	0.003534
2.715000E-8	0.004297
2.720000E-8	0.004847
2.725000E-8	0.005213
2.730000E-8	0.005459
2.735000E-8	0.005541
2.740000E-8	0.005528
2.745000E-8	0.005306
2.750000E-8	0.004831
2.755000E-8	0.004350
2.760000E-8	0.003638
2.765000E-8	0.002875
2.770000E-8	0.002131
2.775000E-8	0.001431
2.780000E-8	0.000725
2.785000E-8	0.000191
2.790000E-8	-0.000281
2.795000E-8	-0.000419
2.800000E-8	-0.000616
2.805000E-8	-0.000550
2.810000E-8	-0.000378
2.815000E-8	9.062500E-5
2.820000E-8	0.000659
2.825000E-8	0.001534
2.830000E-8	0.002216
2.835000E-8	0.003141
2.840000E-8	0.003928
2.845000E-8	0.004731
2.850000E-8	0.005194
2.855000E-8	0.005634
2.860000E-8	0.005853
2.865000E-8	0.005894
2.870000E-8	0.005625
2.875000E-8	0.005253
2.880000E-8	0.004741
2.885000E-8	0.004147
2.890000E-8	0.003359
2.895000E-8	0.002731
2.900000E-8	0.002012
2.905000E-8	0.001344
2.910000E-8	0.000813
2.915000E-8	0.000350
2.920000E-8	-3.750000E-5
2.925000E-8	-0.000209
2.930000E-8	-0.000341
2.935000E-8	-0.000250
2.940000E-8	-0.000147
2.945000E-8	0.000281
2.950000E-8	0.000684
2.955000E-8	0.001344
2.960000E-8	0.002012
2.965000E-8	0.002766
2.970000E-8	0.003431
2.975000E-8	0.004188
2.980000E-8	0.004581
2.985000E-8	0.005159
2.990000E-8	0.005428
2.995000E-8	0.005450
3.000000E-8	0.005266
3.005000E-8	0.004978
3.010000E-8	0.004566
3.015000E-8	0.004184
3.020000E-8	0.003644
3.025000E-8	0.002959
3.030000E-8	0.002406
3.035000E-8	0.001753
3.040000E-8	0.001159
3.045000E-8	0.000794
3.050000E-8	0.000416
3.055000E-8	7.812500E-5
3.060000E-8	-0.000106
3.065000E-8	-0.000156
3.070000E-8	-8.437500E-5
3.075000E-8	0.000172
3.080000E-8	0.000584
3.085000E-8	0.001197
3.090000E-8	0.001800
3.095000E-8	0.002575
3.100000E-8	0.003081
3.105000E-8	0.003747
3.110000E-8	0.004247
3.115000E-8	0.004734
3.120000E-8	0.004972
3.125000E-8	0.005178
3.130000E-8	0.005241
3.135000E-8	0.005050
3.140000E-8	0.004728
3.145000E-8	0.004381
3.150000E-8	0.003859
3.155000E-8	0.003303
3.160000E-8	0.002581
3.165000E-8	0.002072
3.170000E-8	0.001531
3.175000E-8	0.001028
3.180000E-8	0.000581
3.185000E-8	0.000297
3.190000E-8	0.000150
3.195000E-8	0.000125
3.200000E-8	0.000350
3.205000E-8	0.000522
3.210000E-8	0.000859
3.215000E-8	0.001331
3.220000E-8	0.001781
3.225000E-8	0.002413
3.230000E-8	0.002909
3.235000E-8	0.003512
3.240000E-8	0.003966
3.245000E-8	0.004497
3.250000E-8	0.004722
3.255000E-8	0.005056
3.260000E-8	0.005041
3.265000E-8	0.005044
3.270000E-8	0.004725
3.275000E-8	0.004322
3.280000E-8	0.003850
3.285000E-8	0.003391
3.290000E-8	0.002716
3.295000E-8	0.001997
3.300000E-8	0.001338
3.305000E-8	0.000913
3.310000E-8	0.000406
3.315000E-8	6.875000E-5
3.320000E-8	-0.000231
3.325000E-8	-0.000250
3.330000E-8	-0.000150
3.335000E-8	0.000113
3.340000E-8	0.000400
3.345000E-8	0.000763
3.350000E-8	0.001322
3.355000E-8	0.001916
3.360000E-8	0.002544
3.365000E-8	0.003213
3.370000E-8	0.003725
3.375000E-8	0.004144
3.380000E-8	0.004581
3.385000E-8	0.004831
3.390000E-8	0.004913
3.395000E-8	0.004872
3.400000E-8	0.004684
3.405000E-8	0.004350
3.410000E-8	0.003853
3.415000E-8	0.003359
3.420000E-8	0.002666
3.425000E-8	0.002016
3.430000E-8	0.001275
3.435000E-8	0.000828
3.440000E-8	0.000309
3.445000E-8	1.562500E-5
3.450000E-8	-4.375000E-5
3.455000E-8	-0.000153
3.460000E-8	-5.000000E-5
3.465000E-8	0.000237
3.470000E-8	0.000603
3.475000E-8	0.001081
3.480000E-8	0.001513
3.485000E-8	0.002159
3.490000E-8	0.002644
3.495000E-8	0.003388
3.500000E-8	0.003809
3.505000E-8	0.004269
3.510000E-8	0.004622
3.515000E-8	0.004953
3.520000E-8	0.004959
3.525000E-8	0.005028
3.530000E-8	0.004791
3.535000E-8	0.004444
3.540000E-8	0.003853
3.545000E-8	0.003325
3.550000E-8	0.002847
3.555000E-8	0.002231
3.560000E-8	0.001628
3.565000E-8	0.001278
3.570000E-8	0.000897
3.575000E-8	0.000556
3.580000E-8	0.000422
3.585000E-8	0.000344
3.590000E-8	0.000350
3.595000E-8	0.000581
3.600000E-8	0.000866
3.605000E-8	0.001319
3.610000E-8	0.001728
3.615000E-8	0.002206
3.620000E-8	0.002684
3.625000E-8	0.003275
3.630000E-8	0.003791
3.635000E-8	0.004303
3.640000E-8	0.004575
3.645000E-8	0.004925
3.650000E-8	0.005019
3.655000E-8	0.005022
3.660000E-8	0.004825
3.665000E-8	0.004519
3.670000E-8	0.004159
3.675000E-8	0.003600
3.680000E-8	0.003012
3.685000E-8	0.002469
3.690000E-8	0.001847
3.695000E-8	0.001394
3.700000E-8	0.000797
3.705000E-8	0.000563
3.710000E-8	0.000325
3.715000E-8	0.000316
3.720000E-8	0.000222
3.725000E-8	0.000528
3.730000E-8	0.000803
3.735000E-8	0.001216
3.740000E-8	0.001713
3.745000E-8	0.002350
3.750000E-8	0.002766
3.755000E-8	0.003313
3.760000E-8	0.003816
3.765000E-8	0.004241
3.770000E-8	0.004569
3.775000E-8	0.004906
3.780000E-8	0.004891
3.785000E-8	0.004828
3.790000E-8	0.004672
3.795000E-8	0.004231
3.800000E-8	0.003750
3.805000E-8	0.003256
3.810000E-8	0.002656
3.815000E-8	0.002209
3.820000E-8	0.001644
3.825000E-8	0.001166
3.830000E-8	0.000800
3.835000E-8	0.000544
3.840000E-8	0.000434
3.845000E-8	0.000388
3.850000E-8	0.000394
3.855000E-8	0.000619
3.860000E-8	0.000969
3.865000E-8	0.001313
3.870000E-8	0.001628
3.875000E-8	0.002100
3.880000E-8	0.002628
3.885000E-8	0.003100
3.890000E-8	0.003606
3.895000E-8	0.003975
3.900000E-8	0.004322
3.905000E-8	0.004494
3.910000E-8	0.004441
3.915000E-8	0.004491
3.920000E-8	0.004347
3.925000E-8	0.004075
3.930000E-8	0.003722
3.935000E-8	0.003350
3.940000E-8	0.002800
3.945000E-8	0.002388
3.950000E-8	0.001875
3.955000E-8	0.001506
3.960000E-8	0.001081
3.965000E-8	0.000788
3.970000E-8	0.000519
3.975000E-8	0.000447
3.980000E-8	0.000509
3.985000E-8	0.000534
3.990000E-8	0.000775
3.995000E-8	0.001112
4.000000E-8	0.001422
4.005000E-8	0.001875
4.010000E-8	0.002294
4.015000E-8	0.002869
4.020000E-8	0.003216
4.025000E-8	0.003600
4.030000E-8	0.004047
4.035000E-8	0.004384
4.040000E-8	0.004481
4.045000E-8	0.004687
4.050000E-8	0.004497
4.055000E-8	0.004450
4.060000E-8	0.004206
4.065000E-8	0.003916
4.070000E-8	0.003503
4.075000E-8	0.003041
4.080000E-8	0.002547
4.085000E-8	0.001944
4.090000E-8	0.001600
4.095000E-8	0.001159
4.100000E-8	0.000794
4.105000E-8	0.000603
4.110000E-8	0.000597
4.115000E-8	0.000772
4.120000E-8	0.000822
4.125000E-8	0.001084
4.130000E-8	0.001488
4.135000E-8	0.001984
4.140000E-8	0.002413
4.145000E-8	0.002850
4.150000E-8	0.003247
4.155000E-8	0.003597
4.160000E-8	0.004053
4.165000E-8	0.004144
4.170000E-8	0.004281
4.175000E-8	0.004366
4.180000E-8	0.004300
4.185000E-8	0.004197
4.190000E-8	0.003913
4.195000E-8	0.003578
4.200000E-8	0.003259
4.205000E-8	0.002794
4.210000E-8	0.002194
4.215000E-8	0.001913
4.220000E-8	0.001428
4.225000E-8	0.001209
4.230000E-8	0.000931
4.235000E-8	0.000863
4.240000E-8	0.000700
4.245000E-8	0.000647
4.250000E-8	0.000688
4.255000E-8	0.000944
4.260000E-8	0.001044
4.265000E-8	0.001375
4.270000E-8	0.001741
4.275000E-8	0.002053
4.280000E-8	0.002450
4.285000E-8	0.002872
4.290000E-8	0.003169
4.295000E-8	0.003641
4.300000E-8	0.003894
4.305000E-8	0.004072
4.310000E-8	0.004163
4.315000E-8	0.004194
4.320000E-8	0.004025
4.325000E-8	0.003797
4.330000E-8	0.003478
4.335000E-8	0.003094
4.340000E-8	0.002775
4.345000E-8	0.002459
4.350000E-8	0.001994
4.355000E-8	0.001719
4.360000E-8	0.001334
4.365000E-8	0.001209
4.370000E-8	0.001106
4.375000E-8	0.001225
4.380000E-8	0.001244
4.385000E-8	0.001431
4.390000E-8	0.001597
4.395000E-8	0.002009
4.400000E-8	0.002300
4.405000E-8	0.002731
4.410000E-8	0.003178
4.415000E-8	0.003541
4.420000E-8	0.003816
4.425000E-8	0.004175
4.430000E-8	0.004441
4.435000E-8	0.004575
4.440000E-8	0.004591
4.445000E-8	0.004481
4.450000E-8	0.004156
4.455000E-8	0.003872
4.460000E-8	0.003453
4.465000E-8	0.003091
4.470000E-8	0.002559
4.475000E-8	0.002213
4.480000E-8	0.001834
4.485000E-8	0.001472
4.490000E-8	0.000991
4.495000E-8	0.000888
4.500000E-8	0.000553
4.505000E-8	0.000441
4.510000E-8	0.000497
4.515000E-8	0.000519
4.520000E-8	0.000728
4.525000E-8	0.001059
4.530000E-8	0.001450
4.535000E-8	0.001966
4.540000E-8	0.002394
4.545000E-8	0.002913
4.550000E-8	0.003453
4.555000E-8	0.003878
4.560000E-8	0.003991
4.565000E-8	0.004262
4.570000E-8	0.004266
4.575000E-8	0.004256
4.580000E-8	0.004147
4.585000E-8	0.003872
4.590000E-8	0.003516
4.595000E-8	0.002969
4.600000E-8	0.002591
4.605000E-8	0.002216
4.610000E-8	0.001756
4.615000E-8	0.001362
4.620000E-8	0.001003
4.625000E-8	0.000863
4.630000E-8	0.000663
4.635000E-8	0.000803
4.640000E-8	0.000828
4.645000E-8	0.001172
4.650000E-8	0.001328
4.655000E-8	0.001706
4.660000E-8	0.002069
4.665000E-8	0.002528
4.670000E-8	0.002784
4.675000E-8	0.003175
4.680000E-8	0.003525
4.685000E-8	0.003706
4.690000E-8	0.003856
4.695000E-8	0.003975
4.700000E-8	0.003975
4.705000E-8	0.003913
4.710000E-8	0.003763
4.715000E-8	0.003619
4.720000E-8	0.003369
4.725000E-8	0.003197
4.730000E-8	0.002769
4.735000E-8	0.002475
4.740000E-8	0.002188
4.745000E-8	0.001906
4.750000E-8	0.001538
4.755000E-8	0.001394
4.760000E-8	0.001269
4.765000E-8	0.001241
4.770000E-8	0.001309
4.775000E-8	0.001369
4.780000E-8	0.001650
4.785000E-8	0.001828
4.790000E-8	0.002156
4.795000E-8	0.002613
4.800000E-8	0.002913
4.805000E-8	0.003341
4.810000E-8	0.003606
4.815000E-8	0.003853
4.820000E-8	0.003869
4.825000E-8	0.004016
4.830000E-8	0.003997
4.835000E-8	0.004022
4.840000E-8	0.003903
4.845000E-8	0.003669
4.850000E-8	0.003303
4.855000E-8	0.003050
4.860000E-8	0.002641
4.865000E-8	0.002331
4.870000E-8	0.002075
4.875000E-8	0.001756
4.880000E-8	0.001488
4.885000E-8	0.001334
4.890000E-8	0.001219
4.895000E-8	0.001144
4.900000E-8	0.001147
4.905000E-8	0.001116
4.910000E-8	0.001400
4.915000E-8	0.001741
4.920000E-8	0.002028
4.925000E-8	0.002391
4.930000E-8	0.002681
4.935000E-8	0.003056
4.940000E-8	0.003331
4.945000E-8	0.003603
4.950000E-8	0.003775
4.955000E-8	0.004078
4.960000E-8	0.004081
4.965000E-8	0.004178
4.970000E-8	0.004150
4.975000E-8	0.003997
4.980000E-8	0.003791
4.985000E-8	0.003441
4.990000E-8	0.003231
4.995000E-8	0.002897
5.000000E-8	0.002478
5.005000E-8	0.002141
5.010000E-8	0.001772
5.015000E-8	0.001603
5.020000E-8	0.001313
5.025000E-8	0.001213
5.030000E-8	0.001112
5.035000E-8	0.001334
5.040000E-8	0.001409
5.045000E-8	0.001647
5.050000E-8	0.001863
5.055000E-8	0.002178
5.060000E-8	0.002587
5.065000E-8	0.002925
5.070000E-8	0.003169
5.075000E-8	0.003309
5.080000E-8	0.003394
5.085000E-8	0.003481
5.090000E-8	0.003372
5.095000E-8	0.003313
5.100000E-8	0.003291
5.105000E-8	0.003200
5.110000E-8	0.003028
5.115000E-8	0.002900
5.120000E-8	0.002741
5.125000E-8	0.002544
5.130000E-8	0.002275
5.135000E-8	0.002156
5.140000E-8	0.001844
5.145000E-8	0.001700
5.150000E-8	0.001497
5.155000E-8	0.001319
5.160000E-8	0.001134
5.165000E-8	0.001259
5.170000E-8	0.001316
5.175000E-8	0.001588
5.180000E-8	0.001753
5.185000E-8	0.002206
5.190000E-8	0.002528
5.195000E-8	0.002847
5.200000E-8	0.003238
5.205000E-8	0.003519
5.210000E-8	0.003791
5.215000E-8	0.004047
5.220000E-8	0.003997
5.225000E-8	0.004087
5.230000E-8	0.003806
5.235000E-8	0.003713
5.240000E-8	0.003381
5.245000E-8	0.003041
5.250000E-8	0.002859
5.255000E-8	0.002463
5.260000E-8	0.002106
5.265000E-8	0.001984
5.270000E-8	0.001666
5.275000E-8	0.001569
5.280000E-8	0.001466
5.285000E-8	0.001359
5.290000E-8	0.001206
5.295000E-8	0.001319
5.300000E-8	0.001409
5.305000E-8	0.001528
5.310000E-8	0.001694
5.315000E-8	0.001959
5.320000E-8	0.002225
5.325000E-8	0.002566
5.330000E-8	0.002856
5.335000E-8	0.003084
5.340000E-8	0.003441
5.345000E-8	0.003591
5.350000E-8	0.003581
5.355000E-8	0.003578
5.360000E-8	0.003550
5.365000E-8	0.003494
5.370000E-8	0.003222
5.375000E-8	0.003031
5.380000E-8	0.002800
5.385000E-8	0.002406
5.390000E-8	0.002141
5.395000E-8	0.001853
5.400000E-8	0.001575
5.405000E-8	0.001394
5.410000E-8	0.001231
5.415000E-8	0.001200
5.420000E-8	0.001125
5.425000E-8	0.001128
5.430000E-8	0.001325
5.435000E-8	0.001538
5.440000E-8	0.001716
5.445000E-8	0.002041
5.450000E-8	0.002409
5.455000E-8	0.002678
5.460000E-8	0.003038
5.465000E-8	0.003369
5.470000E-8	0.003653
5.475000E-8	0.003769
5.480000E-8	0.003838
5.485000E-8	0.003863
5.490000E-8	0.003844
5.495000E-8	0.003838
5.500000E-8	0.003650
5.505000E-8	0.003428
5.510000E-8	0.003109
5.515000E-8	0.002838
5.520000E-8	0.002484
5.525000E-8	0.002156
5.530000E-8	0.001934
5.535000E-8	0.001831
5.540000E-8	0.001553
5.545000E-8	0.001559
5.550000E-8	0.001334
5.555000E-8	0.001453
5.560000E-8	0.001491
5.565000E-8	0.001766
5.570000E-8	0.001828
5.575000E-8	0.002072
5.580000E-8	0.002378
5.585000E-8	0.002766
5.590000E-8	0.002884
5.595000E-8	0.003209
5.600000E-8	0.003419
5.605000E-8	0.003581
5.610000E-8	0.003775
5.615000E-8	0.003753
5.620000E-8	0.003713
5.625000E-8	0.003659
5.630000E-8	0.003422
5.635000E-8	0.003206
5.640000E-8	0.002816
5.645000E-8	0.002544
5.650000E-8	0.002231
5.655000E-8	0.001984
5.660000E-8	0.001759
5.665000E-8	0.001609
5.670000E-8	0.001441
5.675000E-8	0.001359
5.680000E-8	0.001372
5.685000E-8	0.001391
5.690000E-8	0.001566
5.695000E-8	0.001819
5.700000E-8	0.001950
5.705000E-8	0.002244
5.710000E-8	0.002309
5.715000E-8	0.002506
5.720000E-8	0.002744
5.725000E-8	0.003059
5.730000E-8	0.003116
5.735000E-8	0.003253
5.740000E-8	0.003372
5.745000E-8	0.003556
5.750000E-8	0.003594
5.755000E-8	0.003634
5.760000E-8	0.003456
5.765000E-8	0.003272
5.770000E-8	0.003162
5.775000E-8	0.002988
5.780000E-8	0.002728
5.785000E-8	0.002484
5.790000E-8	0.002216
5.795000E-8	0.002081
5.800000E-8	0.001834
5.805000E-8	0.001738
5.810000E-8	0.001656
5.815000E-8	0.001669
5.820000E-8	0.001663
5.825000E-8	0.001763
5.830000E-8	0.001875
5.835000E-8	0.002072
5.840000E-8	0.002244
5.845000E-8	0.002506
5.850000E-8	0.002872
5.855000E-8	0.002900
5.860000E-8	0.003141
5.865000E-8	0.003397
5.870000E-8	0.003431
5.875000E-8	0.003553
5.880000E-8	0.003584
5.885000E-8	0.003484
5.890000E-8	0.003384
5.895000E-8	0.003309
5.900000E-8	0.003025
5.905000E-8	0.002728
5.910000E-8	0.002341
5.915000E-8	0.002147
5.920000E-8	0.001784
5.925000E-8	0.001534
5.930000E-8	0.001397
5.935000E-8	0.001313
5.940000E-8	0.001175
5.945000E-8	0.001297
5.950000E-8	0.001475
5.955000E-8	0.001759
5.960000E-8	0.001925
5.965000E-8	0.002153
5.970000E-8	0.002419
5.975000E-8	0.002906
5.980000E-8	0.003125
5.985000E-8	0.003406
5.990000E-8	0.003494
5.995000E-8	0.003591
6.000000E-8	0.003719
6.005000E-8	0.003675
6.010000E-8	0.003544
6.015000E-8	0.003478
6.020000E-8	0.003331
6.025000E-8	0.003306
6.030000E-8	0.003097
6.035000E-8	0.003031
6.040000E-8	0.002763
6.045000E-8	0.002666
6.050000E-8	0.002444
6.055000E-8	0.002403
6.060000E-8	0.002166
6.065000E-8	0.002000
6.070000E-8	0.001937
6.075000E-8	0.001969
6.080000E-8	0.001950
6.085000E-8	0.001956
6.090000E-8	0.002116
6.095000E-8	0.002297
6.100000E-8	0.002453
6.105000E-8	0.002484
6.110000E-8	0.002813
6.115000E-8	0.002934
6.120000E-8	0.003019
6.125000E-8	0.003116
6.130000E-8	0.003159
6.135000E-8	0.003094
6.140000E-8	0.003038
6.145000E-8	0.003019
6.150000E-8	0.003022
6.155000E-8	0.002928
6.160000E-8	0.002800
6.165000E-8	0.002816
6.170000E-8	0.002625
6.175000E-8	0.002509
6.180000E-8	0.002397
6.185000E-8	0.002294
6.190000E-8	0.002041
6.195000E-8	0.001872
6.200000E-8	0.001691
6.205000E-8	0.001634
6.210000E-8	0.001600
6.215000E-8	0.001578
6.220000E-8	0.001616
6.225000E-8	0.001753
6.230000E-8	0.002009
6.235000E-8	0.002309
6.240000E-8	0.002638
6.245000E-8	0.002928
6.250000E-8	0.003175
6.255000E-8	0.003431
6.260000E-8	0.003475
6.265000E-8	0.003622
6.270000E-8	0.003622
6.275000E-8	0.003616
6.280000E-8	0.003544
6.285000E-8	0.003509
6.290000E-8	0.003303
6.295000E-8	0.003263
6.300000E-8	0.002972
6.305000E-8	0.002891
6.310000E-8	0.002656
6.315000E-8	0.002469
6.320000E-8	0.002338
6.325000E-8	0.002231
6.330000E-8	0.001997
6.335000E-8	0.001972
6.340000E-8	0.001825
6.345000E-8	0.001844
6.350000E-8	0.001944
6.355000E-8	0.001997
6.360000E-8	0.002184
6.365000E-8	0.002400
6.370000E-8	0.002625
6.375000E-8	0.002841
6.380000E-8	0.002959
6.385000E-8	0.003213
6.390000E-8	0.003353
6.395000E-8	0.003522
6.400000E-8	0.003616
6.405000E-8	0.003584
6.410000E-8	0.003556
6.415000E-8	0.003463
6.420000E-8	0.003250
6.425000E-8	0.003159
6.430000E-8	0.002988
6.435000E-8	0.002853
6.440000E-8	0.002478
6.445000E-8	0.002294
6.450000E-8	0.002147
6.455000E-8	0.002072
6.460000E-8	0.001969
6.465000E-8	0.001828
6.470000E-8	0.001763
6.475000E-8	0.001766
6.480000E-8	0.001800
6.485000E-8	0.001978
6.490000E-8	0.002166
6.495000E-8	0.002384
6.500000E-8	0.002506
6.505000E-8	0.002784
6.510000E-8	0.002909
6.515000E-8	0.003184
6.520000E-8	0.003222
6.525000E-8	0.003381
6.530000E-8	0.003313
6.535000E-8	0.003419
6.540000E-8	0.003356
6.545000E-8	0.003259
6.550000E-8	0.003113
6.555000E-8	0.002884
6.560000E-8	0.002644
6.565000E-8	0.002406
6.570000E-8	0.002259
6.575000E-8	0.002084
6.580000E-8	0.001944
6.585000E-8	0.001781
6.590000E-8	0.001638
6.595000E-8	0.001753
6.600000E-8	0.001716
6.605000E-8	0.001903
6.610000E-8	0.001906
6.615000E-8	0.002138
6.620000E-8	0.002272
6.625000E-8	0.002522
6.630000E-8	0.002631
6.635000E-8	0.002909
6.640000E-8	0.003075
6.645000E-8	0.003178
6.650000E-8	0.003259
6.655000E-8	0.003425
6.660000E-8	0.003431
6.665000E-8	0.003447
6.670000E-8	0.003419
6.675000E-8	0.003419
6.680000E-8	0.003225
6.685000E-8	0.003144
6.690000E-8	0.002928
6.695000E-8	0.002775
6.700000E-8	0.002434
6.705000E-8	0.002200
6.710000E-8	0.002000
6.715000E-8	0.001953
6.720000E-8	0.001775
6.725000E-8	0.001725
6.730000E-8	0.001747
6.735000E-8	0.001766
6.740000E-8	0.001678
6.745000E-8	0.001878
6.750000E-8	0.001941
6.755000E-8	0.002059
6.760000E-8	0.002134
6.765000E-8	0.002391
6.770000E-8	0.002434
6.775000E-8	0.002681
6.780000E-8	0.002900
6.785000E-8	0.003006
6.790000E-8	0.003072
6.795000E-8	0.003203
6.800000E-8	0.003194
6.805000E-8	0.003178
6.810000E-8	0.003006
6.815000E-8	0.002928
6.820000E-8	0.002759
6.825000E-8	0.002716
6.830000E-8	0.002434
6.835000E-8	0.002347
6.840000E-8	0.002297
6.845000E-8	0.002253
6.850000E-8	0.002106
6.855000E-8	0.002122
6.860000E-8	0.002063
6.865000E-8	0.002150
6.870000E-8	0.002166
6.875000E-8	0.002275
6.880000E-8	0.002397
6.885000E-8	0.002469
6.890000E-8	0.002644
6.895000E-8	0.002725
6.900000E-8	0.002838
6.905000E-8	0.003000
6.910000E-8	0.003162
6.915000E-8	0.003359
6.920000E-8	0.003303
6.925000E-8	0.003359
6.930000E-8	0.003313
6.935000E-8	0.003291
6.940000E-8	0.003116
6.945000E-8	0.003175
6.950000E-8	0.002959
6.955000E-8	0.002828
6.960000E-8	0.002656
6.965000E-8	0.002534
6.970000E-8	0.002378
6.975000E-8	0.002331
6.980000E-8	0.002291
6.985000E-8	0.002237
6.990000E-8	0.002181
6.995000E-8	0.002259
7.000000E-8	0.002222
7.005000E-8	0.002356
7.010000E-8	0.002278
7.015000E-8	0.002381
7.020000E-8	0.002466
7.025000E-8	0.002625
7.030000E-8	0.002772
7.035000E-8	0.002925
7.040000E-8	0.003034
7.045000E-8	0.003250
7.050000E-8	0.003447
7.055000E-8	0.003609
7.060000E-8	0.003556
7.065000E-8	0.003594
7.070000E-8	0.003447
7.075000E-8	0.003256
7.080000E-8	0.003156
7.085000E-8	0.002863
7.090000E-8	0.002669
7.095000E-8	0.002563
7.100000E-8	0.002306
7.105000E-8	0.002178
7.110000E-8	0.002109
7.115000E-8	0.002022
7.120000E-8	0.001919
7.125000E-8	0.001891
7.130000E-8	0.001991
7.135000E-8	0.002122
7.140000E-8	0.002031
7.145000E-8	0.002297
7.150000E-8	0.002413
7.155000E-8	0.002763
7.160000E-8	0.002906
7.165000E-8	0.003128
7.170000E-8	0.003281
7.175000E-8	0.003381
7.180000E-8	0.003381
7.185000E-8	0.003494
7.190000E-8	0.003341
7.195000E-8	0.003194
7.200000E-8	0.003128
7.205000E-8	0.002913
7.210000E-8	0.002806
7.215000E-8	0.002653
7.220000E-8	0.002506
7.225000E-8	0.002394
7.230000E-8	0.002328
7.235000E-8	0.002306
7.240000E-8	0.002259
7.245000E-8	0.002350
7.250000E-8	0.002341
7.255000E-8	0.002463
7.260000E-8	0.002394
7.265000E-8	0.002316
7.270000E-8	0.002397
7.275000E-8	0.002528
7.280000E-8	0.002506
7.285000E-8	0.002634
7.290000E-8	0.002638
7.295000E-8	0.002741
7.300000E-8	0.002819
7.305000E-8	0.002866
7.310000E-8	0.002922
7.315000E-8	0.002956
7.320000E-8	0.002900
7.325000E-8	0.002881
7.330000E-8	0.002925
7.335000E-8	0.002834
7.340000E-8	0.002847
7.345000E-8	0.002778
7.350000E-8	0.002747
7.355000E-8	0.002656
7.360000E-8	0.002531
7.365000E-8	0.002506
7.370000E-8	0.002450
7.375000E-8	0.002459
7.380000E-8	0.002306
7.385000E-8	0.002219
7.390000E-8	0.002078
7.395000E-8	0.002144
7.400000E-8	0.002078
7.405000E-8	0.002178
7.410000E-8	0.002284
7.415000E-8	0.002369
7.420000E-8	0.002459
7.425000E-8	0.002772
7.430000E-8	0.002894
7.435000E-8	0.003119
7.440000E-8	0.003206
7.445000E-8	0.003338
7.450000E-8	0.003416
7.455000E-8	0.003394
7.460000E-8	0.003259
7.465000E-8	0.003184
7.470000E-8	0.003097
7.475000E-8	0.003041
7.480000E-8	0.002891
7.485000E-8	0.002666
7.490000E-8	0.002350
7.495000E-8	0.002372
7.500000E-8	0.002194
7.505000E-8	0.002138
7.510000E-8	0.001972
7.515000E-8	0.002053
7.520000E-8	0.002047
7.525000E-8	0.001950
7.530000E-8	0.002072
7.535000E-8	0.002306
7.540000E-8	0.002378
7.545000E-8	0.002541
7.550000E-8	0.002716
7.555000E-8	0.002794
7.560000E-8	0.002969
7.565000E-8	0.003034
7.570000E-8	0.003159
7.575000E-8	0.003181
7.580000E-8	0.003128
7.585000E-8	0.003113
7.590000E-8	0.002934
7.595000E-8	0.002941
7.600000E-8	0.002775
7.605000E-8	0.002641
7.610000E-8	0.002653
7.615000E-8	0.002609
7.620000E-8	0.002459
7.625000E-8	0.002400
7.630000E-8	0.002269
7.635000E-8	0.002191
7.640000E-8	0.001947
7.645000E-8	0.001947
7.650000E-8	0.001859
7.655000E-8	0.001800
7.660000E-8	0.001875
7.665000E-8	0.001844
7.670000E-8	0.001888
7.675000E-8	0.002144
7.680000E-8	0.002356
7.685000E-8	0.002656
7.690000E-8	0.002872
7.695000E-8	0.003059
7.700000E-8	0.003066
7.705000E-8	0.003178
7.710000E-8	0.003244
7.715000E-8	0.003175
7.720000E-8	0.003041
7.725000E-8	0.003003
7.730000E-8	0.002888
7.735000E-8	0.002825
7.740000E-8	0.002575
7.745000E-8	0.002497
7.750000E-8	0.002463
7.755000E-8	0.002494
7.760000E-8	0.002453
7.765000E-8	0.002388
7.770000E-8	0.002313
7.775000E-8	0.002297
7.780000E-8	0.002303
7.785000E-8	0.002219
7.790000E-8	0.002275
7.795000E-8	0.002381
7.800000E-8	0.002294
7.805000E-8	0.002463
7.810000E-8	0.002575
7.815000E-8	0.002713
7.820000E-8	0.002759
7.825000E-8	0.002741
7.830000E-8	0.002941
7.835000E-8	0.002981
7.840000E-8	0.003075
7.845000E-8	0.003169
7.850000E-8	0.003078
7.855000E-8	0.003044
7.860000E-8	0.002988
7.865000E-8	0.002934
7.870000E-8	0.002806
7.875000E-8	0.002672
7.880000E-8	0.002538
7.885000E-8	0.002444
7.890000E-8	0.002206
7.895000E-8	0.002300
7.900000E-8	0.002109
7.905000E-8	0.002081
7.910000E-8	0.001931
7.915000E-8	0.001937
7.920000E-8	0.001909
7.925000E-8	0.001969
7.930000E-8	0.002059
7.935000E-8	0.002191
7.940000E-8	0.002288
7.945000E-8	0.002481
7.950000E-8	0.002644
7.955000E-8	0.002791
7.960000E-8	0.002853
7.965000E-8	0.002984
7.970000E-8	0.002922
7.975000E-8	0.002909
7.980000E-8	0.002816
7.985000E-8	0.002747
7.990000E-8	0.002581
7.995000E-8	0.002581
8.000000E-8	0.002488
8.005000E-8	0.002316
8.010000E-8	0.002350
8.015000E-8	0.002288
8.020000E-8	0.002175
8.025000E-8	0.002175
8.030000E-8	0.002050
8.035000E-8	0.001972
8.040000E-8	0.001984
8.045000E-8	0.002081
8.050000E-8	0.001947
8.055000E-8	0.002006
8.060000E-8	0.002122
8.065000E-8	0.002266
8.070000E-8	0.002281
8.075000E-8	0.002581
8.080000E-8	0.002619
8.085000E-8	0.002737
8.090000E-8	0.002916
8.095000E-8	0.002925
8.100000E-8	0.002872
8.105000E-8	0.002863
8.110000E-8	0.002884
8.115000E-8	0.002775
8.120000E-8	0.002622
8.125000E-8	0.002662
8.130000E-8	0.002584
8.135000E-8	0.002619
8.140000E-8	0.002669
8.145000E-8	0.002675
8.150000E-8	0.002541
8.155000E-8	0.002534
8.160000E-8	0.002578
8.165000E-8	0.002469
8.170000E-8	0.002356
8.175000E-8	0.002322
8.180000E-8	0.002263
8.185000E-8	0.002319
8.190000E-8	0.002184
8.195000E-8	0.002366
8.200000E-8	0.002434
8.205000E-8	0.002500
8.210000E-8	0.002469
8.215000E-8	0.002563
8.220000E-8	0.002531
8.225000E-8	0.002631
8.230000E-8	0.002744
8.235000E-8	0.002844
8.240000E-8	0.002803
8.245000E-8	0.002850
8.250000E-8	0.002741
8.255000E-8	0.002737
8.260000E-8	0.002706
8.265000E-8	0.002725
8.270000E-8	0.002662
8.275000E-8	0.002650
8.280000E-8	0.002397
8.285000E-8	0.002381
8.290000E-8	0.002247
8.295000E-8	0.002150
8.300000E-8	0.001978
8.305000E-8	0.002031
8.310000E-8	0.002106
8.315000E-8	0.002100
8.320000E-8	0.002050
8.325000E-8	0.002191
8.330000E-8	0.002275
8.335000E-8	0.002294
8.340000E-8	0.002481
8.345000E-8	0.002644
8.350000E-8	0.002659
8.355000E-8	0.002797
8.360000E-8	0.002828
8.365000E-8	0.002913
8.370000E-8	0.002991
8.375000E-8	0.003003
8.380000E-8	0.002981
8.385000E-8	0.002888
8.390000E-8	0.002828
8.395000E-8	0.002791
8.400000E-8	0.002538
8.405000E-8	0.002422
8.410000E-8	0.002366
8.415000E-8	0.002253
8.420000E-8	0.002159
8.425000E-8	0.002103
8.430000E-8	0.002056
8.435000E-8	0.002144
8.440000E-8	0.002131
8.445000E-8	0.002188
8.450000E-8	0.002194
8.455000E-8	0.002272
8.460000E-8	0.002344
8.465000E-8	0.002528
8.470000E-8	0.002591
8.475000E-8	0.002716
8.480000E-8	0.002737
8.485000E-8	0.002756
8.490000E-8	0.002859
8.495000E-8	0.002809
8.500000E-8	0.002788
8.505000E-8	0.002828
8.510000E-8	0.002653
8.515000E-8	0.002638
8.520000E-8	0.002525
8.525000E-8	0.002519
8.530000E-8	0.002503
8.535000E-8	0.002413
8.540000E-8	0.002303
8.545000E-8	0.002222
8.550000E-8	0.002084
8.555000E-8	0.002141
8.560000E-8	0.001978
8.565000E-8	0.002087
8.570000E-8	0.001978
8.575000E-8	0.001916
8.580000E-8	0.002000
8.585000E-8	0.002131
8.590000E-8	0.002150
8.595000E-8	0.002237
8.600000E-8	0.002300
8.605000E-8	0.002469
8.610000E-8	0.002509
8.615000E-8	0.002763
8.620000E-8	0.002947
8.625000E-8	0.003000
8.630000E-8	0.003000
8.635000E-8	0.002959
8.640000E-8	0.002838
8.645000E-8	0.002869
8.650000E-8	0.002706
8.655000E-8	0.002587
8.660000E-8	0.002484
8.665000E-8	0.002419
8.670000E-8	0.002400
8.675000E-8	0.002484
8.680000E-8	0.002422
8.685000E-8	0.002491
8.690000E-8	0.002400
8.695000E-8	0.002497
8.700000E-8	0.002456
8.705000E-8	0.002656
8.710000E-8	0.002572
8.715000E-8	0.002638
8.720000E-8	0.002506
8.725000E-8	0.002619
8.730000E-8	0.002662
8.735000E-8	0.002756
8.740000E-8	0.002750
8.745000E-8	0.002863
8.750000E-8	0.002925
8.755000E-8	0.003091
8.760000E-8	0.003059
8.765000E-8	0.003134
8.770000E-8	0.003044
8.775000E-8	0.003241
8.780000E-8	0.003200
8.785000E-8	0.003041
8.790000E-8	0.003028
8.795000E-8	0.002988
8.800000E-8	0.002763
8.805000E-8	0.002691
8.810000E-8	0.002516
8.815000E-8	0.002512
8.820000E-8	0.002394
8.825000E-8	0.002441
8.830000E-8	0.002494
8.835000E-8	0.002600
8.840000E-8	0.002706
8.845000E-8	0.002719
8.850000E-8	0.002759
8.855000E-8	0.002963
8.860000E-8	0.002869
8.865000E-8	0.002972
8.870000E-8	0.003078
8.875000E-8	0.003178
8.880000E-8	0.003012
8.885000E-8	0.003075
8.890000E-8	0.002988
8.895000E-8	0.003044
8.900000E-8	0.003016
8.905000E-8	0.002975
8.910000E-8	0.002863
8.915000E-8	0.002781
8.920000E-8	0.002681
8.925000E-8	0.002566
8.930000E-8	0.002428
8.935000E-8	0.002347
8.940000E-8	0.002219
8.945000E-8	0.002278
8.950000E-8	0.002213
8.955000E-8	0.002366
8.960000E-8	0.002294
8.965000E-8	0.002406
8.970000E-8	0.002466
8.975000E-8	0.002534
8.980000E-8	0.002569
8.985000E-8	0.002763
8.990000E-8	0.002816
8.995000E-8	0.002963
9.000000E-8	0.003009
9.005000E-8	0.003125
9.010000E-8	0.003106
9.015000E-8	0.003131
9.020000E-8	0.003162
9.025000E-8	0.003244
9.030000E-8	0.003122
9.035000E-8	0.003166
9.040000E-8	0.003034
9.045000E-8	0.002966
9.050000E-8	0.002953
9.055000E-8	0.003003
9.060000E-8	0.002731
9.065000E-8	0.002769
9.070000E-8	0.002700
9.075000E-8	0.002725
9.080000E-8	0.002613
9.085000E-8	0.002634
9.090000E-8	0.002563
9.095000E-8	0.002603
9.100000E-8	0.002600
9.105000E-8	0.002731
9.110000E-8	0.002747
9.115000E-8	0.002834
9.120000E-8	0.002744
9.125000E-8	0.002838
9.130000E-8	0.002828
9.135000E-8	0.002888
9.140000E-8	0.002866
9.145000E-8	0.002853
9.150000E-8	0.002750
9.155000E-8	0.002716
9.160000E-8	0.002759
9.165000E-8	0.002706
9.170000E-8	0.002628
9.175000E-8	0.002684
9.180000E-8	0.002606
9.185000E-8	0.002541
9.190000E-8	0.002397
9.195000E-8	0.002469
9.200000E-8	0.002419
9.205000E-8	0.002497
9.210000E-8	0.002306
9.215000E-8	0.002341
9.220000E-8	0.002413
9.225000E-8	0.002434
9.230000E-8	0.002437
9.235000E-8	0.002447
9.240000E-8	0.002575
9.245000E-8	0.002666
9.250000E-8	0.002713
9.255000E-8	0.002763
9.260000E-8	0.002869
9.265000E-8	0.002953
9.270000E-8	0.002928
9.275000E-8	0.003044
9.280000E-8	0.002981
9.285000E-8	0.003053
9.290000E-8	0.002941
9.295000E-8	0.002938
9.300000E-8	0.002753
9.305000E-8	0.002619
9.310000E-8	0.002538
9.315000E-8	0.002453
9.320000E-8	0.002381
9.325000E-8	0.002403
9.330000E-8	0.002313
9.335000E-8	0.002237
9.340000E-8	0.002244
9.345000E-8	0.002253
9.350000E-8	0.002237
9.355000E-8	0.002319
9.360000E-8	0.002309
9.365000E-8	0.002403
9.370000E-8	0.002413
9.375000E-8	0.002444
9.380000E-8	0.002494
9.385000E-8	0.002594
9.390000E-8	0.002541
9.395000E-8	0.002656
9.400000E-8	0.002694
9.405000E-8	0.002700
9.410000E-8	0.002697
9.415000E-8	0.002656
9.420000E-8	0.002600
9.425000E-8	0.002759
9.430000E-8	0.002747
9.435000E-8	0.002794
9.440000E-8	0.002737
9.445000E-8	0.002638
9.450000E-8	0.002531
9.455000E-8	0.002541
9.460000E-8	0.002575
9.465000E-8	0.002606
9.470000E-8	0.002469
9.475000E-8	0.002488
9.480000E-8	0.002413
9.485000E-8	0.002441
9.490000E-8	0.002456
9.495000E-8	0.002550
9.500000E-8	0.002478
9.505000E-8	0.002494
9.510000E-8	0.002481
9.515000E-8	0.002538
9.520000E-8	0.002600
9.525000E-8	0.002584
9.530000E-8	0.002591
9.535000E-8	0.002713
9.540000E-8	0.002622
9.545000E-8	0.002675
9.550000E-8	0.002650
9.555000E-8	0.002697
9.560000E-8	0.002613
9.565000E-8	0.002697
9.570000E-8	0.002569
9.575000E-8	0.002575
9.580000E-8	0.002603
9.585000E-8	0.002666
9.590000E-8	0.002519
9.595000E-8	0.002597
9.600000E-8	0.002594
9.605000E-8	0.002572
9.610000E-8	0.002453
9.615000E-8	0.002375
9.620000E-8	0.002334
9.625000E-8	0.002353
9.630000E-8	0.002416
9.635000E-8	0.002375
9.640000E-8	0.002369
9.645000E-8	0.002384
9.650000E-8	0.002416
9.655000E-8	0.002566
9.660000E-8	0.002581
9.665000E-8	0.002728
9.670000E-8	0.002731
9.675000E-8	0.002913
9.680000E-8	0.002916
9.685000E-8	0.002963
9.690000E-8	0.002872
9.695000E-8	0.002722
9.700000E-8	0.002659
9.705000E-8	0.002650
9.710000E-8	0.002381
9.715000E-8	0.002334
9.720000E-8	0.002203
9.725000E-8	0.002125
9.730000E-8	0.002100
9.735000E-8	0.002066
9.740000E-8	0.002009
9.745000E-8	0.002097
9.750000E-8	0.002059
9.755000E-8	0.002200
9.760000E-8	0.002325
9.765000E-8	0.002416
9.770000E-8	0.002509
9.775000E-8	0.002669
9.780000E-8	0.002709
9.785000E-8	0.002766
9.790000E-8	0.002797
9.795000E-8	0.002822
9.800000E-8	0.002866
9.805000E-8	0.002794
9.810000E-8	0.002778
9.815000E-8	0.002838
9.820000E-8	0.002703
9.825000E-8	0.002700
9.830000E-8	0.002747
9.835000E-8	0.002672
9.840000E-8	0.002694
9.845000E-8	0.002725
9.850000E-8	0.002622
9.855000E-8	0.002613
9.860000E-8	0.002478
9.865000E-8	0.002488
9.870000E-8	0.002509
9.875000E-8	0.002528
9.880000E-8	0.002522
9.885000E-8	0.002544
9.890000E-8	0.002500
9.895000E-8	0.002650
9.900000E-8	0.002634
9.905000E-8	0.002763
9.910000E-8	0.002856
9.915000E-8	0.003000
9.920000E-8	0.003009
9.925000E-8	0.002947
9.930000E-8	0.002900
9.935000E-8	0.002866
9.940000E-8	0.002784
9.945000E-8	0.002831
9.950000E-8	0.002788
9.955000E-8	0.002791
9.960000E-8	0.002659
9.965000E-8	0.002534
9.970000E-8	0.002428
9.975000E-8	0.002516
9.980000E-8	0.002350
9.985000E-8	0.002306
9.990000E-8	0.002222
9.995000E-8	0.002228
