LabVIEW Measurement	
Writer_Version	2
Reader_Version	2
Separator	Tab
Decimal_Separator	.
Multi_Headings	No
X_Columns	Multi
Time_Pref	Relative
Operator	TG lab
Date	2015/03/06
Time	16:10:41.2356209754943847656
***End_of_Header***	
	
Channels	1	
Samples	2000	
Date	2015/03/06	
Time	16:10:41.2356209754943847656	
X_Dimension	Time	
X0	0.0000000000000000E+0	
Delta_X	5.000000E-11	
***End_of_Header***		
X_Value	Untitled	Comment
0.000000	0.002181
5.000000E-11	0.002338
1.000000E-10	0.002253
1.500000E-10	0.002288
2.000000E-10	0.002363
2.500000E-10	0.002538
3.000000E-10	0.002606
3.500000E-10	0.002497
4.000000E-10	0.002437
4.500000E-10	0.002416
5.000000E-10	0.002347
5.500000E-10	0.002219
6.000000E-10	0.002309
6.500000E-10	0.002316
7.000000E-10	0.002241
7.500000E-10	0.002244
8.000000E-10	0.002147
8.500000E-10	0.002162
9.000000E-10	0.002056
9.500000E-10	0.002075
1.000000E-9	0.002019
1.050000E-9	0.002056
1.100000E-9	0.002044
1.150000E-9	0.002128
1.200000E-9	0.002138
1.250000E-9	0.002184
1.300000E-9	0.002084
1.350000E-9	0.002156
1.400000E-9	0.002178
1.450000E-9	0.002144
1.500000E-9	0.001928
1.550000E-9	0.001894
1.600000E-9	0.001834
1.650000E-9	0.001853
1.700000E-9	0.001709
1.750000E-9	0.001772
1.800000E-9	0.001816
1.850000E-9	0.001825
1.900000E-9	0.001894
1.950000E-9	0.002097
2.000000E-9	0.002044
2.050000E-9	0.002219
2.100000E-9	0.002084
2.150000E-9	0.002269
2.200000E-9	0.002278
2.250000E-9	0.002209
2.300000E-9	0.002131
2.350000E-9	0.002144
2.400000E-9	0.002181
2.450000E-9	0.002234
2.500000E-9	0.002078
2.550000E-9	0.002162
2.600000E-9	0.002134
2.650000E-9	0.002206
2.700000E-9	0.002291
2.750000E-9	0.002344
2.800000E-9	0.002300
2.850000E-9	0.002325
2.900000E-9	0.002288
2.950000E-9	0.002288
3.000000E-9	0.002175
3.050000E-9	0.002231
3.100000E-9	0.002119
3.150000E-9	0.002191
3.200000E-9	0.002194
3.250000E-9	0.002197
3.300000E-9	0.002213
3.350000E-9	0.002294
3.400000E-9	0.002169
3.450000E-9	0.002253
3.500000E-9	0.002237
3.550000E-9	0.002241
3.600000E-9	0.002231
3.650000E-9	0.002272
3.700000E-9	0.002209
3.750000E-9	0.002350
3.800000E-9	0.002359
3.850000E-9	0.002388
3.900000E-9	0.002266
3.950000E-9	0.002272
4.000000E-9	0.002325
4.050000E-9	0.002328
4.100000E-9	0.002237
4.150000E-9	0.002250
4.200000E-9	0.002209
4.250000E-9	0.002331
4.300000E-9	0.002325
4.350000E-9	0.002384
4.400000E-9	0.002434
4.450000E-9	0.002481
4.500000E-9	0.002453
4.550000E-9	0.002600
4.600000E-9	0.002603
4.650000E-9	0.002609
4.700000E-9	0.002700
4.750000E-9	0.002788
4.800000E-9	0.002713
4.850000E-9	0.002856
4.900000E-9	0.003006
4.950000E-9	0.003006
5.000000E-9	0.003056
5.050000E-9	0.003009
5.100000E-9	0.002944
5.150000E-9	0.002944
5.200000E-9	0.002847
5.250000E-9	0.002931
5.300000E-9	0.002875
5.350000E-9	0.002872
5.400000E-9	0.002891
5.450000E-9	0.002950
5.500000E-9	0.002941
5.550000E-9	0.003113
5.600000E-9	0.003016
5.650000E-9	0.003147
5.700000E-9	0.003091
5.750000E-9	0.003250
5.800000E-9	0.003394
5.850000E-9	0.003453
5.900000E-9	0.003322
5.950000E-9	0.003409
6.000000E-9	0.003384
6.050000E-9	0.003375
6.100000E-9	0.003303
6.150000E-9	0.003306
6.200000E-9	0.003256
6.250000E-9	0.003263
6.300000E-9	0.003175
6.350000E-9	0.003084
6.400000E-9	0.003038
6.450000E-9	0.003119
6.500000E-9	0.003138
6.550000E-9	0.003228
6.600000E-9	0.003238
6.650000E-9	0.003309
6.700000E-9	0.003353
6.750000E-9	0.003469
6.800000E-9	0.003481
6.850000E-9	0.003569
6.900000E-9	0.003656
6.950000E-9	0.003916
7.000000E-9	0.004063
7.050000E-9	0.004278
7.100000E-9	0.004553
7.150000E-9	0.004881
7.200000E-9	0.005184
7.250000E-9	0.005638
7.300000E-9	0.006247
7.350000E-9	0.006988
7.400000E-9	0.007841
7.450000E-9	0.008903
7.500000E-9	0.010047
7.550000E-9	0.011384
7.600000E-9	0.012691
7.650000E-9	0.014209
7.700000E-9	0.015672
7.750000E-9	0.017144
7.800000E-9	0.018456
7.850000E-9	0.019662
7.900000E-9	0.020706
7.950000E-9	0.021625
8.000000E-9	0.022656
8.050000E-9	0.023703
8.100000E-9	0.024666
8.150000E-9	0.025766
8.200000E-9	0.026859
8.250000E-9	0.027959
8.300000E-9	0.029113
8.350000E-9	0.029969
8.400000E-9	0.030613
8.450000E-9	0.031109
8.500000E-9	0.031122
8.550000E-9	0.030784
8.600000E-9	0.029969
8.650000E-9	0.028766
8.700000E-9	0.027253
8.750000E-9	0.025603
8.800000E-9	0.023591
8.850000E-9	0.021725
8.900000E-9	0.019991
8.950000E-9	0.018494
9.000000E-9	0.017394
9.050000E-9	0.016781
9.100000E-9	0.016353
9.150000E-9	0.016475
9.200000E-9	0.016856
9.250000E-9	0.017597
9.300000E-9	0.018281
9.350000E-9	0.018872
9.400000E-9	0.019259
9.450000E-9	0.019506
9.500000E-9	0.019316
9.550000E-9	0.018838
9.600000E-9	0.018016
9.650000E-9	0.017047
9.700000E-9	0.015738
9.750000E-9	0.014353
9.800000E-9	0.012994
9.850000E-9	0.011716
9.900000E-9	0.010694
9.950000E-9	0.009959
1.000000E-8	0.009466
1.005000E-8	0.009134
1.010000E-8	0.009300
1.015000E-8	0.009794
1.020000E-8	0.010391
1.025000E-8	0.011159
1.030000E-8	0.011741
1.035000E-8	0.012309
1.040000E-8	0.012769
1.045000E-8	0.013012
1.050000E-8	0.012772
1.055000E-8	0.012409
1.060000E-8	0.011913
1.065000E-8	0.011125
1.070000E-8	0.010169
1.075000E-8	0.009137
1.080000E-8	0.008175
1.085000E-8	0.007381
1.090000E-8	0.006719
1.095000E-8	0.006234
1.100000E-8	0.006066
1.105000E-8	0.006166
1.110000E-8	0.006456
1.115000E-8	0.007003
1.120000E-8	0.007591
1.125000E-8	0.008306
1.130000E-8	0.008847
1.135000E-8	0.009288
1.140000E-8	0.009650
1.145000E-8	0.009928
1.150000E-8	0.009734
1.155000E-8	0.009388
1.160000E-8	0.008803
1.165000E-8	0.008162
1.170000E-8	0.007400
1.175000E-8	0.006544
1.180000E-8	0.005675
1.185000E-8	0.005091
1.190000E-8	0.004466
1.195000E-8	0.004166
1.200000E-8	0.003947
1.205000E-8	0.003984
1.210000E-8	0.004313
1.215000E-8	0.004816
1.220000E-8	0.005350
1.225000E-8	0.005900
1.230000E-8	0.006522
1.235000E-8	0.007128
1.240000E-8	0.007459
1.245000E-8	0.007656
1.250000E-8	0.007603
1.255000E-8	0.007297
1.260000E-8	0.006847
1.265000E-8	0.006128
1.270000E-8	0.005391
1.275000E-8	0.004556
1.280000E-8	0.003728
1.285000E-8	0.002978
1.290000E-8	0.002459
1.295000E-8	0.002259
1.300000E-8	0.002138
1.305000E-8	0.002416
1.310000E-8	0.002800
1.315000E-8	0.003500
1.320000E-8	0.004250
1.325000E-8	0.004975
1.330000E-8	0.005556
1.335000E-8	0.006128
1.340000E-8	0.006475
1.345000E-8	0.006622
1.350000E-8	0.006434
1.355000E-8	0.006063
1.360000E-8	0.005666
1.365000E-8	0.005013
1.370000E-8	0.004250
1.375000E-8	0.003647
1.380000E-8	0.003041
1.385000E-8	0.002522
1.390000E-8	0.002075
1.395000E-8	0.002009
1.400000E-8	0.002009
1.405000E-8	0.002203
1.410000E-8	0.002616
1.415000E-8	0.003109
1.420000E-8	0.003706
1.425000E-8	0.004328
1.430000E-8	0.004859
1.435000E-8	0.005353
1.440000E-8	0.005825
1.445000E-8	0.006031
1.450000E-8	0.005875
1.455000E-8	0.005581
1.460000E-8	0.004969
1.465000E-8	0.004281
1.470000E-8	0.003506
1.475000E-8	0.002759
1.480000E-8	0.001959
1.485000E-8	0.001334
1.490000E-8	0.000909
1.495000E-8	0.000672
1.500000E-8	0.000734
1.505000E-8	0.001041
1.510000E-8	0.001547
1.515000E-8	0.002378
1.520000E-8	0.003034
1.525000E-8	0.003847
1.530000E-8	0.004588
1.535000E-8	0.005088
1.540000E-8	0.005253
1.545000E-8	0.005359
1.550000E-8	0.005166
1.555000E-8	0.004703
1.560000E-8	0.003956
1.565000E-8	0.003269
1.570000E-8	0.002297
1.575000E-8	0.001622
1.580000E-8	0.000975
1.585000E-8	0.000541
1.590000E-8	0.000397
1.595000E-8	0.000466
1.600000E-8	0.000769
1.605000E-8	0.001331
1.610000E-8	0.002034
1.615000E-8	0.002797
1.620000E-8	0.003622
1.625000E-8	0.004394
1.630000E-8	0.004994
1.635000E-8	0.005469
1.640000E-8	0.005450
1.645000E-8	0.005456
1.650000E-8	0.004978
1.655000E-8	0.004431
1.660000E-8	0.003691
1.665000E-8	0.002806
1.670000E-8	0.001959
1.675000E-8	0.001172
1.680000E-8	0.000681
1.685000E-8	0.000475
1.690000E-8	0.000338
1.695000E-8	0.000612
1.700000E-8	0.001053
1.705000E-8	0.001659
1.710000E-8	0.002363
1.715000E-8	0.003153
1.720000E-8	0.003797
1.725000E-8	0.004328
1.730000E-8	0.004653
1.735000E-8	0.004863
1.740000E-8	0.004784
1.745000E-8	0.004472
1.750000E-8	0.003894
1.755000E-8	0.003272
1.760000E-8	0.002559
1.765000E-8	0.001784
1.770000E-8	0.001109
1.775000E-8	0.000559
1.780000E-8	0.000184
1.785000E-8	0.000113
1.790000E-8	0.000259
1.795000E-8	0.000722
1.800000E-8	0.001056
1.805000E-8	0.001781
1.810000E-8	0.002463
1.815000E-8	0.003284
1.820000E-8	0.003850
1.825000E-8	0.004353
1.830000E-8	0.004662
1.835000E-8	0.004697
1.840000E-8	0.004447
1.845000E-8	0.004072
1.850000E-8	0.003350
1.855000E-8	0.002784
1.860000E-8	0.002106
1.865000E-8	0.001588
1.870000E-8	0.000869
1.875000E-8	0.000588
1.880000E-8	0.000416
1.885000E-8	0.000531
1.890000E-8	0.000625
1.895000E-8	0.001169
1.900000E-8	0.001684
1.905000E-8	0.002297
1.910000E-8	0.003063
1.915000E-8	0.003738
1.920000E-8	0.004163
1.925000E-8	0.004550
1.930000E-8	0.004744
1.935000E-8	0.004753
1.940000E-8	0.004456
1.945000E-8	0.004050
1.950000E-8	0.003522
1.955000E-8	0.002913
1.960000E-8	0.002237
1.965000E-8	0.001544
1.970000E-8	0.001094
1.975000E-8	0.000788
1.980000E-8	0.000609
1.985000E-8	0.000678
1.990000E-8	0.001034
1.995000E-8	0.001497
2.000000E-8	0.002153
2.005000E-8	0.002872
2.010000E-8	0.003544
2.015000E-8	0.004078
2.020000E-8	0.004478
2.025000E-8	0.004797
2.030000E-8	0.004666
2.035000E-8	0.004575
2.040000E-8	0.004172
2.045000E-8	0.003587
2.050000E-8	0.002997
2.055000E-8	0.002328
2.060000E-8	0.001659
2.065000E-8	0.001172
2.070000E-8	0.000722
2.075000E-8	0.000572
2.080000E-8	0.000541
2.085000E-8	0.000659
2.090000E-8	0.001028
2.095000E-8	0.001463
2.100000E-8	0.002128
2.105000E-8	0.002781
2.110000E-8	0.003309
2.115000E-8	0.003844
2.120000E-8	0.004206
2.125000E-8	0.004387
2.130000E-8	0.004300
2.135000E-8	0.004166
2.140000E-8	0.003816
2.145000E-8	0.003238
2.150000E-8	0.002525
2.155000E-8	0.001906
2.160000E-8	0.001234
2.165000E-8	0.000694
2.170000E-8	0.000269
2.175000E-8	0.000144
2.180000E-8	0.000241
2.185000E-8	0.000463
2.190000E-8	0.000975
2.195000E-8	0.001550
2.200000E-8	0.002113
2.205000E-8	0.002916
2.210000E-8	0.003478
2.215000E-8	0.004100
2.220000E-8	0.004234
2.225000E-8	0.004406
2.230000E-8	0.004150
2.235000E-8	0.003897
2.240000E-8	0.003453
2.245000E-8	0.002728
2.250000E-8	0.002056
2.255000E-8	0.001538
2.260000E-8	0.000984
2.265000E-8	0.000678
2.270000E-8	0.000284
2.275000E-8	0.000197
2.280000E-8	0.000297
2.285000E-8	0.000841
2.290000E-8	0.001228
2.295000E-8	0.001906
2.300000E-8	0.002463
2.305000E-8	0.003259
2.310000E-8	0.003656
2.315000E-8	0.004150
2.320000E-8	0.004291
2.325000E-8	0.004184
2.330000E-8	0.003991
2.335000E-8	0.003622
2.340000E-8	0.002866
2.345000E-8	0.002206
2.350000E-8	0.001500
2.355000E-8	0.000909
2.360000E-8	0.000503
2.365000E-8	0.000341
2.370000E-8	0.000275
2.375000E-8	0.000463
2.380000E-8	0.000691
2.385000E-8	0.001147
2.390000E-8	0.001641
2.395000E-8	0.002325
2.400000E-8	0.002903
2.405000E-8	0.003528
2.410000E-8	0.003875
2.415000E-8	0.004097
2.420000E-8	0.004119
2.425000E-8	0.003909
2.430000E-8	0.003547
2.435000E-8	0.003081
2.440000E-8	0.002459
2.445000E-8	0.001891
2.450000E-8	0.001250
2.455000E-8	0.000913
2.460000E-8	0.000606
2.465000E-8	0.000403
2.470000E-8	0.000472
2.475000E-8	0.000803
2.480000E-8	0.001072
2.485000E-8	0.001663
2.490000E-8	0.002253
2.495000E-8	0.002800
2.500000E-8	0.003244
2.505000E-8	0.003656
2.510000E-8	0.003962
2.515000E-8	0.003981
2.520000E-8	0.003741
2.525000E-8	0.003509
2.530000E-8	0.003175
2.535000E-8	0.002625
2.540000E-8	0.002003
2.545000E-8	0.001550
2.550000E-8	0.001047
2.555000E-8	0.000863
2.560000E-8	0.000666
2.565000E-8	0.000663
2.570000E-8	0.000834
2.575000E-8	0.001309
2.580000E-8	0.001684
2.585000E-8	0.002138
2.590000E-8	0.002544
2.595000E-8	0.003053
2.600000E-8	0.003484
2.605000E-8	0.003794
2.610000E-8	0.003922
2.615000E-8	0.003984
2.620000E-8	0.003800
2.625000E-8	0.003569
2.630000E-8	0.003131
2.635000E-8	0.002653
2.640000E-8	0.002034
2.645000E-8	0.001506
2.650000E-8	0.001097
2.655000E-8	0.000772
2.660000E-8	0.000441
2.665000E-8	0.000491
2.670000E-8	0.000656
2.675000E-8	0.000897
2.680000E-8	0.001225
2.685000E-8	0.001684
2.690000E-8	0.002184
2.695000E-8	0.002778
2.700000E-8	0.003209
2.705000E-8	0.003484
2.710000E-8	0.003525
2.715000E-8	0.003491
2.720000E-8	0.003353
2.725000E-8	0.003122
2.730000E-8	0.002747
2.735000E-8	0.002300
2.740000E-8	0.001725
2.745000E-8	0.001272
2.750000E-8	0.000872
2.755000E-8	0.000634
2.760000E-8	0.000550
2.765000E-8	0.000703
2.770000E-8	0.000916
2.775000E-8	0.001291
2.780000E-8	0.001700
2.785000E-8	0.002300
2.790000E-8	0.002844
2.795000E-8	0.003309
2.800000E-8	0.003681
2.805000E-8	0.003872
2.810000E-8	0.003872
2.815000E-8	0.003716
2.820000E-8	0.003494
2.825000E-8	0.003175
2.830000E-8	0.002575
2.835000E-8	0.002269
2.840000E-8	0.001772
2.845000E-8	0.001341
2.850000E-8	0.001112
2.855000E-8	0.000975
2.860000E-8	0.000931
2.865000E-8	0.001081
2.870000E-8	0.001241
2.875000E-8	0.001531
2.880000E-8	0.001800
2.885000E-8	0.002263
2.890000E-8	0.002522
2.895000E-8	0.002903
2.900000E-8	0.003228
2.905000E-8	0.003388
2.910000E-8	0.003403
2.915000E-8	0.003175
2.920000E-8	0.002963
2.925000E-8	0.002678
2.930000E-8	0.002178
2.935000E-8	0.001888
2.940000E-8	0.001453
2.945000E-8	0.001041
2.950000E-8	0.000816
2.955000E-8	0.000769
2.960000E-8	0.000694
2.965000E-8	0.000841
2.970000E-8	0.001122
2.975000E-8	0.001497
2.980000E-8	0.001934
2.985000E-8	0.002384
2.990000E-8	0.002881
2.995000E-8	0.003178
3.000000E-8	0.003269
3.005000E-8	0.003459
3.010000E-8	0.003363
3.015000E-8	0.003256
3.020000E-8	0.003006
3.025000E-8	0.002500
3.030000E-8	0.002009
3.035000E-8	0.001703
3.040000E-8	0.001272
3.045000E-8	0.001109
3.050000E-8	0.000888
3.055000E-8	0.000953
3.060000E-8	0.001041
3.065000E-8	0.001413
3.070000E-8	0.001831
3.075000E-8	0.002266
3.080000E-8	0.002800
3.085000E-8	0.003128
3.090000E-8	0.003528
3.095000E-8	0.003972
3.100000E-8	0.003988
3.105000E-8	0.004069
3.110000E-8	0.003819
3.115000E-8	0.003453
3.120000E-8	0.002959
3.125000E-8	0.002572
3.130000E-8	0.001953
3.135000E-8	0.001437
3.140000E-8	0.001003
3.145000E-8	0.000797
3.150000E-8	0.000641
3.155000E-8	0.000753
3.160000E-8	0.000922
3.165000E-8	0.001263
3.170000E-8	0.001709
3.175000E-8	0.002241
3.180000E-8	0.002709
3.185000E-8	0.003169
3.190000E-8	0.003466
3.195000E-8	0.003563
3.200000E-8	0.003728
3.205000E-8	0.003647
3.210000E-8	0.003294
3.215000E-8	0.002891
3.220000E-8	0.002563
3.225000E-8	0.002094
3.230000E-8	0.001559
3.235000E-8	0.001247
3.240000E-8	0.001006
3.245000E-8	0.000922
3.250000E-8	0.000894
3.255000E-8	0.001059
3.260000E-8	0.001450
3.265000E-8	0.001888
3.270000E-8	0.002291
3.275000E-8	0.002919
3.280000E-8	0.003184
3.285000E-8	0.003356
3.290000E-8	0.003522
3.295000E-8	0.003575
3.300000E-8	0.003391
3.305000E-8	0.003197
3.310000E-8	0.002794
3.315000E-8	0.002441
3.320000E-8	0.001963
3.325000E-8	0.001606
3.330000E-8	0.001206
3.335000E-8	0.001047
3.340000E-8	0.000916
3.345000E-8	0.001019
3.350000E-8	0.001122
3.355000E-8	0.001353
3.360000E-8	0.001681
3.365000E-8	0.002100
3.370000E-8	0.002413
3.375000E-8	0.002784
3.380000E-8	0.003119
3.385000E-8	0.003369
3.390000E-8	0.003347
3.395000E-8	0.003431
3.400000E-8	0.003238
3.405000E-8	0.003047
3.410000E-8	0.002578
3.415000E-8	0.002294
3.420000E-8	0.001847
3.425000E-8	0.001500
3.430000E-8	0.001234
3.435000E-8	0.000972
3.440000E-8	0.000856
3.445000E-8	0.001000
3.450000E-8	0.001078
3.455000E-8	0.001428
3.460000E-8	0.001722
3.465000E-8	0.002078
3.470000E-8	0.002344
3.475000E-8	0.002737
3.480000E-8	0.003019
3.485000E-8	0.003238
3.490000E-8	0.003347
3.495000E-8	0.003331
3.500000E-8	0.003091
3.505000E-8	0.002941
3.510000E-8	0.002688
3.515000E-8	0.002316
3.520000E-8	0.001900
3.525000E-8	0.001516
3.530000E-8	0.001234
3.535000E-8	0.001141
3.540000E-8	0.001169
3.545000E-8	0.001234
3.550000E-8	0.001463
3.555000E-8	0.001659
3.560000E-8	0.002031
3.565000E-8	0.002459
3.570000E-8	0.002969
3.575000E-8	0.003266
3.580000E-8	0.003406
3.585000E-8	0.003581
3.590000E-8	0.003450
3.595000E-8	0.003381
3.600000E-8	0.003166
3.605000E-8	0.002891
3.610000E-8	0.002253
3.615000E-8	0.001897
3.620000E-8	0.001581
3.625000E-8	0.001316
3.630000E-8	0.001128
3.635000E-8	0.001050
3.640000E-8	0.001084
3.645000E-8	0.001216
3.650000E-8	0.001500
3.655000E-8	0.001878
3.660000E-8	0.002200
3.665000E-8	0.002575
3.670000E-8	0.002878
3.675000E-8	0.003128
3.680000E-8	0.003341
3.685000E-8	0.003375
3.690000E-8	0.003344
3.695000E-8	0.003162
3.700000E-8	0.002859
3.705000E-8	0.002653
3.710000E-8	0.002241
3.715000E-8	0.001959
3.720000E-8	0.001766
3.725000E-8	0.001566
3.730000E-8	0.001347
3.735000E-8	0.001328
3.740000E-8	0.001469
3.745000E-8	0.001550
3.750000E-8	0.001728
3.755000E-8	0.002069
3.760000E-8	0.002363
3.765000E-8	0.002803
3.770000E-8	0.003028
3.775000E-8	0.003331
3.780000E-8	0.003463
3.785000E-8	0.003456
3.790000E-8	0.003209
3.795000E-8	0.003069
3.800000E-8	0.002731
3.805000E-8	0.002563
3.810000E-8	0.002181
3.815000E-8	0.002006
3.820000E-8	0.001759
3.825000E-8	0.001703
3.830000E-8	0.001419
3.835000E-8	0.001437
3.840000E-8	0.001547
3.845000E-8	0.001784
3.850000E-8	0.002031
3.855000E-8	0.002356
3.860000E-8	0.002597
3.865000E-8	0.002881
3.870000E-8	0.002969
3.875000E-8	0.003156
3.880000E-8	0.003134
3.885000E-8	0.003059
3.890000E-8	0.002950
3.895000E-8	0.002800
3.900000E-8	0.002431
3.905000E-8	0.002128
3.910000E-8	0.001725
3.915000E-8	0.001500
3.920000E-8	0.001369
3.925000E-8	0.001216
3.930000E-8	0.001222
3.935000E-8	0.001306
3.940000E-8	0.001428
3.945000E-8	0.001666
3.950000E-8	0.001966
3.955000E-8	0.002356
3.960000E-8	0.002681
3.965000E-8	0.003034
3.970000E-8	0.003188
3.975000E-8	0.003369
3.980000E-8	0.003372
3.985000E-8	0.003222
3.990000E-8	0.003012
3.995000E-8	0.002759
4.000000E-8	0.002281
4.005000E-8	0.001928
4.010000E-8	0.001531
4.015000E-8	0.001378
4.020000E-8	0.001144
4.025000E-8	0.001038
4.030000E-8	0.001088
4.035000E-8	0.001366
4.040000E-8	0.001556
4.045000E-8	0.001988
4.050000E-8	0.002284
4.055000E-8	0.002619
4.060000E-8	0.002931
4.065000E-8	0.003209
4.070000E-8	0.003250
4.075000E-8	0.003384
4.080000E-8	0.003356
4.085000E-8	0.003250
4.090000E-8	0.003122
4.095000E-8	0.003031
4.100000E-8	0.002766
4.105000E-8	0.002409
4.110000E-8	0.002056
4.115000E-8	0.001859
4.120000E-8	0.001641
4.125000E-8	0.001575
4.130000E-8	0.001528
4.135000E-8	0.001594
4.140000E-8	0.001738
4.145000E-8	0.001922
4.150000E-8	0.002109
4.155000E-8	0.002272
4.160000E-8	0.002481
4.165000E-8	0.002669
4.170000E-8	0.002753
4.175000E-8	0.002669
4.180000E-8	0.002631
4.185000E-8	0.002569
4.190000E-8	0.002350
4.195000E-8	0.002213
4.200000E-8	0.001825
4.205000E-8	0.001656
4.210000E-8	0.001422
4.215000E-8	0.001281
4.220000E-8	0.001131
4.225000E-8	0.001144
4.230000E-8	0.001238
4.235000E-8	0.001497
4.240000E-8	0.001681
4.245000E-8	0.001988
4.250000E-8	0.002237
4.255000E-8	0.002638
4.260000E-8	0.002759
4.265000E-8	0.003022
4.270000E-8	0.003047
4.275000E-8	0.002938
4.280000E-8	0.002759
4.285000E-8	0.002691
4.290000E-8	0.002444
4.295000E-8	0.002259
4.300000E-8	0.002047
4.305000E-8	0.001872
4.310000E-8	0.001556
4.315000E-8	0.001384
4.320000E-8	0.001356
4.325000E-8	0.001459
4.330000E-8	0.001594
4.335000E-8	0.001838
4.340000E-8	0.002050
4.345000E-8	0.002234
4.350000E-8	0.002469
4.355000E-8	0.002791
4.360000E-8	0.002925
4.365000E-8	0.002994
4.370000E-8	0.003078
4.375000E-8	0.003119
4.380000E-8	0.002931
4.385000E-8	0.002581
4.390000E-8	0.002359
4.395000E-8	0.001919
4.400000E-8	0.001575
4.405000E-8	0.001416
4.410000E-8	0.001325
4.415000E-8	0.001334
4.420000E-8	0.001444
4.425000E-8	0.001466
4.430000E-8	0.001731
4.435000E-8	0.002056
4.440000E-8	0.002319
4.445000E-8	0.002484
4.450000E-8	0.002756
4.455000E-8	0.002928
4.460000E-8	0.003022
4.465000E-8	0.003006
4.470000E-8	0.002947
4.475000E-8	0.002863
4.480000E-8	0.002741
4.485000E-8	0.002509
4.490000E-8	0.002309
4.495000E-8	0.002047
4.500000E-8	0.001859
4.505000E-8	0.001678
4.510000E-8	0.001625
4.515000E-8	0.001544
4.520000E-8	0.001559
4.525000E-8	0.001738
4.530000E-8	0.001900
4.535000E-8	0.002241
4.540000E-8	0.002453
4.545000E-8	0.002719
4.550000E-8	0.002719
4.555000E-8	0.002822
4.560000E-8	0.002881
4.565000E-8	0.002809
4.570000E-8	0.002719
4.575000E-8	0.002600
4.580000E-8	0.002328
4.585000E-8	0.002100
4.590000E-8	0.001875
4.595000E-8	0.001666
4.600000E-8	0.001656
4.605000E-8	0.001475
4.610000E-8	0.001528
4.615000E-8	0.001663
4.620000E-8	0.001803
4.625000E-8	0.001975
4.630000E-8	0.002166
4.635000E-8	0.002456
4.640000E-8	0.002662
4.645000E-8	0.002850
4.650000E-8	0.002981
4.655000E-8	0.003103
4.660000E-8	0.003053
4.665000E-8	0.003063
4.670000E-8	0.002878
4.675000E-8	0.002625
4.680000E-8	0.002338
4.685000E-8	0.002134
4.690000E-8	0.001859
4.695000E-8	0.001594
4.700000E-8	0.001378
4.705000E-8	0.001319
4.710000E-8	0.001238
4.715000E-8	0.001391
4.720000E-8	0.001463
4.725000E-8	0.001725
4.730000E-8	0.001888
4.735000E-8	0.002175
4.740000E-8	0.002425
4.745000E-8	0.002666
4.750000E-8	0.002713
4.755000E-8	0.002775
4.760000E-8	0.002737
4.765000E-8	0.002672
4.770000E-8	0.002447
4.775000E-8	0.002247
4.780000E-8	0.002028
4.785000E-8	0.001850
4.790000E-8	0.001719
4.795000E-8	0.001581
4.800000E-8	0.001516
4.805000E-8	0.001669
4.810000E-8	0.001694
4.815000E-8	0.001856
4.820000E-8	0.002047
4.825000E-8	0.002259
4.830000E-8	0.002378
4.835000E-8	0.002494
4.840000E-8	0.002584
4.845000E-8	0.002566
4.850000E-8	0.002638
4.855000E-8	0.002644
4.860000E-8	0.002478
4.865000E-8	0.002328
4.870000E-8	0.002147
4.875000E-8	0.002050
4.880000E-8	0.001869
4.885000E-8	0.001672
4.890000E-8	0.001466
4.895000E-8	0.001397
4.900000E-8	0.001397
4.905000E-8	0.001547
4.910000E-8	0.001612
4.915000E-8	0.001728
4.920000E-8	0.001966
4.925000E-8	0.002213
4.930000E-8	0.002381
4.935000E-8	0.002666
4.940000E-8	0.002803
4.945000E-8	0.003000
4.950000E-8	0.003063
4.955000E-8	0.003041
4.960000E-8	0.002934
4.965000E-8	0.002828
4.970000E-8	0.002512
4.975000E-8	0.002313
4.980000E-8	0.001984
4.985000E-8	0.001872
4.990000E-8	0.001656
4.995000E-8	0.001509
5.000000E-8	0.001437
5.005000E-8	0.001441
5.010000E-8	0.001444
5.015000E-8	0.001666
5.020000E-8	0.001759
5.025000E-8	0.002041
5.030000E-8	0.002328
5.035000E-8	0.002522
5.040000E-8	0.002709
5.045000E-8	0.002794
5.050000E-8	0.002700
5.055000E-8	0.002669
5.060000E-8	0.002603
5.065000E-8	0.002441
5.070000E-8	0.002106
5.075000E-8	0.001994
5.080000E-8	0.001687
5.085000E-8	0.001566
5.090000E-8	0.001381
5.095000E-8	0.001284
5.100000E-8	0.001181
5.105000E-8	0.001234
5.110000E-8	0.001425
5.115000E-8	0.001575
5.120000E-8	0.001709
5.125000E-8	0.002000
5.130000E-8	0.002263
5.135000E-8	0.002628
5.140000E-8	0.002850
5.145000E-8	0.002834
5.150000E-8	0.002872
5.155000E-8	0.002841
5.160000E-8	0.002600
5.165000E-8	0.002469
5.170000E-8	0.002247
5.175000E-8	0.001978
5.180000E-8	0.001628
5.185000E-8	0.001500
5.190000E-8	0.001359
5.195000E-8	0.001350
5.200000E-8	0.001403
5.205000E-8	0.001644
5.210000E-8	0.001797
5.215000E-8	0.001931
5.220000E-8	0.002131
5.225000E-8	0.002431
5.230000E-8	0.002656
5.235000E-8	0.002653
5.240000E-8	0.002750
5.245000E-8	0.002806
5.250000E-8	0.002694
5.255000E-8	0.002681
5.260000E-8	0.002472
5.265000E-8	0.002431
5.270000E-8	0.002159
5.275000E-8	0.002116
5.280000E-8	0.001825
5.285000E-8	0.001681
5.290000E-8	0.001591
5.295000E-8	0.001612
5.300000E-8	0.001638
5.305000E-8	0.001794
5.310000E-8	0.001925
5.315000E-8	0.002109
5.320000E-8	0.001997
5.325000E-8	0.002153
5.330000E-8	0.002269
5.335000E-8	0.002331
5.340000E-8	0.002313
5.345000E-8	0.002259
5.350000E-8	0.002153
5.355000E-8	0.002078
5.360000E-8	0.001847
5.365000E-8	0.001831
5.370000E-8	0.001650
5.375000E-8	0.001650
5.380000E-8	0.001566
5.385000E-8	0.001550
5.390000E-8	0.001516
5.395000E-8	0.001697
5.400000E-8	0.001838
5.405000E-8	0.001984
5.410000E-8	0.002078
5.415000E-8	0.002194
5.420000E-8	0.002269
5.425000E-8	0.002475
5.430000E-8	0.002531
5.435000E-8	0.002603
5.440000E-8	0.002641
5.445000E-8	0.002550
5.450000E-8	0.002428
5.455000E-8	0.002409
5.460000E-8	0.002353
5.465000E-8	0.002191
5.470000E-8	0.001994
5.475000E-8	0.002016
5.480000E-8	0.001988
5.485000E-8	0.001997
5.490000E-8	0.002009
5.495000E-8	0.002147
5.500000E-8	0.002106
5.505000E-8	0.002216
5.510000E-8	0.002244
5.515000E-8	0.002294
5.520000E-8	0.002388
5.525000E-8	0.002509
5.530000E-8	0.002681
5.535000E-8	0.002781
5.540000E-8	0.002709
5.545000E-8	0.002744
5.550000E-8	0.002716
5.555000E-8	0.002534
5.560000E-8	0.002472
5.565000E-8	0.002350
5.570000E-8	0.002128
5.575000E-8	0.001934
5.580000E-8	0.001663
5.585000E-8	0.001759
5.590000E-8	0.001559
5.595000E-8	0.001694
5.600000E-8	0.001709
5.605000E-8	0.001828
5.610000E-8	0.001972
5.615000E-8	0.002166
5.620000E-8	0.002300
5.625000E-8	0.002425
5.630000E-8	0.002553
5.635000E-8	0.002613
5.640000E-8	0.002628
5.645000E-8	0.002691
5.650000E-8	0.002434
5.655000E-8	0.002281
5.660000E-8	0.002125
5.665000E-8	0.001872
5.670000E-8	0.001656
5.675000E-8	0.001453
5.680000E-8	0.001306
5.685000E-8	0.001375
5.690000E-8	0.001316
5.695000E-8	0.001319
5.700000E-8	0.001563
5.705000E-8	0.001859
5.710000E-8	0.001909
5.715000E-8	0.002162
5.720000E-8	0.002381
5.725000E-8	0.002675
5.730000E-8	0.002688
5.735000E-8	0.002709
5.740000E-8	0.002697
5.745000E-8	0.002466
5.750000E-8	0.002234
5.755000E-8	0.002128
5.760000E-8	0.001937
5.765000E-8	0.001844
5.770000E-8	0.001834
5.775000E-8	0.001684
5.780000E-8	0.001703
5.785000E-8	0.001863
5.790000E-8	0.001872
5.795000E-8	0.002063
5.800000E-8	0.002066
5.805000E-8	0.002206
5.810000E-8	0.002266
5.815000E-8	0.002434
5.820000E-8	0.002544
5.825000E-8	0.002600
5.830000E-8	0.002597
5.835000E-8	0.002563
5.840000E-8	0.002409
5.845000E-8	0.002413
5.850000E-8	0.002266
5.855000E-8	0.002078
5.860000E-8	0.001909
5.865000E-8	0.001809
5.870000E-8	0.001625
5.875000E-8	0.001516
5.880000E-8	0.001381
5.885000E-8	0.001538
5.890000E-8	0.001506
5.895000E-8	0.001628
5.900000E-8	0.001806
5.905000E-8	0.002050
5.910000E-8	0.002169
5.915000E-8	0.002197
5.920000E-8	0.002297
5.925000E-8	0.002213
5.930000E-8	0.002203
5.935000E-8	0.002250
5.940000E-8	0.002172
5.945000E-8	0.002087
5.950000E-8	0.001956
5.955000E-8	0.001781
5.960000E-8	0.001728
5.965000E-8	0.001713
5.970000E-8	0.001612
5.975000E-8	0.001672
5.980000E-8	0.001806
5.985000E-8	0.001922
5.990000E-8	0.002053
5.995000E-8	0.002119
6.000000E-8	0.002263
6.005000E-8	0.002456
6.010000E-8	0.002522
6.015000E-8	0.002609
6.020000E-8	0.002747
6.025000E-8	0.002859
6.030000E-8	0.002850
6.035000E-8	0.002803
6.040000E-8	0.002616
6.045000E-8	0.002628
6.050000E-8	0.002406
6.055000E-8	0.002278
6.060000E-8	0.002228
6.065000E-8	0.002006
6.070000E-8	0.001841
6.075000E-8	0.001863
6.080000E-8	0.001888
6.085000E-8	0.002019
6.090000E-8	0.002125
6.095000E-8	0.002272
6.100000E-8	0.002319
6.105000E-8	0.002550
6.110000E-8	0.002572
6.115000E-8	0.002613
6.120000E-8	0.002584
6.125000E-8	0.002550
6.130000E-8	0.002359
6.135000E-8	0.002366
6.140000E-8	0.002181
6.145000E-8	0.002100
6.150000E-8	0.001922
6.155000E-8	0.001891
6.160000E-8	0.001941
6.165000E-8	0.001859
6.170000E-8	0.001703
6.175000E-8	0.001897
6.180000E-8	0.001797
6.185000E-8	0.001841
6.190000E-8	0.001900
6.195000E-8	0.001956
6.200000E-8	0.002009
6.205000E-8	0.002006
6.210000E-8	0.002041
6.215000E-8	0.002188
6.220000E-8	0.002209
6.225000E-8	0.002334
6.230000E-8	0.002291
6.235000E-8	0.002225
6.240000E-8	0.002100
6.245000E-8	0.002138
6.250000E-8	0.001969
6.255000E-8	0.001944
6.260000E-8	0.001728
6.265000E-8	0.001725
6.270000E-8	0.001672
6.275000E-8	0.001672
6.280000E-8	0.001772
6.285000E-8	0.001847
6.290000E-8	0.001984
6.295000E-8	0.002072
6.300000E-8	0.002125
6.305000E-8	0.002125
6.310000E-8	0.002241
6.315000E-8	0.002297
6.320000E-8	0.002297
6.325000E-8	0.002347
6.330000E-8	0.002256
6.335000E-8	0.002319
6.340000E-8	0.002300
6.345000E-8	0.002216
6.350000E-8	0.002131
6.355000E-8	0.002159
6.360000E-8	0.001991
6.365000E-8	0.002034
6.370000E-8	0.001816
6.375000E-8	0.001884
6.380000E-8	0.001913
6.385000E-8	0.002103
6.390000E-8	0.002209
6.395000E-8	0.002237
6.400000E-8	0.002369
6.405000E-8	0.002516
6.410000E-8	0.002606
6.415000E-8	0.002553
6.420000E-8	0.002544
6.425000E-8	0.002553
6.430000E-8	0.002481
6.435000E-8	0.002363
6.440000E-8	0.002244
6.445000E-8	0.002222
6.450000E-8	0.001941
6.455000E-8	0.001894
6.460000E-8	0.001919
6.465000E-8	0.001900
6.470000E-8	0.001741
6.475000E-8	0.001919
6.480000E-8	0.001856
6.485000E-8	0.001897
6.490000E-8	0.002028
6.495000E-8	0.002294
6.500000E-8	0.002388
6.505000E-8	0.002378
6.510000E-8	0.002372
6.515000E-8	0.002428
6.520000E-8	0.002403
6.525000E-8	0.002331
6.530000E-8	0.002184
6.535000E-8	0.002128
6.540000E-8	0.002053
6.545000E-8	0.001903
6.550000E-8	0.001894
6.555000E-8	0.001909
6.560000E-8	0.001881
6.565000E-8	0.001981
6.570000E-8	0.002003
6.575000E-8	0.002066
6.580000E-8	0.002213
6.585000E-8	0.002388
6.590000E-8	0.002409
6.595000E-8	0.002572
6.600000E-8	0.002616
6.605000E-8	0.002659
6.610000E-8	0.002688
6.615000E-8	0.002719
6.620000E-8	0.002653
6.625000E-8	0.002600
6.630000E-8	0.002478
6.635000E-8	0.002394
6.640000E-8	0.002225
6.645000E-8	0.002134
6.650000E-8	0.002100
6.655000E-8	0.002081
6.660000E-8	0.002053
6.665000E-8	0.002063
6.670000E-8	0.002063
6.675000E-8	0.002256
6.680000E-8	0.002253
6.685000E-8	0.002475
6.690000E-8	0.002575
6.695000E-8	0.002728
6.700000E-8	0.002650
6.705000E-8	0.002522
6.710000E-8	0.002472
6.715000E-8	0.002509
6.720000E-8	0.002375
6.725000E-8	0.002216
6.730000E-8	0.001975
6.735000E-8	0.001963
6.740000E-8	0.001800
6.745000E-8	0.001759
6.750000E-8	0.001788
6.755000E-8	0.001881
6.760000E-8	0.001759
6.765000E-8	0.001919
6.770000E-8	0.001988
6.775000E-8	0.002063
6.780000E-8	0.002197
6.785000E-8	0.002166
6.790000E-8	0.002294
6.795000E-8	0.002516
6.800000E-8	0.002525
6.805000E-8	0.002553
6.810000E-8	0.002512
6.815000E-8	0.002528
6.820000E-8	0.002397
6.825000E-8	0.002381
6.830000E-8	0.002256
6.835000E-8	0.002156
6.840000E-8	0.002063
6.845000E-8	0.001981
6.850000E-8	0.001919
6.855000E-8	0.001991
6.860000E-8	0.001859
6.865000E-8	0.001891
6.870000E-8	0.001919
6.875000E-8	0.001988
6.880000E-8	0.002078
6.885000E-8	0.002156
6.890000E-8	0.002194
6.895000E-8	0.002266
6.900000E-8	0.002322
6.905000E-8	0.002481
6.910000E-8	0.002563
6.915000E-8	0.002488
6.920000E-8	0.002331
6.925000E-8	0.002350
6.930000E-8	0.002256
6.935000E-8	0.002144
6.940000E-8	0.001897
6.945000E-8	0.001934
6.950000E-8	0.001984
6.955000E-8	0.001897
6.960000E-8	0.001834
6.965000E-8	0.001834
6.970000E-8	0.001978
6.975000E-8	0.002034
6.980000E-8	0.002063
6.985000E-8	0.002113
6.990000E-8	0.002150
6.995000E-8	0.002153
7.000000E-8	0.002084
7.005000E-8	0.002069
7.010000E-8	0.002084
7.015000E-8	0.002162
7.020000E-8	0.002034
7.025000E-8	0.002081
7.030000E-8	0.001956
7.035000E-8	0.001916
7.040000E-8	0.001850
7.045000E-8	0.001872
7.050000E-8	0.001819
7.055000E-8	0.001881
7.060000E-8	0.001875
7.065000E-8	0.001828
7.070000E-8	0.001834
7.075000E-8	0.002009
7.080000E-8	0.002075
7.085000E-8	0.002162
7.090000E-8	0.002147
7.095000E-8	0.002241
7.100000E-8	0.002278
7.105000E-8	0.002125
7.110000E-8	0.002125
7.115000E-8	0.002022
7.120000E-8	0.001972
7.125000E-8	0.001900
7.130000E-8	0.001966
7.135000E-8	0.001925
7.140000E-8	0.001888
7.145000E-8	0.001875
7.150000E-8	0.001806
7.155000E-8	0.002003
7.160000E-8	0.001928
7.165000E-8	0.001991
7.170000E-8	0.002128
7.175000E-8	0.002209
7.180000E-8	0.002278
7.185000E-8	0.002400
7.190000E-8	0.002409
7.195000E-8	0.002475
7.200000E-8	0.002253
7.205000E-8	0.002341
7.210000E-8	0.002225
7.215000E-8	0.002225
7.220000E-8	0.002128
7.225000E-8	0.002016
7.230000E-8	0.001941
7.235000E-8	0.002019
7.240000E-8	0.001941
7.245000E-8	0.002069
7.250000E-8	0.002131
7.255000E-8	0.002113
7.260000E-8	0.002125
7.265000E-8	0.002172
7.270000E-8	0.002144
7.275000E-8	0.002191
7.280000E-8	0.002222
7.285000E-8	0.002275
7.290000E-8	0.002297
7.295000E-8	0.002253
7.300000E-8	0.002269
7.305000E-8	0.002209
7.310000E-8	0.002113
7.315000E-8	0.002178
7.320000E-8	0.002025
7.325000E-8	0.002012
7.330000E-8	0.001944
7.335000E-8	0.001947
7.340000E-8	0.001866
7.345000E-8	0.001847
7.350000E-8	0.001881
7.355000E-8	0.001856
7.360000E-8	0.001822
7.365000E-8	0.001891
7.370000E-8	0.001925
7.375000E-8	0.002094
7.380000E-8	0.002122
7.385000E-8	0.002259
7.390000E-8	0.002237
7.395000E-8	0.002194
7.400000E-8	0.002131
7.405000E-8	0.002119
7.410000E-8	0.002053
7.415000E-8	0.001947
7.420000E-8	0.001950
7.425000E-8	0.002056
7.430000E-8	0.001969
7.435000E-8	0.002084
7.440000E-8	0.002153
7.445000E-8	0.002256
7.450000E-8	0.002394
7.455000E-8	0.002591
7.460000E-8	0.002653
7.465000E-8	0.002756
7.470000E-8	0.002769
7.475000E-8	0.002747
7.480000E-8	0.002759
7.485000E-8	0.002725
7.490000E-8	0.002566
7.495000E-8	0.002587
7.500000E-8	0.002397
7.505000E-8	0.002397
7.510000E-8	0.002284
7.515000E-8	0.002122
7.520000E-8	0.002000
7.525000E-8	0.002028
7.530000E-8	0.001891
7.535000E-8	0.002016
7.540000E-8	0.002000
7.545000E-8	0.002166
7.550000E-8	0.002213
7.555000E-8	0.002350
7.560000E-8	0.002403
7.565000E-8	0.002522
7.570000E-8	0.002497
7.575000E-8	0.002638
7.580000E-8	0.002550
7.585000E-8	0.002503
7.590000E-8	0.002397
7.595000E-8	0.002306
7.600000E-8	0.002159
7.605000E-8	0.002200
7.610000E-8	0.002000
7.615000E-8	0.002044
7.620000E-8	0.001900
7.625000E-8	0.001906
7.630000E-8	0.001928
7.635000E-8	0.001950
7.640000E-8	0.001897
7.645000E-8	0.001894
7.650000E-8	0.001888
7.655000E-8	0.001991
7.660000E-8	0.001991
7.665000E-8	0.002028
7.670000E-8	0.002022
7.675000E-8	0.002072
7.680000E-8	0.002138
7.685000E-8	0.002213
7.690000E-8	0.002031
7.695000E-8	0.002272
7.700000E-8	0.002225
7.705000E-8	0.002275
7.710000E-8	0.002197
7.715000E-8	0.002166
7.720000E-8	0.002128
7.725000E-8	0.002200
7.730000E-8	0.002119
7.735000E-8	0.002197
7.740000E-8	0.002041
7.745000E-8	0.002175
7.750000E-8	0.002184
7.755000E-8	0.002203
7.760000E-8	0.002319
7.765000E-8	0.002437
7.770000E-8	0.002394
7.775000E-8	0.002378
7.780000E-8	0.002447
7.785000E-8	0.002534
7.790000E-8	0.002400
7.795000E-8	0.002475
7.800000E-8	0.002375
7.805000E-8	0.002313
7.810000E-8	0.002153
7.815000E-8	0.002178
7.820000E-8	0.002097
7.825000E-8	0.001997
7.830000E-8	0.001956
7.835000E-8	0.001916
7.840000E-8	0.001916
7.845000E-8	0.002094
7.850000E-8	0.002094
7.855000E-8	0.002159
7.860000E-8	0.002259
7.865000E-8	0.002316
7.870000E-8	0.002328
7.875000E-8	0.002278
7.880000E-8	0.002188
7.885000E-8	0.002237
7.890000E-8	0.002084
7.895000E-8	0.002097
7.900000E-8	0.002044
7.905000E-8	0.002003
7.910000E-8	0.001909
7.915000E-8	0.001841
7.920000E-8	0.001900
7.925000E-8	0.001916
7.930000E-8	0.001956
7.935000E-8	0.001913
7.940000E-8	0.001916
7.945000E-8	0.001966
7.950000E-8	0.002019
7.955000E-8	0.002047
7.960000E-8	0.002069
7.965000E-8	0.002053
7.970000E-8	0.002119
7.975000E-8	0.002194
7.980000E-8	0.002141
7.985000E-8	0.002159
7.990000E-8	0.002175
7.995000E-8	0.002269
8.000000E-8	0.002087
8.005000E-8	0.002131
8.010000E-8	0.002100
8.015000E-8	0.002097
8.020000E-8	0.002022
8.025000E-8	0.001953
8.030000E-8	0.001916
8.035000E-8	0.001959
8.040000E-8	0.001934
8.045000E-8	0.001947
8.050000E-8	0.002047
8.055000E-8	0.002006
8.060000E-8	0.002087
8.065000E-8	0.002206
8.070000E-8	0.002197
8.075000E-8	0.002300
8.080000E-8	0.002288
8.085000E-8	0.002397
8.090000E-8	0.002416
8.095000E-8	0.002300
8.100000E-8	0.002191
8.105000E-8	0.002188
8.110000E-8	0.002200
8.115000E-8	0.002263
8.120000E-8	0.002219
8.125000E-8	0.002263
8.130000E-8	0.002284
8.135000E-8	0.002372
8.140000E-8	0.002388
8.145000E-8	0.002466
8.150000E-8	0.002497
8.155000E-8	0.002469
8.160000E-8	0.002484
8.165000E-8	0.002563
8.170000E-8	0.002587
8.175000E-8	0.002541
8.180000E-8	0.002466
8.185000E-8	0.002359
8.190000E-8	0.002256
8.195000E-8	0.002175
8.200000E-8	0.002144
8.205000E-8	0.002241
8.210000E-8	0.002122
8.215000E-8	0.002106
8.220000E-8	0.002188
8.225000E-8	0.002038
8.230000E-8	0.002019
8.235000E-8	0.002116
8.240000E-8	0.002106
8.245000E-8	0.002156
8.250000E-8	0.001991
8.255000E-8	0.001981
8.260000E-8	0.002097
8.265000E-8	0.002159
8.270000E-8	0.002109
8.275000E-8	0.002150
8.280000E-8	0.002038
8.285000E-8	0.002044
8.290000E-8	0.001944
8.295000E-8	0.001947
8.300000E-8	0.001791
8.305000E-8	0.001778
8.310000E-8	0.001691
8.315000E-8	0.001841
8.320000E-8	0.001969
8.325000E-8	0.002178
8.330000E-8	0.002119
8.335000E-8	0.002281
8.340000E-8	0.002313
8.345000E-8	0.002300
8.350000E-8	0.002275
8.355000E-8	0.002341
8.360000E-8	0.002347
8.365000E-8	0.002250
8.370000E-8	0.002247
8.375000E-8	0.002288
8.380000E-8	0.002266
8.385000E-8	0.002366
8.390000E-8	0.002341
8.395000E-8	0.002500
8.400000E-8	0.002437
8.405000E-8	0.002456
8.410000E-8	0.002338
8.415000E-8	0.002453
8.420000E-8	0.002344
8.425000E-8	0.002341
8.430000E-8	0.002244
8.435000E-8	0.002213
8.440000E-8	0.002213
8.445000E-8	0.002259
8.450000E-8	0.002147
8.455000E-8	0.002278
8.460000E-8	0.002397
8.465000E-8	0.002397
8.470000E-8	0.002347
8.475000E-8	0.002509
8.480000E-8	0.002378
8.485000E-8	0.002263
8.490000E-8	0.002109
8.495000E-8	0.002106
8.500000E-8	0.002103
8.505000E-8	0.002138
8.510000E-8	0.002109
8.515000E-8	0.002087
8.520000E-8	0.002081
8.525000E-8	0.002147
8.530000E-8	0.002144
8.535000E-8	0.002169
8.540000E-8	0.002184
8.545000E-8	0.002216
8.550000E-8	0.002181
8.555000E-8	0.002253
8.560000E-8	0.002213
8.565000E-8	0.002256
8.570000E-8	0.002162
8.575000E-8	0.002256
8.580000E-8	0.002228
8.585000E-8	0.002253
8.590000E-8	0.002313
8.595000E-8	0.002109
8.600000E-8	0.002169
8.605000E-8	0.002159
8.610000E-8	0.002066
8.615000E-8	0.001991
8.620000E-8	0.002038
8.625000E-8	0.002009
8.630000E-8	0.002000
8.635000E-8	0.002109
8.640000E-8	0.002106
8.645000E-8	0.002228
8.650000E-8	0.002241
8.655000E-8	0.002325
8.660000E-8	0.002266
8.665000E-8	0.002341
8.670000E-8	0.002281
8.675000E-8	0.002291
8.680000E-8	0.002191
8.685000E-8	0.002194
8.690000E-8	0.002091
8.695000E-8	0.002084
8.700000E-8	0.002069
8.705000E-8	0.002081
8.710000E-8	0.002091
8.715000E-8	0.002172
8.720000E-8	0.002175
8.725000E-8	0.002100
8.730000E-8	0.002056
8.735000E-8	0.002184
8.740000E-8	0.002219
8.745000E-8	0.002206
8.750000E-8	0.002081
8.755000E-8	0.002106
8.760000E-8	0.002081
8.765000E-8	0.002000
8.770000E-8	0.001884
8.775000E-8	0.001888
8.780000E-8	0.001913
8.785000E-8	0.001934
8.790000E-8	0.001916
8.795000E-8	0.001988
8.800000E-8	0.001909
8.805000E-8	0.001975
8.810000E-8	0.001816
8.815000E-8	0.001841
8.820000E-8	0.001778
8.825000E-8	0.001841
8.830000E-8	0.001922
8.835000E-8	0.001928
8.840000E-8	0.001991
8.845000E-8	0.001931
8.850000E-8	0.001900
8.855000E-8	0.001900
8.860000E-8	0.001981
8.865000E-8	0.002091
8.870000E-8	0.002072
8.875000E-8	0.002022
8.880000E-8	0.002038
8.885000E-8	0.002012
8.890000E-8	0.002100
8.895000E-8	0.002053
8.900000E-8	0.001988
8.905000E-8	0.002072
8.910000E-8	0.002141
8.915000E-8	0.002125
8.920000E-8	0.002106
8.925000E-8	0.002162
8.930000E-8	0.002222
8.935000E-8	0.002244
8.940000E-8	0.002209
8.945000E-8	0.002162
8.950000E-8	0.002069
8.955000E-8	0.002219
8.960000E-8	0.002128
8.965000E-8	0.002087
8.970000E-8	0.002006
8.975000E-8	0.002094
8.980000E-8	0.002031
8.985000E-8	0.001988
8.990000E-8	0.001956
8.995000E-8	0.001966
9.000000E-8	0.001963
9.005000E-8	0.002084
9.010000E-8	0.002219
9.015000E-8	0.002306
9.020000E-8	0.002266
9.025000E-8	0.002306
9.030000E-8	0.002375
9.035000E-8	0.002463
9.040000E-8	0.002284
9.045000E-8	0.002419
9.050000E-8	0.002400
9.055000E-8	0.002478
9.060000E-8	0.002450
9.065000E-8	0.002475
9.070000E-8	0.002428
9.075000E-8	0.002388
9.080000E-8	0.002419
9.085000E-8	0.002300
9.090000E-8	0.002222
9.095000E-8	0.002153
9.100000E-8	0.002053
9.105000E-8	0.002075
9.110000E-8	0.002016
9.115000E-8	0.002072
9.120000E-8	0.002053
9.125000E-8	0.002072
9.130000E-8	0.002153
9.135000E-8	0.002288
9.140000E-8	0.002319
9.145000E-8	0.002322
9.150000E-8	0.002250
9.155000E-8	0.002366
9.160000E-8	0.002334
9.165000E-8	0.002406
9.170000E-8	0.002159
9.175000E-8	0.002113
9.180000E-8	0.002256
9.185000E-8	0.002331
9.190000E-8	0.002156
9.195000E-8	0.002253
9.200000E-8	0.002144
9.205000E-8	0.002103
9.210000E-8	0.002025
9.215000E-8	0.002031
9.220000E-8	0.002094
9.225000E-8	0.002153
9.230000E-8	0.002069
9.235000E-8	0.002097
9.240000E-8	0.002134
9.245000E-8	0.002209
9.250000E-8	0.002159
9.255000E-8	0.002216
9.260000E-8	0.002150
9.265000E-8	0.002188
9.270000E-8	0.002153
9.275000E-8	0.002200
9.280000E-8	0.002191
9.285000E-8	0.002147
9.290000E-8	0.002097
9.295000E-8	0.002113
9.300000E-8	0.002159
9.305000E-8	0.002128
9.310000E-8	0.002094
9.315000E-8	0.002188
9.320000E-8	0.002347
9.325000E-8	0.002366
9.330000E-8	0.002316
9.335000E-8	0.002316
9.340000E-8	0.002306
9.345000E-8	0.002300
9.350000E-8	0.002284
9.355000E-8	0.002213
9.360000E-8	0.002078
9.365000E-8	0.002237
9.370000E-8	0.002166
9.375000E-8	0.002109
9.380000E-8	0.002081
9.385000E-8	0.002100
9.390000E-8	0.002025
9.395000E-8	0.002009
9.400000E-8	0.002016
9.405000E-8	0.002113
9.410000E-8	0.002125
9.415000E-8	0.002184
9.420000E-8	0.002150
9.425000E-8	0.002197
9.430000E-8	0.002197
9.435000E-8	0.002222
9.440000E-8	0.002078
9.445000E-8	0.002150
9.450000E-8	0.002000
9.455000E-8	0.002028
9.460000E-8	0.001969
9.465000E-8	0.002034
9.470000E-8	0.001988
9.475000E-8	0.002175
9.480000E-8	0.002181
9.485000E-8	0.002291
9.490000E-8	0.002378
9.495000E-8	0.002466
9.500000E-8	0.002441
9.505000E-8	0.002406
9.510000E-8	0.002481
9.515000E-8	0.002488
9.520000E-8	0.002428
9.525000E-8	0.002475
9.530000E-8	0.002303
9.535000E-8	0.002400
9.540000E-8	0.002331
9.545000E-8	0.002297
9.550000E-8	0.002237
9.555000E-8	0.002228
9.560000E-8	0.002247
9.565000E-8	0.002288
9.570000E-8	0.002228
9.575000E-8	0.002263
9.580000E-8	0.002253
9.585000E-8	0.002216
9.590000E-8	0.002169
9.595000E-8	0.002141
9.600000E-8	0.002106
9.605000E-8	0.002184
9.610000E-8	0.002056
9.615000E-8	0.002041
9.620000E-8	0.002016
9.625000E-8	0.002175
9.630000E-8	0.002144
9.635000E-8	0.002178
9.640000E-8	0.002122
9.645000E-8	0.002181
9.650000E-8	0.002181
9.655000E-8	0.002194
9.660000E-8	0.002272
9.665000E-8	0.002281
9.670000E-8	0.002316
9.675000E-8	0.002359
9.680000E-8	0.002400
9.685000E-8	0.002428
9.690000E-8	0.002422
9.695000E-8	0.002306
9.700000E-8	0.002284
9.705000E-8	0.002288
9.710000E-8	0.002169
9.715000E-8	0.002138
9.720000E-8	0.002188
9.725000E-8	0.002281
9.730000E-8	0.002153
9.735000E-8	0.002153
9.740000E-8	0.002103
9.745000E-8	0.002094
9.750000E-8	0.002072
9.755000E-8	0.002250
9.760000E-8	0.002178
9.765000E-8	0.002166
9.770000E-8	0.002144
9.775000E-8	0.002178
9.780000E-8	0.002116
9.785000E-8	0.002103
9.790000E-8	0.002031
9.795000E-8	0.002031
9.800000E-8	0.002053
9.805000E-8	0.001966
9.810000E-8	0.001972
9.815000E-8	0.002044
9.820000E-8	0.002094
9.825000E-8	0.002175
9.830000E-8	0.002213
9.835000E-8	0.002288
9.840000E-8	0.002341
9.845000E-8	0.002319
9.850000E-8	0.002300
9.855000E-8	0.002397
9.860000E-8	0.002300
9.865000E-8	0.002253
9.870000E-8	0.002203
9.875000E-8	0.002222
9.880000E-8	0.002178
9.885000E-8	0.002156
9.890000E-8	0.002150
9.895000E-8	0.002159
9.900000E-8	0.002125
9.905000E-8	0.002222
9.910000E-8	0.002209
9.915000E-8	0.002219
9.920000E-8	0.002188
9.925000E-8	0.002250
9.930000E-8	0.002144
9.935000E-8	0.002225
9.940000E-8	0.002203
9.945000E-8	0.002269
9.950000E-8	0.002166
9.955000E-8	0.002203
9.960000E-8	0.002175
9.965000E-8	0.002197
9.970000E-8	0.002231
9.975000E-8	0.002256
9.980000E-8	0.002272
9.985000E-8	0.002247
9.990000E-8	0.002213
9.995000E-8	0.002278
