LabVIEW Measurement	
Writer_Version	2
Reader_Version	2
Separator	Tab
Decimal_Separator	.
Multi_Headings	No
X_Columns	Multi
Time_Pref	Relative
Operator	TG lab
Date	2015/03/06
Time	18:25:43.9020667076110839844
***End_of_Header***	
	
Channels	1	
Samples	2000	
Date	1903/12/31	
Time	19:00:00	
X_Dimension	Time	
X0	0.0000000000000000E+0	
Delta_X	5.000000E-11	
***End_of_Header***		
X_Value	Untitled	Comment
0.000000	0.001781
5.000000E-11	0.001875
1.000000E-10	0.001844
1.500000E-10	0.001531
2.000000E-10	0.001461
2.500000E-10	0.001383
3.000000E-10	0.001422
3.500000E-10	0.001641
4.000000E-10	0.001539
4.500000E-10	0.001656
5.000000E-10	0.001648
5.500000E-10	0.001633
6.000000E-10	0.001609
6.500000E-10	0.001813
7.000000E-10	0.001656
7.500000E-10	0.002000
8.000000E-10	0.001891
8.500000E-10	0.002125
9.000000E-10	0.002125
9.500000E-10	0.002125
1.000000E-9	0.002008
1.050000E-9	0.002109
1.100000E-9	0.002023
1.150000E-9	0.002141
1.200000E-9	0.002266
1.250000E-9	0.002273
1.300000E-9	0.002117
1.350000E-9	0.002164
1.400000E-9	0.002203
1.450000E-9	0.002391
1.500000E-9	0.002289
1.550000E-9	0.002430
1.600000E-9	0.002391
1.650000E-9	0.002516
1.700000E-9	0.002422
1.750000E-9	0.002352
1.800000E-9	0.002164
1.850000E-9	0.002320
1.900000E-9	0.002250
1.950000E-9	0.002039
2.000000E-9	0.002102
2.050000E-9	0.002141
2.100000E-9	0.002164
2.150000E-9	0.002266
2.200000E-9	0.002625
2.250000E-9	0.002711
2.300000E-9	0.002594
2.350000E-9	0.002766
2.400000E-9	0.002875
2.450000E-9	0.002852
2.500000E-9	0.003109
2.550000E-9	0.003016
2.600000E-9	0.003141
2.650000E-9	0.003242
2.700000E-9	0.003352
2.750000E-9	0.003227
2.800000E-9	0.003172
2.850000E-9	0.003148
2.900000E-9	0.003219
2.950000E-9	0.003094
3.000000E-9	0.002844
3.050000E-9	0.003016
3.100000E-9	0.003016
3.150000E-9	0.003227
3.200000E-9	0.003133
3.250000E-9	0.003266
3.300000E-9	0.003063
3.350000E-9	0.003063
3.400000E-9	0.003094
3.450000E-9	0.003195
3.500000E-9	0.003336
3.550000E-9	0.003328
3.600000E-9	0.003305
3.650000E-9	0.003172
3.700000E-9	0.003438
3.750000E-9	0.003352
3.800000E-9	0.003602
3.850000E-9	0.003758
3.900000E-9	0.003984
3.950000E-9	0.004266
4.000000E-9	0.004313
4.050000E-9	0.004766
4.100000E-9	0.005039
4.150000E-9	0.005148
4.200000E-9	0.005523
4.250000E-9	0.005867
4.300000E-9	0.006531
4.350000E-9	0.007117
4.400000E-9	0.007773
4.450000E-9	0.008945
4.500000E-9	0.009992
4.550000E-9	0.011047
4.600000E-9	0.012273
4.650000E-9	0.014156
4.700000E-9	0.015859
4.750000E-9	0.017500
4.800000E-9	0.019250
4.850000E-9	0.021000
4.900000E-9	0.022609
4.950000E-9	0.024531
5.000000E-9	0.026109
5.050000E-9	0.028102
5.100000E-9	0.030008
5.150000E-9	0.031922
5.200000E-9	0.033688
5.250000E-9	0.035484
5.300000E-9	0.037414
5.350000E-9	0.038953
5.400000E-9	0.040109
5.450000E-9	0.041125
5.500000E-9	0.041977
5.550000E-9	0.042594
5.600000E-9	0.042906
5.650000E-9	0.042953
5.700000E-9	0.042539
5.750000E-9	0.041977
5.800000E-9	0.040898
5.850000E-9	0.039445
5.900000E-9	0.037609
5.950000E-9	0.035648
6.000000E-9	0.033031
6.050000E-9	0.030742
6.100000E-9	0.028469
6.150000E-9	0.026305
6.200000E-9	0.024641
6.250000E-9	0.023250
6.300000E-9	0.022586
6.350000E-9	0.022211
6.400000E-9	0.022250
6.450000E-9	0.022945
6.500000E-9	0.023656
6.550000E-9	0.024531
6.600000E-9	0.025375
6.650000E-9	0.026195
6.700000E-9	0.026852
6.750000E-9	0.027445
6.800000E-9	0.027523
6.850000E-9	0.027969
6.900000E-9	0.028188
6.950000E-9	0.028055
7.000000E-9	0.027703
7.050000E-9	0.027219
7.100000E-9	0.026195
7.150000E-9	0.025031
7.200000E-9	0.023984
7.250000E-9	0.022562
7.300000E-9	0.020859
7.350000E-9	0.019344
7.400000E-9	0.017938
7.450000E-9	0.016859
7.500000E-9	0.015688
7.550000E-9	0.014805
7.600000E-9	0.014430
7.650000E-9	0.014063
7.700000E-9	0.014250
7.750000E-9	0.014469
7.800000E-9	0.015148
7.850000E-9	0.015859
7.900000E-9	0.016672
7.950000E-9	0.017594
8.000000E-9	0.018242
8.050000E-9	0.019070
8.100000E-9	0.019617
8.150000E-9	0.020047
8.200000E-9	0.020125
8.250000E-9	0.020070
8.300000E-9	0.019695
8.350000E-9	0.019383
8.400000E-9	0.018414
8.450000E-9	0.017734
8.500000E-9	0.016594
8.550000E-9	0.015539
8.600000E-9	0.014320
8.650000E-9	0.013109
8.700000E-9	0.012031
8.750000E-9	0.010805
8.800000E-9	0.010055
8.850000E-9	0.009391
8.900000E-9	0.008758
8.950000E-9	0.008492
9.000000E-9	0.008523
9.050000E-9	0.008617
9.100000E-9	0.009016
9.150000E-9	0.009609
9.200000E-9	0.010203
9.250000E-9	0.011102
9.300000E-9	0.011758
9.350000E-9	0.012688
9.400000E-9	0.013258
9.450000E-9	0.013875
9.500000E-9	0.014203
9.550000E-9	0.014313
9.600000E-9	0.014344
9.650000E-9	0.014297
9.700000E-9	0.013875
9.750000E-9	0.013383
9.800000E-9	0.012820
9.850000E-9	0.011883
9.900000E-9	0.010930
9.950000E-9	0.010141
1.000000E-8	0.008969
1.005000E-8	0.007930
1.010000E-8	0.007125
1.015000E-8	0.006422
1.020000E-8	0.005859
1.025000E-8	0.005430
1.030000E-8	0.005391
1.035000E-8	0.005438
1.040000E-8	0.005594
1.045000E-8	0.005914
1.050000E-8	0.006609
1.055000E-8	0.007336
1.060000E-8	0.007945
1.065000E-8	0.008914
1.070000E-8	0.009508
1.075000E-8	0.010031
1.080000E-8	0.010430
1.085000E-8	0.010977
1.090000E-8	0.010992
1.095000E-8	0.011125
1.100000E-8	0.010992
1.105000E-8	0.010914
1.110000E-8	0.010445
1.115000E-8	0.009687
1.120000E-8	0.008961
1.125000E-8	0.008094
1.130000E-8	0.007141
1.135000E-8	0.006203
1.140000E-8	0.005313
1.145000E-8	0.004734
1.150000E-8	0.004078
1.155000E-8	0.003836
1.160000E-8	0.003227
1.165000E-8	0.003406
1.170000E-8	0.003445
1.175000E-8	0.003625
1.180000E-8	0.003875
1.185000E-8	0.004625
1.190000E-8	0.005320
1.195000E-8	0.006133
1.200000E-8	0.006625
1.205000E-8	0.007422
1.210000E-8	0.008102
1.215000E-8	0.008789
1.220000E-8	0.009070
1.225000E-8	0.009406
1.230000E-8	0.009258
1.235000E-8	0.009109
1.240000E-8	0.008742
1.245000E-8	0.008266
1.250000E-8	0.007570
1.255000E-8	0.006773
1.260000E-8	0.005719
1.265000E-8	0.004945
1.270000E-8	0.003992
1.275000E-8	0.003492
1.280000E-8	0.002563
1.285000E-8	0.002148
1.290000E-8	0.001734
1.295000E-8	0.001609
1.300000E-8	0.001484
1.305000E-8	0.001930
1.310000E-8	0.002219
1.315000E-8	0.002906
1.320000E-8	0.003477
1.325000E-8	0.004547
1.330000E-8	0.005398
1.335000E-8	0.006555
1.340000E-8	0.007469
1.345000E-8	0.008047
1.350000E-8	0.008539
1.355000E-8	0.008773
1.360000E-8	0.008898
1.365000E-8	0.009062
1.370000E-8	0.008805
1.375000E-8	0.008484
1.380000E-8	0.007617
1.385000E-8	0.006930
1.390000E-8	0.005867
1.395000E-8	0.004711
1.400000E-8	0.003750
1.405000E-8	0.002953
1.410000E-8	0.001969
1.415000E-8	0.001195
1.420000E-8	0.000891
1.425000E-8	0.000750
1.430000E-8	0.000461
1.435000E-8	0.000789
1.440000E-8	0.001148
1.445000E-8	0.001977
1.450000E-8	0.002680
1.455000E-8	0.003422
1.460000E-8	0.004211
1.465000E-8	0.005234
1.470000E-8	0.005906
1.475000E-8	0.006742
1.480000E-8	0.007289
1.485000E-8	0.007805
1.490000E-8	0.007992
1.495000E-8	0.008172
1.500000E-8	0.007906
1.505000E-8	0.007328
1.510000E-8	0.006320
1.515000E-8	0.005492
1.520000E-8	0.004508
1.525000E-8	0.003367
1.530000E-8	0.002328
1.535000E-8	0.001453
1.540000E-8	0.000469
1.545000E-8	-0.000195
1.550000E-8	-0.000625
1.555000E-8	-0.000734
1.560000E-8	-0.000641
1.565000E-8	-0.000141
1.570000E-8	0.000141
1.575000E-8	0.000922
1.580000E-8	0.001703
1.585000E-8	0.002969
1.590000E-8	0.003930
1.595000E-8	0.004875
1.600000E-8	0.005547
1.605000E-8	0.006234
1.610000E-8	0.006641
1.615000E-8	0.007039
1.620000E-8	0.007109
1.625000E-8	0.007102
1.630000E-8	0.007234
1.635000E-8	0.006695
1.640000E-8	0.005664
1.645000E-8	0.005211
1.650000E-8	0.004172
1.655000E-8	0.003359
1.660000E-8	0.002367
1.665000E-8	0.001398
1.670000E-8	0.000398
1.675000E-8	-0.000492
1.680000E-8	-0.000992
1.685000E-8	-0.000937
1.690000E-8	-0.000984
1.695000E-8	-0.000742
1.700000E-8	-0.000391
1.705000E-8	0.000219
1.710000E-8	0.000914
1.715000E-8	0.001828
1.720000E-8	0.002563
1.725000E-8	0.003586
1.730000E-8	0.004406
1.735000E-8	0.005305
1.740000E-8	0.005750
1.745000E-8	0.006266
1.750000E-8	0.006391
1.755000E-8	0.006328
1.760000E-8	0.006094
1.765000E-8	0.005695
1.770000E-8	0.005266
1.775000E-8	0.004602
1.780000E-8	0.003461
1.785000E-8	0.002578
1.790000E-8	0.001773
1.795000E-8	0.001016
1.800000E-8	0.000195
1.805000E-8	-0.000477
1.810000E-8	-0.000844
1.815000E-8	-0.001141
1.820000E-8	-0.001266
1.825000E-8	-0.001023
1.830000E-8	-0.000539
1.835000E-8	7.812500E-6
1.840000E-8	0.000672
1.845000E-8	0.001578
1.850000E-8	0.002414
1.855000E-8	0.003344
1.860000E-8	0.004055
1.865000E-8	0.004867
1.870000E-8	0.005180
1.875000E-8	0.005555
1.880000E-8	0.005758
1.885000E-8	0.005852
1.890000E-8	0.005828
1.895000E-8	0.005289
1.900000E-8	0.004570
1.905000E-8	0.003992
1.910000E-8	0.003172
1.915000E-8	0.002445
1.920000E-8	0.001586
1.925000E-8	0.001031
1.930000E-8	0.000227
1.935000E-8	-0.000328
1.940000E-8	-0.000805
1.945000E-8	-0.001148
1.950000E-8	-0.001344
1.955000E-8	-0.000961
1.960000E-8	-0.000711
1.965000E-8	-0.000406
1.970000E-8	0.000125
1.975000E-8	0.000937
1.980000E-8	0.001742
1.985000E-8	0.002812
1.990000E-8	0.003469
1.995000E-8	0.004320
2.000000E-8	0.004695
2.005000E-8	0.005250
2.010000E-8	0.005484
2.015000E-8	0.005555
2.020000E-8	0.005531
2.025000E-8	0.005297
2.030000E-8	0.004719
2.035000E-8	0.004063
2.040000E-8	0.003234
2.045000E-8	0.002352
2.050000E-8	0.001359
2.055000E-8	0.000844
2.060000E-8	0.000133
2.065000E-8	-0.000242
2.070000E-8	-0.000844
2.075000E-8	-0.001031
2.080000E-8	-0.001164
2.085000E-8	-0.000898
2.090000E-8	-0.000594
2.095000E-8	-0.000148
2.100000E-8	0.000172
2.105000E-8	0.001102
2.110000E-8	0.001680
2.115000E-8	0.002469
2.120000E-8	0.003109
2.125000E-8	0.003742
2.130000E-8	0.004336
2.135000E-8	0.004828
2.140000E-8	0.004961
2.145000E-8	0.005016
2.150000E-8	0.004969
2.155000E-8	0.004852
2.160000E-8	0.004195
2.165000E-8	0.003867
2.170000E-8	0.003156
2.175000E-8	0.002508
2.180000E-8	0.001625
2.185000E-8	0.001031
2.190000E-8	0.000445
2.195000E-8	7.031250E-5
2.200000E-8	-0.000727
2.205000E-8	-0.000703
2.210000E-8	-0.000984
2.215000E-8	-0.000883
2.220000E-8	-0.000703
2.225000E-8	-0.000227
2.230000E-8	6.250000E-5
2.235000E-8	0.000898
2.240000E-8	0.001484
2.245000E-8	0.002164
2.250000E-8	0.002836
2.255000E-8	0.003406
2.260000E-8	0.004086
2.265000E-8	0.004789
2.270000E-8	0.005094
2.275000E-8	0.005273
2.280000E-8	0.005328
2.285000E-8	0.005195
2.290000E-8	0.004844
2.295000E-8	0.004289
2.300000E-8	0.003828
2.305000E-8	0.003063
2.310000E-8	0.002266
2.315000E-8	0.001492
2.320000E-8	0.000664
2.325000E-8	9.375000E-5
2.330000E-8	-0.000398
2.335000E-8	-0.000953
2.340000E-8	-0.001414
2.345000E-8	-0.001359
2.350000E-8	-0.001164
2.355000E-8	-0.000586
2.360000E-8	-3.125000E-5
2.365000E-8	0.000781
2.370000E-8	0.001555
2.375000E-8	0.002102
2.380000E-8	0.002812
2.385000E-8	0.003563
2.390000E-8	0.004156
2.395000E-8	0.004664
2.400000E-8	0.004820
2.405000E-8	0.005148
2.410000E-8	0.005250
2.415000E-8	0.005055
2.420000E-8	0.004594
2.425000E-8	0.004219
2.430000E-8	0.003656
2.435000E-8	0.002914
2.440000E-8	0.002016
2.445000E-8	0.001484
2.450000E-8	0.000930
2.455000E-8	0.000273
2.460000E-8	-0.000383
2.465000E-8	-0.000602
2.470000E-8	-0.001117
2.475000E-8	-0.001031
2.480000E-8	-0.001313
2.485000E-8	-0.000937
2.490000E-8	-0.000602
2.495000E-8	-7.031250E-5
2.500000E-8	0.000703
2.505000E-8	0.001672
2.510000E-8	0.002289
2.515000E-8	0.003289
2.520000E-8	0.004047
2.525000E-8	0.004602
2.530000E-8	0.005031
2.535000E-8	0.005289
2.540000E-8	0.005258
2.545000E-8	0.005227
2.550000E-8	0.004711
2.555000E-8	0.004188
2.560000E-8	0.003414
2.565000E-8	0.002867
2.570000E-8	0.002094
2.575000E-8	0.001250
2.580000E-8	0.000422
2.585000E-8	-0.000227
2.590000E-8	-0.000625
2.595000E-8	-0.000930
2.600000E-8	-0.001297
2.605000E-8	-0.001508
2.610000E-8	-0.001492
2.615000E-8	-0.000969
2.620000E-8	-0.000508
2.625000E-8	0.000313
2.630000E-8	0.000867
2.635000E-8	0.001570
2.640000E-8	0.002109
2.645000E-8	0.003055
2.650000E-8	0.003383
2.655000E-8	0.003938
2.660000E-8	0.004258
2.665000E-8	0.004414
2.670000E-8	0.004352
2.675000E-8	0.004469
2.680000E-8	0.004078
2.685000E-8	0.003680
2.690000E-8	0.003109
2.695000E-8	0.002492
2.700000E-8	0.001898
2.705000E-8	0.001375
2.710000E-8	0.000539
2.715000E-8	0.000156
2.720000E-8	-0.000414
2.725000E-8	-0.000594
2.730000E-8	-0.001023
2.735000E-8	-0.000984
2.740000E-8	-0.000914
2.745000E-8	-0.000469
2.750000E-8	0.000156
2.755000E-8	0.000563
2.760000E-8	0.001211
2.765000E-8	0.002000
2.770000E-8	0.002539
2.775000E-8	0.003203
2.780000E-8	0.004039
2.785000E-8	0.004398
2.790000E-8	0.004805
2.795000E-8	0.004977
2.800000E-8	0.004922
2.805000E-8	0.004773
2.810000E-8	0.004492
2.815000E-8	0.003836
2.820000E-8	0.003117
2.825000E-8	0.002672
2.830000E-8	0.002000
2.835000E-8	0.001359
2.840000E-8	0.000602
2.845000E-8	0.000133
2.850000E-8	-0.000203
2.855000E-8	-0.000414
2.860000E-8	-0.000852
2.865000E-8	-0.000789
2.870000E-8	-0.000773
2.875000E-8	-0.000422
2.880000E-8	-0.000141
2.885000E-8	0.000352
2.890000E-8	0.000695
2.895000E-8	0.001453
2.900000E-8	0.002063
2.905000E-8	0.002875
2.910000E-8	0.003398
2.915000E-8	0.003992
2.920000E-8	0.004250
2.925000E-8	0.004664
2.930000E-8	0.004727
2.935000E-8	0.004625
2.940000E-8	0.004398
2.945000E-8	0.004008
2.950000E-8	0.003383
2.955000E-8	0.002773
2.960000E-8	0.002203
2.965000E-8	0.001609
2.970000E-8	0.000906
2.975000E-8	0.000211
2.980000E-8	-0.000195
2.985000E-8	-0.000531
2.990000E-8	-0.001031
2.995000E-8	-0.000891
3.000000E-8	-0.001008
3.005000E-8	-0.000664
3.010000E-8	-0.000453
3.015000E-8	-7.031250E-5
3.020000E-8	0.000672
3.025000E-8	0.001102
3.030000E-8	0.001422
3.035000E-8	0.002266
3.040000E-8	0.002703
3.045000E-8	0.003297
3.050000E-8	0.003367
3.055000E-8	0.003883
3.060000E-8	0.003656
3.065000E-8	0.003766
3.070000E-8	0.003555
3.075000E-8	0.003133
3.080000E-8	0.003008
3.085000E-8	0.002586
3.090000E-8	0.002102
3.095000E-8	0.001586
3.100000E-8	0.001109
3.105000E-8	0.000508
3.110000E-8	9.375000E-5
3.115000E-8	-0.000242
3.120000E-8	-0.000297
3.125000E-8	-0.000352
3.130000E-8	-0.000242
3.135000E-8	-3.125000E-5
3.140000E-8	-5.468750E-5
3.145000E-8	0.000477
3.150000E-8	0.000609
3.155000E-8	0.001109
3.160000E-8	0.001781
3.165000E-8	0.002359
3.170000E-8	0.002703
3.175000E-8	0.003305
3.180000E-8	0.003375
3.185000E-8	0.003906
3.190000E-8	0.004094
3.195000E-8	0.004102
3.200000E-8	0.003664
3.205000E-8	0.003359
3.210000E-8	0.003180
3.215000E-8	0.002938
3.220000E-8	0.002125
3.225000E-8	0.001781
3.230000E-8	0.001227
3.235000E-8	0.000648
3.240000E-8	0.000133
3.245000E-8	-0.000242
3.250000E-8	-0.000344
3.255000E-8	-0.000703
3.260000E-8	-0.000602
3.265000E-8	-0.000336
3.270000E-8	-0.000242
3.275000E-8	9.375000E-5
3.280000E-8	0.000281
3.285000E-8	0.000664
3.290000E-8	0.001367
3.295000E-8	0.001922
3.300000E-8	0.002305
3.305000E-8	0.002898
3.310000E-8	0.003406
3.315000E-8	0.003906
3.320000E-8	0.004008
3.325000E-8	0.004102
3.330000E-8	0.003953
3.335000E-8	0.003656
3.340000E-8	0.003227
3.345000E-8	0.003008
3.350000E-8	0.002180
3.355000E-8	0.001797
3.360000E-8	0.001383
3.365000E-8	0.000898
3.370000E-8	0.000383
3.375000E-8	0.000188
3.380000E-8	-6.250000E-5
3.385000E-8	-0.000281
3.390000E-8	-0.000367
3.395000E-8	-0.000438
3.400000E-8	-0.000117
3.405000E-8	8.593750E-5
3.410000E-8	0.000367
3.415000E-8	0.000813
3.420000E-8	0.001234
3.425000E-8	0.001867
3.430000E-8	0.002312
3.435000E-8	0.002906
3.440000E-8	0.003117
3.445000E-8	0.003586
3.450000E-8	0.003852
3.455000E-8	0.003930
3.460000E-8	0.004031
3.465000E-8	0.003938
3.470000E-8	0.003664
3.475000E-8	0.003234
3.480000E-8	0.002594
3.485000E-8	0.002375
3.490000E-8	0.001719
3.495000E-8	0.001078
3.500000E-8	0.000391
3.505000E-8	-3.125000E-5
3.510000E-8	-0.000648
3.515000E-8	-0.000586
3.520000E-8	-0.000758
3.525000E-8	-0.000906
3.530000E-8	-0.000547
3.535000E-8	-0.000188
3.540000E-8	0.000141
3.545000E-8	0.000609
3.550000E-8	0.001266
3.555000E-8	0.001773
3.560000E-8	0.002281
3.565000E-8	0.003000
3.570000E-8	0.003297
3.575000E-8	0.003680
3.580000E-8	0.003828
3.585000E-8	0.004102
3.590000E-8	0.003977
3.595000E-8	0.003742
3.600000E-8	0.003523
3.605000E-8	0.003023
3.610000E-8	0.002391
3.615000E-8	0.002164
3.620000E-8	0.001687
3.625000E-8	0.001125
3.630000E-8	0.000773
3.635000E-8	0.000344
3.640000E-8	-0.000211
3.645000E-8	-0.000328
3.650000E-8	-0.000484
3.655000E-8	-0.000453
3.660000E-8	-0.000422
3.665000E-8	1.562500E-5
3.670000E-8	0.000281
3.675000E-8	0.000563
3.680000E-8	0.000898
3.685000E-8	0.001687
3.690000E-8	0.002039
3.695000E-8	0.002859
3.700000E-8	0.003227
3.705000E-8	0.003711
3.710000E-8	0.004125
3.715000E-8	0.004406
3.720000E-8	0.004219
3.725000E-8	0.004234
3.730000E-8	0.003828
3.735000E-8	0.003430
3.740000E-8	0.002750
3.745000E-8	0.002211
3.750000E-8	0.001437
3.755000E-8	0.001023
3.760000E-8	0.000383
3.765000E-8	0.000000
3.770000E-8	-0.000242
3.775000E-8	-0.000531
3.780000E-8	-0.000586
3.785000E-8	-0.000438
3.790000E-8	-0.000328
3.795000E-8	0.000219
3.800000E-8	0.000328
3.805000E-8	0.000727
3.810000E-8	0.001219
3.815000E-8	0.001773
3.820000E-8	0.002297
3.825000E-8	0.002805
3.830000E-8	0.003219
3.835000E-8	0.003305
3.840000E-8	0.003734
3.845000E-8	0.003906
3.850000E-8	0.003945
3.855000E-8	0.003820
3.860000E-8	0.003688
3.865000E-8	0.003516
3.870000E-8	0.002797
3.875000E-8	0.002492
3.880000E-8	0.001742
3.885000E-8	0.001437
3.890000E-8	0.000820
3.895000E-8	0.000313
3.900000E-8	-9.375000E-5
3.905000E-8	-0.000172
3.910000E-8	-0.000453
3.915000E-8	-0.000258
3.920000E-8	-0.000297
3.925000E-8	0.000180
3.930000E-8	0.000453
3.935000E-8	0.000813
3.940000E-8	0.001141
3.945000E-8	0.001492
3.950000E-8	0.001852
3.955000E-8	0.002477
3.960000E-8	0.002742
3.965000E-8	0.003305
3.970000E-8	0.003484
3.975000E-8	0.003586
3.980000E-8	0.003586
3.985000E-8	0.003469
3.990000E-8	0.003336
3.995000E-8	0.003117
4.000000E-8	0.002719
4.005000E-8	0.002148
4.010000E-8	0.001781
4.015000E-8	0.001328
4.020000E-8	0.001008
4.025000E-8	0.000586
4.030000E-8	0.000297
4.035000E-8	-4.687500E-5
4.040000E-8	-0.000313
4.045000E-8	-0.000328
4.050000E-8	-0.000313
4.055000E-8	-0.000242
4.060000E-8	0.000117
4.065000E-8	0.000469
4.070000E-8	0.000742
4.075000E-8	0.001461
4.080000E-8	0.001758
4.085000E-8	0.002156
4.090000E-8	0.002547
4.095000E-8	0.002891
4.100000E-8	0.003086
4.105000E-8	0.003289
4.110000E-8	0.003328
4.115000E-8	0.003281
4.120000E-8	0.003273
4.125000E-8	0.003289
4.130000E-8	0.002891
4.135000E-8	0.002703
4.140000E-8	0.002453
4.145000E-8	0.002141
4.150000E-8	0.001609
4.155000E-8	0.001180
4.160000E-8	0.000836
4.165000E-8	0.000461
4.170000E-8	0.000313
4.175000E-8	0.000148
4.180000E-8	0.000141
4.185000E-8	0.000109
4.190000E-8	0.000406
4.195000E-8	0.000703
4.200000E-8	0.000836
4.205000E-8	0.001250
4.210000E-8	0.001555
4.215000E-8	0.001813
4.220000E-8	0.002258
4.225000E-8	0.002664
4.230000E-8	0.002992
4.235000E-8	0.003188
4.240000E-8	0.003211
4.245000E-8	0.003180
4.250000E-8	0.002883
4.255000E-8	0.002711
4.260000E-8	0.002648
4.265000E-8	0.002344
4.270000E-8	0.002016
4.275000E-8	0.001602
4.280000E-8	0.001367
4.285000E-8	0.000906
4.290000E-8	0.000297
4.295000E-8	0.000109
4.300000E-8	-0.000109
4.305000E-8	-0.000242
4.310000E-8	-0.000234
4.315000E-8	-3.906250E-5
4.320000E-8	-0.000125
4.325000E-8	0.000617
4.330000E-8	0.000859
4.335000E-8	0.001242
4.340000E-8	0.001672
4.345000E-8	0.002195
4.350000E-8	0.002672
4.355000E-8	0.003063
4.360000E-8	0.003086
4.365000E-8	0.003406
4.370000E-8	0.003391
4.375000E-8	0.003328
4.380000E-8	0.003109
4.385000E-8	0.003133
4.390000E-8	0.002656
4.395000E-8	0.002695
4.400000E-8	0.002195
4.405000E-8	0.001742
4.410000E-8	0.001187
4.415000E-8	0.000891
4.420000E-8	0.000602
4.425000E-8	0.000258
4.430000E-8	-4.687500E-5
4.435000E-8	-0.000258
4.440000E-8	-0.000273
4.445000E-8	-0.000242
4.450000E-8	3.906250E-5
4.455000E-8	0.000320
4.460000E-8	0.000414
4.465000E-8	0.001023
4.470000E-8	0.001289
4.475000E-8	0.001789
4.480000E-8	0.002109
4.485000E-8	0.002586
4.490000E-8	0.002859
4.495000E-8	0.003461
4.500000E-8	0.003430
4.505000E-8	0.003727
4.510000E-8	0.003570
4.515000E-8	0.003398
4.520000E-8	0.003188
4.525000E-8	0.002961
4.530000E-8	0.002391
4.535000E-8	0.002172
4.540000E-8	0.001664
4.545000E-8	0.001313
4.550000E-8	0.000602
4.555000E-8	0.000367
4.560000E-8	0.000172
4.565000E-8	0.000141
4.570000E-8	-6.250000E-5
4.575000E-8	-1.562500E-5
4.580000E-8	-0.000117
4.585000E-8	7.812500E-5
4.590000E-8	0.000344
4.595000E-8	0.000766
4.600000E-8	0.001055
4.605000E-8	0.001492
4.610000E-8	0.001953
4.615000E-8	0.002344
4.620000E-8	0.002648
4.625000E-8	0.002859
4.630000E-8	0.003070
4.635000E-8	0.003188
4.640000E-8	0.003195
4.645000E-8	0.003289
4.650000E-8	0.003250
4.655000E-8	0.003250
4.660000E-8	0.002672
4.665000E-8	0.002437
4.670000E-8	0.001867
4.675000E-8	0.001508
4.680000E-8	0.000961
4.685000E-8	0.000422
4.690000E-8	0.000289
4.695000E-8	-8.593750E-5
4.700000E-8	7.812500E-6
4.705000E-8	0.000188
4.710000E-8	0.000148
4.715000E-8	0.000484
4.720000E-8	0.000766
4.725000E-8	0.001164
4.730000E-8	0.001344
4.735000E-8	0.001813
4.740000E-8	0.002227
4.745000E-8	0.002602
4.750000E-8	0.002750
4.755000E-8	0.003078
4.760000E-8	0.003023
4.765000E-8	0.003250
4.770000E-8	0.003141
4.775000E-8	0.003219
4.780000E-8	0.002820
4.785000E-8	0.002906
4.790000E-8	0.002516
4.795000E-8	0.002031
4.800000E-8	0.001648
4.805000E-8	0.001195
4.810000E-8	0.000773
4.815000E-8	0.000477
4.820000E-8	0.000203
4.825000E-8	0.000195
4.830000E-8	0.000117
4.835000E-8	0.000125
4.840000E-8	0.000281
4.845000E-8	0.000570
4.850000E-8	0.000727
4.855000E-8	0.001258
4.860000E-8	0.001383
4.865000E-8	0.001766
4.870000E-8	0.002188
4.875000E-8	0.002406
4.880000E-8	0.002570
4.885000E-8	0.003023
4.890000E-8	0.003078
4.895000E-8	0.003078
4.900000E-8	0.003000
4.905000E-8	0.003117
4.910000E-8	0.003063
4.915000E-8	0.003031
4.920000E-8	0.002633
4.925000E-8	0.002656
4.930000E-8	0.002211
4.935000E-8	0.001805
4.940000E-8	0.001477
4.945000E-8	0.001328
4.950000E-8	0.001008
4.955000E-8	0.000852
4.960000E-8	0.000633
4.965000E-8	0.000586
4.970000E-8	0.000563
4.975000E-8	0.000563
4.980000E-8	0.000695
4.985000E-8	0.001055
4.990000E-8	0.001203
4.995000E-8	0.001555
5.000000E-8	0.001727
5.005000E-8	0.002414
5.010000E-8	0.002516
5.015000E-8	0.003055
5.020000E-8	0.003180
5.025000E-8	0.003102
5.030000E-8	0.003102
5.035000E-8	0.003094
5.040000E-8	0.002820
5.045000E-8	0.002516
5.050000E-8	0.002148
5.055000E-8	0.001914
5.060000E-8	0.001484
5.065000E-8	0.001531
5.070000E-8	0.001039
5.075000E-8	0.000875
5.080000E-8	0.000492
5.085000E-8	0.000555
5.090000E-8	0.000281
5.095000E-8	0.000297
5.100000E-8	0.000367
5.105000E-8	0.000469
5.110000E-8	0.000461
5.115000E-8	0.000656
5.120000E-8	0.000992
5.125000E-8	0.001391
5.130000E-8	0.001430
5.135000E-8	0.001898
5.140000E-8	0.002352
5.145000E-8	0.002648
5.150000E-8	0.002875
5.155000E-8	0.003078
5.160000E-8	0.002797
5.165000E-8	0.003031
5.170000E-8	0.002734
5.175000E-8	0.002633
5.180000E-8	0.002312
5.185000E-8	0.002086
5.190000E-8	0.001695
5.195000E-8	0.001242
5.200000E-8	0.001016
5.205000E-8	0.000805
5.210000E-8	0.000586
5.215000E-8	0.000430
5.220000E-8	0.000289
5.225000E-8	0.000148
5.230000E-8	0.000141
5.235000E-8	0.000375
5.240000E-8	0.000305
5.245000E-8	0.000680
5.250000E-8	0.001141
5.255000E-8	0.001406
5.260000E-8	0.001602
5.265000E-8	0.001969
5.270000E-8	0.002086
5.275000E-8	0.002305
5.280000E-8	0.002375
5.285000E-8	0.002625
5.290000E-8	0.002719
5.295000E-8	0.002773
5.300000E-8	0.002672
5.305000E-8	0.002531
5.310000E-8	0.002305
5.315000E-8	0.002211
5.320000E-8	0.001789
5.325000E-8	0.001727
5.330000E-8	0.001383
5.335000E-8	0.000984
5.340000E-8	0.000594
5.345000E-8	0.000516
5.350000E-8	0.000180
5.355000E-8	0.000273
5.360000E-8	0.000305
5.365000E-8	0.000586
5.370000E-8	0.000563
5.375000E-8	0.000766
5.380000E-8	0.000945
5.385000E-8	0.001273
5.390000E-8	0.001492
5.395000E-8	0.002016
5.400000E-8	0.002180
5.405000E-8	0.002383
5.410000E-8	0.002367
5.415000E-8	0.002422
5.420000E-8	0.002422
5.425000E-8	0.002648
5.430000E-8	0.002391
5.435000E-8	0.002602
5.440000E-8	0.002375
5.445000E-8	0.002422
5.450000E-8	0.002063
5.455000E-8	0.001898
5.460000E-8	0.001859
5.465000E-8	0.001891
5.470000E-8	0.001148
5.475000E-8	0.001266
5.480000E-8	0.000937
5.485000E-8	0.000758
5.490000E-8	0.000648
5.495000E-8	0.000656
5.500000E-8	0.000547
5.505000E-8	0.000875
5.510000E-8	0.000992
5.515000E-8	0.001328
5.520000E-8	0.001578
5.525000E-8	0.001945
5.530000E-8	0.001922
5.535000E-8	0.002305
5.540000E-8	0.002430
5.545000E-8	0.002781
5.550000E-8	0.002930
5.555000E-8	0.003047
5.560000E-8	0.003000
5.565000E-8	0.002938
5.570000E-8	0.002656
5.575000E-8	0.002594
5.580000E-8	0.002211
5.585000E-8	0.002195
5.590000E-8	0.001828
5.595000E-8	0.001516
5.600000E-8	0.001031
5.605000E-8	0.000891
5.610000E-8	0.000672
5.615000E-8	0.000469
5.620000E-8	0.000609
5.625000E-8	0.000828
5.630000E-8	0.000828
5.635000E-8	0.000820
5.640000E-8	0.001008
5.645000E-8	0.001344
5.650000E-8	0.001469
5.655000E-8	0.001727
5.660000E-8	0.001789
5.665000E-8	0.002234
5.670000E-8	0.002461
5.675000E-8	0.002695
5.680000E-8	0.002477
5.685000E-8	0.002602
5.690000E-8	0.002461
5.695000E-8	0.002383
5.700000E-8	0.002344
5.705000E-8	0.002172
5.710000E-8	0.001922
5.715000E-8	0.001687
5.720000E-8	0.001344
5.725000E-8	0.001281
5.730000E-8	0.000906
5.735000E-8	0.000727
5.740000E-8	0.000789
5.745000E-8	0.000781
5.750000E-8	0.000766
5.755000E-8	0.000695
5.760000E-8	0.000883
5.765000E-8	0.001063
5.770000E-8	0.001148
5.775000E-8	0.001375
5.780000E-8	0.001680
5.785000E-8	0.001930
5.790000E-8	0.002211
5.795000E-8	0.002320
5.800000E-8	0.002516
5.805000E-8	0.002766
5.810000E-8	0.002820
5.815000E-8	0.002875
5.820000E-8	0.002594
5.825000E-8	0.002547
5.830000E-8	0.002258
5.835000E-8	0.002172
5.840000E-8	0.001891
5.845000E-8	0.001609
5.850000E-8	0.001453
5.855000E-8	0.001164
5.860000E-8	0.001086
5.865000E-8	0.001023
5.870000E-8	0.000719
5.875000E-8	0.000492
5.880000E-8	0.000422
5.885000E-8	0.000594
5.890000E-8	0.000734
5.895000E-8	0.000891
5.900000E-8	0.000977
5.905000E-8	0.001313
5.910000E-8	0.001305
5.915000E-8	0.001391
5.920000E-8	0.001594
5.925000E-8	0.001977
5.930000E-8	0.002086
5.935000E-8	0.002172
5.940000E-8	0.002195
5.945000E-8	0.002273
5.950000E-8	0.002461
5.955000E-8	0.002570
5.960000E-8	0.002563
5.965000E-8	0.002508
5.970000E-8	0.002195
5.975000E-8	0.002000
5.980000E-8	0.001773
5.985000E-8	0.001625
5.990000E-8	0.001281
5.995000E-8	0.001016
6.000000E-8	0.000789
6.005000E-8	0.000945
6.010000E-8	0.000773
6.015000E-8	0.000766
6.020000E-8	0.000820
6.025000E-8	0.001008
6.030000E-8	0.000945
6.035000E-8	0.001297
6.040000E-8	0.001352
6.045000E-8	0.001750
6.050000E-8	0.001672
6.055000E-8	0.001984
6.060000E-8	0.002266
6.065000E-8	0.002539
6.070000E-8	0.002500
6.075000E-8	0.002688
6.080000E-8	0.002695
6.085000E-8	0.002656
6.090000E-8	0.002680
6.095000E-8	0.002648
6.100000E-8	0.002352
6.105000E-8	0.002320
6.110000E-8	0.001805
6.115000E-8	0.001656
6.120000E-8	0.001352
6.125000E-8	0.001211
6.130000E-8	0.000922
6.135000E-8	0.000742
6.140000E-8	0.000664
6.145000E-8	0.000578
6.150000E-8	0.000422
6.155000E-8	0.000734
6.160000E-8	0.000641
6.165000E-8	0.001102
6.170000E-8	0.000977
6.175000E-8	0.001281
6.180000E-8	0.001289
6.185000E-8	0.001523
6.190000E-8	0.001578
6.195000E-8	0.001820
6.200000E-8	0.001898
6.205000E-8	0.001898
6.210000E-8	0.001953
6.215000E-8	0.001820
6.220000E-8	0.001625
6.225000E-8	0.001687
6.230000E-8	0.001750
6.235000E-8	0.001766
6.240000E-8	0.001492
6.245000E-8	0.001492
6.250000E-8	0.001344
6.255000E-8	0.001273
6.260000E-8	0.001211
6.265000E-8	0.001094
6.270000E-8	0.000992
6.275000E-8	0.000891
6.280000E-8	0.000844
6.285000E-8	0.001016
6.290000E-8	0.000859
6.295000E-8	0.000836
6.300000E-8	0.000977
6.305000E-8	0.001414
6.310000E-8	0.001648
6.315000E-8	0.001813
6.320000E-8	0.002070
6.325000E-8	0.002500
6.330000E-8	0.002492
6.335000E-8	0.002453
6.340000E-8	0.002344
6.345000E-8	0.002445
6.350000E-8	0.002367
6.355000E-8	0.002328
6.360000E-8	0.002180
6.365000E-8	0.002227
6.370000E-8	0.002016
6.375000E-8	0.001844
6.380000E-8	0.001687
6.385000E-8	0.001453
6.390000E-8	0.001437
6.395000E-8	0.001367
6.400000E-8	0.001234
6.405000E-8	0.001125
6.410000E-8	0.001195
6.415000E-8	0.001344
6.420000E-8	0.001234
6.425000E-8	0.001281
6.430000E-8	0.001563
6.435000E-8	0.001859
6.440000E-8	0.002148
6.445000E-8	0.002437
6.450000E-8	0.002523
6.455000E-8	0.002578
6.460000E-8	0.002656
6.465000E-8	0.002734
6.470000E-8	0.002625
6.475000E-8	0.002516
6.480000E-8	0.002211
6.485000E-8	0.002250
6.490000E-8	0.002102
6.495000E-8	0.002102
6.500000E-8	0.001813
6.505000E-8	0.002008
6.510000E-8	0.001781
6.515000E-8	0.001570
6.520000E-8	0.001484
6.525000E-8	0.001219
6.530000E-8	0.001164
6.535000E-8	0.001133
6.540000E-8	0.001250
6.545000E-8	0.001305
6.550000E-8	0.001117
6.555000E-8	0.001391
6.560000E-8	0.001195
6.565000E-8	0.001258
6.570000E-8	0.001344
6.575000E-8	0.001609
6.580000E-8	0.001852
6.585000E-8	0.002094
6.590000E-8	0.002375
6.595000E-8	0.002484
6.600000E-8	0.002445
6.605000E-8	0.002680
6.610000E-8	0.002617
6.615000E-8	0.002594
6.620000E-8	0.002500
6.625000E-8	0.002203
6.630000E-8	0.001898
6.635000E-8	0.001641
6.640000E-8	0.001375
6.645000E-8	0.001453
6.650000E-8	0.001328
6.655000E-8	0.001219
6.660000E-8	0.000953
6.665000E-8	0.001187
6.670000E-8	0.001187
6.675000E-8	0.001227
6.680000E-8	0.001266
6.685000E-8	0.001437
6.690000E-8	0.001523
6.695000E-8	0.001859
6.700000E-8	0.001867
6.705000E-8	0.002039
6.710000E-8	0.002063
6.715000E-8	0.002250
6.720000E-8	0.002078
6.725000E-8	0.002398
6.730000E-8	0.002391
6.735000E-8	0.002258
6.740000E-8	0.002125
6.745000E-8	0.002172
6.750000E-8	0.002195
6.755000E-8	0.002211
6.760000E-8	0.001766
6.765000E-8	0.001734
6.770000E-8	0.001539
6.775000E-8	0.001258
6.780000E-8	0.001219
6.785000E-8	0.001227
6.790000E-8	0.001164
6.795000E-8	0.001133
6.800000E-8	0.000930
6.805000E-8	0.001195
6.810000E-8	0.001102
6.815000E-8	0.001211
6.820000E-8	0.001086
6.825000E-8	0.001313
6.830000E-8	0.001234
6.835000E-8	0.001086
6.840000E-8	0.001219
6.845000E-8	0.001422
6.850000E-8	0.001555
6.855000E-8	0.001828
6.860000E-8	0.001922
6.865000E-8	0.002133
6.870000E-8	0.002039
6.875000E-8	0.002227
6.880000E-8	0.002141
6.885000E-8	0.002234
6.890000E-8	0.002063
6.895000E-8	0.001789
6.900000E-8	0.001656
6.905000E-8	0.001641
6.910000E-8	0.001414
6.915000E-8	0.001219
6.920000E-8	0.001375
6.925000E-8	0.001352
6.930000E-8	0.001469
6.935000E-8	0.001516
6.940000E-8	0.001352
6.945000E-8	0.001547
6.950000E-8	0.001625
6.955000E-8	0.001742
6.960000E-8	0.001789
6.965000E-8	0.001891
6.970000E-8	0.001992
6.975000E-8	0.002258
6.980000E-8	0.002250
6.985000E-8	0.002250
6.990000E-8	0.002125
6.995000E-8	0.002273
7.000000E-8	0.002258
7.005000E-8	0.002273
7.010000E-8	0.002125
7.015000E-8	0.002086
7.020000E-8	0.002023
7.025000E-8	0.001883
7.030000E-8	0.001695
7.035000E-8	0.001680
7.040000E-8	0.001719
7.045000E-8	0.001687
7.050000E-8	0.001430
7.055000E-8	0.001391
7.060000E-8	0.001172
7.065000E-8	0.001211
7.070000E-8	0.000852
7.075000E-8	0.001203
7.080000E-8	0.001320
7.085000E-8	0.001508
7.090000E-8	0.001531
7.095000E-8	0.001398
7.100000E-8	0.001445
7.105000E-8	0.001922
7.110000E-8	0.001836
7.115000E-8	0.002141
7.120000E-8	0.002258
7.125000E-8	0.002258
7.130000E-8	0.002258
7.135000E-8	0.002453
7.140000E-8	0.002156
7.145000E-8	0.002125
7.150000E-8	0.001937
7.155000E-8	0.002047
7.160000E-8	0.002000
7.165000E-8	0.001820
7.170000E-8	0.001711
7.175000E-8	0.001734
7.180000E-8	0.001516
7.185000E-8	0.001648
7.190000E-8	0.001344
7.195000E-8	0.001469
7.200000E-8	0.001156
7.205000E-8	0.001234
7.210000E-8	0.001234
7.215000E-8	0.001328
7.220000E-8	0.001500
7.225000E-8	0.001766
7.230000E-8	0.001945
7.235000E-8	0.001945
7.240000E-8	0.002063
7.245000E-8	0.002336
7.250000E-8	0.002461
7.255000E-8	0.002414
7.260000E-8	0.002477
7.265000E-8	0.002516
7.270000E-8	0.002430
7.275000E-8	0.002297
7.280000E-8	0.002039
7.285000E-8	0.001719
7.290000E-8	0.001664
7.295000E-8	0.001398
7.300000E-8	0.001359
7.305000E-8	0.001406
7.310000E-8	0.001375
7.315000E-8	0.001414
7.320000E-8	0.001086
7.325000E-8	0.001422
7.330000E-8	0.001211
7.335000E-8	0.001273
7.340000E-8	0.001414
7.345000E-8	0.001328
7.350000E-8	0.001383
7.355000E-8	0.001336
7.360000E-8	0.001430
7.365000E-8	0.001531
7.370000E-8	0.001406
7.375000E-8	0.001602
7.380000E-8	0.001656
7.385000E-8	0.001820
7.390000E-8	0.001859
7.395000E-8	0.001867
7.400000E-8	0.001922
7.405000E-8	0.002164
7.410000E-8	0.001883
7.415000E-8	0.001813
7.420000E-8	0.001828
7.425000E-8	0.001625
7.430000E-8	0.001695
7.435000E-8	0.001656
7.440000E-8	0.001469
7.445000E-8	0.001531
7.450000E-8	0.001531
7.455000E-8	0.001523
7.460000E-8	0.001187
7.465000E-8	0.001352
7.470000E-8	0.001398
7.475000E-8	0.001508
7.480000E-8	0.001539
7.485000E-8	0.001609
7.490000E-8	0.001625
7.495000E-8	0.001797
7.500000E-8	0.001867
7.505000E-8	0.002055
7.510000E-8	0.002258
7.515000E-8	0.002219
7.520000E-8	0.002086
7.525000E-8	0.002430
7.530000E-8	0.002250
7.535000E-8	0.002242
7.540000E-8	0.002102
7.545000E-8	0.001961
7.550000E-8	0.001992
7.555000E-8	0.001961
7.560000E-8	0.001914
7.565000E-8	0.001789
7.570000E-8	0.001836
7.575000E-8	0.001664
7.580000E-8	0.001430
7.585000E-8	0.001727
7.590000E-8	0.001617
7.595000E-8	0.001742
7.600000E-8	0.001641
7.605000E-8	0.001664
7.610000E-8	0.001484
7.615000E-8	0.001508
7.620000E-8	0.001383
7.625000E-8	0.001414
7.630000E-8	0.001547
7.635000E-8	0.001719
7.640000E-8	0.001836
7.645000E-8	0.002008
7.650000E-8	0.002047
7.655000E-8	0.002039
7.660000E-8	0.002086
7.665000E-8	0.001828
7.670000E-8	0.001883
7.675000E-8	0.001961
7.680000E-8	0.001781
7.685000E-8	0.001633
7.690000E-8	0.001578
7.695000E-8	0.001336
7.700000E-8	0.001180
7.705000E-8	0.001289
7.710000E-8	0.001023
7.715000E-8	0.000969
7.720000E-8	0.001086
7.725000E-8	0.001180
7.730000E-8	0.001375
7.735000E-8	0.001516
7.740000E-8	0.001469
7.745000E-8	0.001578
7.750000E-8	0.001477
7.755000E-8	0.001695
7.760000E-8	0.001695
7.765000E-8	0.001766
7.770000E-8	0.002070
7.775000E-8	0.002094
7.780000E-8	0.002195
7.785000E-8	0.002242
7.790000E-8	0.002320
7.795000E-8	0.002437
7.800000E-8	0.002188
7.805000E-8	0.002203
7.810000E-8	0.002016
7.815000E-8	0.002148
7.820000E-8	0.002008
7.825000E-8	0.001937
7.830000E-8	0.001836
7.835000E-8	0.001672
7.840000E-8	0.001633
7.845000E-8	0.001680
7.850000E-8	0.001445
7.855000E-8	0.001641
7.860000E-8	0.001531
7.865000E-8	0.001750
7.870000E-8	0.001703
7.875000E-8	0.001742
7.880000E-8	0.001781
7.885000E-8	0.001953
7.890000E-8	0.001813
7.895000E-8	0.001984
7.900000E-8	0.001945
7.905000E-8	0.002047
7.910000E-8	0.002008
7.915000E-8	0.002000
7.920000E-8	0.001906
7.925000E-8	0.001930
7.930000E-8	0.001695
7.935000E-8	0.001711
7.940000E-8	0.001469
7.945000E-8	0.001672
7.950000E-8	0.001609
7.955000E-8	0.001719
7.960000E-8	0.001555
7.965000E-8	0.001367
7.970000E-8	0.001352
7.975000E-8	0.001320
7.980000E-8	0.001273
7.985000E-8	0.001336
7.990000E-8	0.001320
7.995000E-8	0.001445
8.000000E-8	0.001398
8.005000E-8	0.001609
8.010000E-8	0.001586
8.015000E-8	0.001797
8.020000E-8	0.001633
8.025000E-8	0.001742
8.030000E-8	0.001625
8.035000E-8	0.001773
8.040000E-8	0.001586
8.045000E-8	0.001852
8.050000E-8	0.001727
8.055000E-8	0.001859
8.060000E-8	0.001820
8.065000E-8	0.001820
8.070000E-8	0.001844
8.075000E-8	0.002008
8.080000E-8	0.001836
8.085000E-8	0.001891
8.090000E-8	0.001680
8.095000E-8	0.001711
8.100000E-8	0.001500
8.105000E-8	0.001320
8.110000E-8	0.001383
8.115000E-8	0.001437
8.120000E-8	0.001500
8.125000E-8	0.001313
8.130000E-8	0.001297
8.135000E-8	0.001586
8.140000E-8	0.001625
8.145000E-8	0.001602
8.150000E-8	0.001758
8.155000E-8	0.001977
8.160000E-8	0.001883
8.165000E-8	0.002086
8.170000E-8	0.002039
8.175000E-8	0.001914
8.180000E-8	0.001922
8.185000E-8	0.001859
8.190000E-8	0.001977
8.195000E-8	0.001930
8.200000E-8	0.001766
8.205000E-8	0.001719
8.210000E-8	0.001516
8.215000E-8	0.001500
8.220000E-8	0.001352
8.225000E-8	0.001375
8.230000E-8	0.001313
8.235000E-8	0.001469
8.240000E-8	0.001383
8.245000E-8	0.001586
8.250000E-8	0.001578
8.255000E-8	0.001687
8.260000E-8	0.001609
8.265000E-8	0.001719
8.270000E-8	0.001867
8.275000E-8	0.001773
8.280000E-8	0.001625
8.285000E-8	0.001875
8.290000E-8	0.002039
8.295000E-8	0.002000
8.300000E-8	0.001992
8.305000E-8	0.001859
8.310000E-8	0.001969
8.315000E-8	0.002031
8.320000E-8	0.002102
8.325000E-8	0.002008
8.330000E-8	0.001898
8.335000E-8	0.001781
8.340000E-8	0.001750
8.345000E-8	0.001758
8.350000E-8	0.001609
8.355000E-8	0.001687
8.360000E-8	0.001555
8.365000E-8	0.001477
8.370000E-8	0.001406
8.375000E-8	0.001383
8.380000E-8	0.001266
8.385000E-8	0.001383
8.390000E-8	0.001344
8.395000E-8	0.001477
8.400000E-8	0.001492
8.405000E-8	0.001687
8.410000E-8	0.001484
8.415000E-8	0.001797
8.420000E-8	0.001813
8.425000E-8	0.001813
8.430000E-8	0.001687
8.435000E-8	0.001813
8.440000E-8	0.001859
8.445000E-8	0.002078
8.450000E-8	0.001758
8.455000E-8	0.001695
8.460000E-8	0.001609
8.465000E-8	0.001633
8.470000E-8	0.001539
8.475000E-8	0.001266
8.480000E-8	0.001203
8.485000E-8	0.001211
8.490000E-8	0.001063
8.495000E-8	0.001148
8.500000E-8	0.001094
8.505000E-8	0.001117
8.510000E-8	0.001313
8.515000E-8	0.001398
8.520000E-8	0.001320
8.525000E-8	0.001344
8.530000E-8	0.001352
8.535000E-8	0.001586
8.540000E-8	0.001656
8.545000E-8	0.001813
8.550000E-8	0.001680
8.555000E-8	0.001836
8.560000E-8	0.001742
8.565000E-8	0.001977
8.570000E-8	0.001789
8.575000E-8	0.001945
8.580000E-8	0.001828
8.585000E-8	0.001703
8.590000E-8	0.001594
8.595000E-8	0.001719
8.600000E-8	0.001570
8.605000E-8	0.001633
8.610000E-8	0.001633
8.615000E-8	0.001578
8.620000E-8	0.001563
8.625000E-8	0.001523
8.630000E-8	0.001469
8.635000E-8	0.001406
8.640000E-8	0.001461
8.645000E-8	0.001414
8.650000E-8	0.001289
8.655000E-8	0.001289
8.660000E-8	0.001250
8.665000E-8	0.001625
8.670000E-8	0.001586
8.675000E-8	0.001820
8.680000E-8	0.001664
8.685000E-8	0.001852
8.690000E-8	0.001758
8.695000E-8	0.001797
8.700000E-8	0.001828
8.705000E-8	0.001719
8.710000E-8	0.001664
8.715000E-8	0.001750
8.720000E-8	0.001594
8.725000E-8	0.001672
8.730000E-8	0.001508
8.735000E-8	0.001414
8.740000E-8	0.001367
8.745000E-8	0.001445
8.750000E-8	0.001211
8.755000E-8	0.001180
8.760000E-8	0.001070
8.765000E-8	0.001133
8.770000E-8	0.001297
8.775000E-8	0.001289
8.780000E-8	0.001437
8.785000E-8	0.001609
8.790000E-8	0.001531
8.795000E-8	0.001617
8.800000E-8	0.001641
8.805000E-8	0.002086
8.810000E-8	0.001914
8.815000E-8	0.001961
8.820000E-8	0.001922
8.825000E-8	0.002063
8.830000E-8	0.001930
8.835000E-8	0.001703
8.840000E-8	0.001844
8.845000E-8	0.001672
8.850000E-8	0.001602
8.855000E-8	0.001594
8.860000E-8	0.001766
8.865000E-8	0.001742
8.870000E-8	0.001594
8.875000E-8	0.001633
8.880000E-8	0.001461
8.885000E-8	0.001617
8.890000E-8	0.001719
8.895000E-8	0.001805
8.900000E-8	0.001594
8.905000E-8	0.001422
8.910000E-8	0.001352
8.915000E-8	0.001273
8.920000E-8	0.001344
8.925000E-8	0.001367
8.930000E-8	0.001414
8.935000E-8	0.001578
8.940000E-8	0.001750
8.945000E-8	0.001828
8.950000E-8	0.001945
8.955000E-8	0.002172
8.960000E-8	0.001937
8.965000E-8	0.001961
8.970000E-8	0.001867
8.975000E-8	0.001883
8.980000E-8	0.001805
8.985000E-8	0.001867
8.990000E-8	0.001859
8.995000E-8	0.002008
9.000000E-8	0.001875
9.005000E-8	0.001836
9.010000E-8	0.001687
9.015000E-8	0.001555
9.020000E-8	0.001492
9.025000E-8	0.001672
9.030000E-8	0.001617
9.035000E-8	0.001617
9.040000E-8	0.001523
9.045000E-8	0.001750
9.050000E-8	0.001773
9.055000E-8	0.001813
9.060000E-8	0.001883
9.065000E-8	0.001883
9.070000E-8	0.001820
9.075000E-8	0.001992
9.080000E-8	0.001805
9.085000E-8	0.001813
9.090000E-8	0.001594
9.095000E-8	0.001711
9.100000E-8	0.001500
9.105000E-8	0.001430
9.110000E-8	0.001797
9.115000E-8	0.001664
9.120000E-8	0.001695
9.125000E-8	0.001766
9.130000E-8	0.001563
9.135000E-8	0.001523
9.140000E-8	0.001492
9.145000E-8	0.001656
9.150000E-8	0.001602
9.155000E-8	0.001508
9.160000E-8	0.001305
9.165000E-8	0.001508
9.170000E-8	0.001781
9.175000E-8	0.001625
9.180000E-8	0.001461
9.185000E-8	0.001453
9.190000E-8	0.001492
9.195000E-8	0.001367
9.200000E-8	0.001508
9.205000E-8	0.001758
9.210000E-8	0.001875
9.215000E-8	0.002023
9.220000E-8	0.002023
9.225000E-8	0.002008
9.230000E-8	0.001820
9.235000E-8	0.001914
9.240000E-8	0.001930
9.245000E-8	0.001953
9.250000E-8	0.001664
9.255000E-8	0.001539
9.260000E-8	0.001297
9.265000E-8	0.001367
9.270000E-8	0.001141
9.275000E-8	0.001125
9.280000E-8	0.001070
9.285000E-8	0.001219
9.290000E-8	0.001148
9.295000E-8	0.001344
9.300000E-8	0.001227
9.305000E-8	0.001422
9.310000E-8	0.001516
9.315000E-8	0.001625
9.320000E-8	0.001516
9.325000E-8	0.001891
9.330000E-8	0.001750
9.335000E-8	0.001992
9.340000E-8	0.001883
9.345000E-8	0.001891
9.350000E-8	0.001820
9.355000E-8	0.001883
9.360000E-8	0.001789
9.365000E-8	0.001820
9.370000E-8	0.001789
9.375000E-8	0.001914
9.380000E-8	0.001648
9.385000E-8	0.001789
9.390000E-8	0.001789
9.395000E-8	0.001875
9.400000E-8	0.001727
9.405000E-8	0.001844
9.410000E-8	0.001578
9.415000E-8	0.001625
9.420000E-8	0.001422
9.425000E-8	0.001492
9.430000E-8	0.001266
9.435000E-8	0.001141
9.440000E-8	0.001187
9.445000E-8	0.001430
9.450000E-8	0.001414
9.455000E-8	0.001555
9.460000E-8	0.001641
9.465000E-8	0.001797
9.470000E-8	0.001695
9.475000E-8	0.001625
9.480000E-8	0.001828
9.485000E-8	0.001719
9.490000E-8	0.001734
9.495000E-8	0.002000
9.500000E-8	0.001687
9.505000E-8	0.001937
9.510000E-8	0.001891
9.515000E-8	0.001836
9.520000E-8	0.001687
9.525000E-8	0.001914
9.530000E-8	0.001719
9.535000E-8	0.001719
9.540000E-8	0.001422
9.545000E-8	0.001586
9.550000E-8	0.001453
9.555000E-8	0.001617
9.560000E-8	0.001766
9.565000E-8	0.001648
9.570000E-8	0.001570
9.575000E-8	0.001492
9.580000E-8	0.001625
9.585000E-8	0.001805
9.590000E-8	0.001672
9.595000E-8	0.001930
9.600000E-8	0.001750
9.605000E-8	0.001977
9.610000E-8	0.001953
9.615000E-8	0.002148
9.620000E-8	0.002094
9.625000E-8	0.002023
9.630000E-8	0.002078
9.635000E-8	0.002133
9.640000E-8	0.001883
9.645000E-8	0.001898
9.650000E-8	0.001664
9.655000E-8	0.001641
9.660000E-8	0.001508
9.665000E-8	0.001531
9.670000E-8	0.001398
9.675000E-8	0.001422
9.680000E-8	0.001406
9.685000E-8	0.001352
9.690000E-8	0.001477
9.695000E-8	0.001531
9.700000E-8	0.001461
9.705000E-8	0.001594
9.710000E-8	0.001555
9.715000E-8	0.001352
9.720000E-8	0.001727
9.725000E-8	0.001906
9.730000E-8	0.001758
9.735000E-8	0.001547
9.740000E-8	0.001594
9.745000E-8	0.001742
9.750000E-8	0.001711
9.755000E-8	0.001555
9.760000E-8	0.001445
9.765000E-8	0.001484
9.770000E-8	0.001461
9.775000E-8	0.001500
9.780000E-8	0.001281
9.785000E-8	0.001484
9.790000E-8	0.001195
9.795000E-8	0.001203
9.800000E-8	0.001109
9.805000E-8	0.001187
9.810000E-8	0.001344
9.815000E-8	0.001484
9.820000E-8	0.001664
9.825000E-8	0.001656
9.830000E-8	0.001617
9.835000E-8	0.001766
9.840000E-8	0.001672
9.845000E-8	0.001570
9.850000E-8	0.001687
9.855000E-8	0.001758
9.860000E-8	0.001695
9.865000E-8	0.001773
9.870000E-8	0.001750
9.875000E-8	0.001883
9.880000E-8	0.001977
9.885000E-8	0.002000
9.890000E-8	0.002023
9.895000E-8	0.002000
9.900000E-8	0.001781
9.905000E-8	0.001828
9.910000E-8	0.001602
9.915000E-8	0.001641
9.920000E-8	0.001172
9.925000E-8	0.001359
9.930000E-8	0.001297
9.935000E-8	0.001445
9.940000E-8	0.001398
9.945000E-8	0.001664
9.950000E-8	0.001672
9.955000E-8	0.001813
9.960000E-8	0.001789
9.965000E-8	0.001789
9.970000E-8	0.001742
9.975000E-8	0.001703
9.980000E-8	0.001594
9.985000E-8	0.001664
9.990000E-8	0.001508
9.995000E-8	0.001609
