LabVIEW Measurement	
Writer_Version	2
Reader_Version	2
Separator	Tab
Decimal_Separator	.
Multi_Headings	No
X_Columns	Multi
Time_Pref	Relative
Operator	TG lab
Date	2015/03/06
Time	18:09:08.2701201438903808594
***End_of_Header***	
	
Channels	1	
Samples	2000	
Date	1903/12/31	
Time	19:00:00	
X_Dimension	Time	
X0	0.0000000000000000E+0	
Delta_X	5.000000E-11	
***End_of_Header***		
X_Value	Untitled	Comment
0.000000	0.002406
5.000000E-11	0.002422
1.000000E-10	0.002352
1.500000E-10	0.002547
2.000000E-10	0.002563
2.500000E-10	0.002648
3.000000E-10	0.002633
3.500000E-10	0.002867
4.000000E-10	0.002914
4.500000E-10	0.002914
5.000000E-10	0.002961
5.500000E-10	0.002797
6.000000E-10	0.002719
6.500000E-10	0.002766
7.000000E-10	0.002617
7.500000E-10	0.002672
8.000000E-10	0.002547
8.500000E-10	0.002516
9.000000E-10	0.002563
9.500000E-10	0.002680
1.000000E-9	0.002688
1.050000E-9	0.002711
1.100000E-9	0.002461
1.150000E-9	0.002500
1.200000E-9	0.002469
1.250000E-9	0.002609
1.300000E-9	0.002328
1.350000E-9	0.002609
1.400000E-9	0.002445
1.450000E-9	0.002422
1.500000E-9	0.002633
1.550000E-9	0.002766
1.600000E-9	0.002867
1.650000E-9	0.002992
1.700000E-9	0.003000
1.750000E-9	0.003234
1.800000E-9	0.003172
1.850000E-9	0.003070
1.900000E-9	0.003148
1.950000E-9	0.003328
2.000000E-9	0.003320
2.050000E-9	0.003273
2.100000E-9	0.003367
2.150000E-9	0.003398
2.200000E-9	0.003344
2.250000E-9	0.003469
2.300000E-9	0.003359
2.350000E-9	0.003500
2.400000E-9	0.003492
2.450000E-9	0.003438
2.500000E-9	0.003664
2.550000E-9	0.003789
2.600000E-9	0.003828
2.650000E-9	0.003719
2.700000E-9	0.003781
2.750000E-9	0.003945
2.800000E-9	0.003508
2.850000E-9	0.003586
2.900000E-9	0.003602
2.950000E-9	0.003484
3.000000E-9	0.003398
3.050000E-9	0.003641
3.100000E-9	0.003625
3.150000E-9	0.003602
3.200000E-9	0.003594
3.250000E-9	0.003836
3.300000E-9	0.003859
3.350000E-9	0.003898
3.400000E-9	0.003891
3.450000E-9	0.004227
3.500000E-9	0.004203
3.550000E-9	0.004320
3.600000E-9	0.004453
3.650000E-9	0.004266
3.700000E-9	0.004188
3.750000E-9	0.004172
3.800000E-9	0.004219
3.850000E-9	0.004531
3.900000E-9	0.004695
3.950000E-9	0.004867
4.000000E-9	0.005195
4.050000E-9	0.005250
4.100000E-9	0.005422
4.150000E-9	0.005797
4.200000E-9	0.006039
4.250000E-9	0.006625
4.300000E-9	0.007094
4.350000E-9	0.008016
4.400000E-9	0.008844
4.450000E-9	0.009914
4.500000E-9	0.010977
4.550000E-9	0.012383
4.600000E-9	0.013797
4.650000E-9	0.015297
4.700000E-9	0.016672
4.750000E-9	0.018203
4.800000E-9	0.019766
4.850000E-9	0.021109
4.900000E-9	0.022672
4.950000E-9	0.024258
5.000000E-9	0.025625
5.050000E-9	0.027273
5.100000E-9	0.028656
5.150000E-9	0.030406
5.200000E-9	0.032141
5.250000E-9	0.033797
5.300000E-9	0.035555
5.350000E-9	0.037141
5.400000E-9	0.038508
5.450000E-9	0.039516
5.500000E-9	0.040586
5.550000E-9	0.041383
5.600000E-9	0.041656
5.650000E-9	0.041773
5.700000E-9	0.041156
5.750000E-9	0.040383
5.800000E-9	0.039242
5.850000E-9	0.037836
5.900000E-9	0.036062
5.950000E-9	0.034016
6.000000E-9	0.031766
6.050000E-9	0.029750
6.100000E-9	0.027648
6.150000E-9	0.026102
6.200000E-9	0.024500
6.250000E-9	0.023477
6.300000E-9	0.022781
6.350000E-9	0.022703
6.400000E-9	0.022805
6.450000E-9	0.023172
6.500000E-9	0.023602
6.550000E-9	0.024258
6.600000E-9	0.024828
6.650000E-9	0.025672
6.700000E-9	0.026172
6.750000E-9	0.026797
6.800000E-9	0.027070
6.850000E-9	0.027312
6.900000E-9	0.027328
6.950000E-9	0.027492
7.000000E-9	0.027281
7.050000E-9	0.026625
7.100000E-9	0.026180
7.150000E-9	0.025102
7.200000E-9	0.023898
7.250000E-9	0.022594
7.300000E-9	0.021219
7.350000E-9	0.019867
7.400000E-9	0.018141
7.450000E-9	0.017031
7.500000E-9	0.015992
7.550000E-9	0.015148
7.600000E-9	0.014336
7.650000E-9	0.013992
7.700000E-9	0.013844
7.750000E-9	0.014352
7.800000E-9	0.015023
7.850000E-9	0.015602
7.900000E-9	0.016578
7.950000E-9	0.017484
8.000000E-9	0.018352
8.050000E-9	0.019086
8.100000E-9	0.019445
8.150000E-9	0.019703
8.200000E-9	0.019992
8.250000E-9	0.019961
8.300000E-9	0.019766
8.350000E-9	0.019578
8.400000E-9	0.018969
8.450000E-9	0.018164
8.500000E-9	0.017219
8.550000E-9	0.015945
8.600000E-9	0.015008
8.650000E-9	0.013844
8.700000E-9	0.012703
8.750000E-9	0.011633
8.800000E-9	0.010609
8.850000E-9	0.010117
8.900000E-9	0.009531
8.950000E-9	0.009133
9.000000E-9	0.009195
9.050000E-9	0.009320
9.100000E-9	0.009477
9.150000E-9	0.010008
9.200000E-9	0.010500
9.250000E-9	0.011289
9.300000E-9	0.011969
9.350000E-9	0.012695
9.400000E-9	0.013305
9.450000E-9	0.013703
9.500000E-9	0.014297
9.550000E-9	0.014563
9.600000E-9	0.014570
9.650000E-9	0.014469
9.700000E-9	0.014305
9.750000E-9	0.013789
9.800000E-9	0.013211
9.850000E-9	0.012453
9.900000E-9	0.011398
9.950000E-9	0.010586
1.000000E-8	0.009680
1.005000E-8	0.008820
1.010000E-8	0.008031
1.015000E-8	0.007422
1.020000E-8	0.006672
1.025000E-8	0.006406
1.030000E-8	0.006117
1.035000E-8	0.006148
1.040000E-8	0.006398
1.045000E-8	0.006773
1.050000E-8	0.007359
1.055000E-8	0.007969
1.060000E-8	0.008797
1.065000E-8	0.009570
1.070000E-8	0.010219
1.075000E-8	0.010750
1.080000E-8	0.011148
1.085000E-8	0.011492
1.090000E-8	0.011742
1.095000E-8	0.011789
1.100000E-8	0.011477
1.105000E-8	0.011133
1.110000E-8	0.010734
1.115000E-8	0.010070
1.120000E-8	0.009344
1.125000E-8	0.008633
1.130000E-8	0.008047
1.135000E-8	0.007297
1.140000E-8	0.006383
1.145000E-8	0.005695
1.150000E-8	0.004992
1.155000E-8	0.004781
1.160000E-8	0.004398
1.165000E-8	0.004406
1.170000E-8	0.004320
1.175000E-8	0.004602
1.180000E-8	0.004891
1.185000E-8	0.005555
1.190000E-8	0.006406
1.195000E-8	0.006930
1.200000E-8	0.007508
1.205000E-8	0.008164
1.210000E-8	0.008930
1.215000E-8	0.009398
1.220000E-8	0.009602
1.225000E-8	0.009961
1.230000E-8	0.009938
1.235000E-8	0.009773
1.240000E-8	0.009391
1.245000E-8	0.008875
1.250000E-8	0.008117
1.255000E-8	0.007273
1.260000E-8	0.006555
1.265000E-8	0.005570
1.270000E-8	0.004875
1.275000E-8	0.003977
1.280000E-8	0.003320
1.285000E-8	0.002703
1.290000E-8	0.002469
1.295000E-8	0.002203
1.300000E-8	0.002289
1.305000E-8	0.002453
1.310000E-8	0.002938
1.315000E-8	0.003367
1.320000E-8	0.004023
1.325000E-8	0.004867
1.330000E-8	0.005672
1.335000E-8	0.006625
1.340000E-8	0.007164
1.345000E-8	0.007797
1.350000E-8	0.008344
1.355000E-8	0.008773
1.360000E-8	0.008844
1.365000E-8	0.008922
1.370000E-8	0.008570
1.375000E-8	0.008352
1.380000E-8	0.007578
1.385000E-8	0.007172
1.390000E-8	0.006203
1.395000E-8	0.005555
1.400000E-8	0.004625
1.405000E-8	0.003945
1.410000E-8	0.003242
1.415000E-8	0.002727
1.420000E-8	0.002016
1.425000E-8	0.001555
1.430000E-8	0.001461
1.435000E-8	0.001609
1.440000E-8	0.001805
1.445000E-8	0.002273
1.450000E-8	0.002852
1.455000E-8	0.003719
1.460000E-8	0.004344
1.465000E-8	0.005398
1.470000E-8	0.006320
1.475000E-8	0.006891
1.480000E-8	0.007539
1.485000E-8	0.007727
1.490000E-8	0.007812
1.495000E-8	0.007961
1.500000E-8	0.007766
1.505000E-8	0.007484
1.510000E-8	0.006609
1.515000E-8	0.005961
1.520000E-8	0.005016
1.525000E-8	0.004367
1.530000E-8	0.003547
1.535000E-8	0.002695
1.540000E-8	0.001828
1.545000E-8	0.001125
1.550000E-8	0.000820
1.555000E-8	0.000773
1.560000E-8	0.000438
1.565000E-8	0.000758
1.570000E-8	0.001008
1.575000E-8	0.001813
1.580000E-8	0.002320
1.585000E-8	0.003055
1.590000E-8	0.004063
1.595000E-8	0.004977
1.600000E-8	0.005648
1.605000E-8	0.006313
1.610000E-8	0.006742
1.615000E-8	0.007063
1.620000E-8	0.007281
1.625000E-8	0.007266
1.630000E-8	0.007008
1.635000E-8	0.006828
1.640000E-8	0.006336
1.645000E-8	0.005508
1.650000E-8	0.004797
1.655000E-8	0.003812
1.660000E-8	0.003023
1.665000E-8	0.002266
1.670000E-8	0.001367
1.675000E-8	0.000648
1.680000E-8	0.000328
1.685000E-8	4.687500E-5
1.690000E-8	6.250000E-5
1.695000E-8	0.000188
1.700000E-8	0.000648
1.705000E-8	0.001453
1.710000E-8	0.002102
1.715000E-8	0.002852
1.720000E-8	0.003445
1.725000E-8	0.004477
1.730000E-8	0.005234
1.735000E-8	0.006039
1.740000E-8	0.006477
1.745000E-8	0.006812
1.750000E-8	0.006758
1.755000E-8	0.006758
1.760000E-8	0.006430
1.765000E-8	0.005914
1.770000E-8	0.005469
1.775000E-8	0.004609
1.780000E-8	0.003836
1.785000E-8	0.003289
1.790000E-8	0.002555
1.795000E-8	0.001695
1.800000E-8	0.001023
1.805000E-8	0.000703
1.810000E-8	0.000156
1.815000E-8	0.000000
1.820000E-8	-3.125000E-5
1.825000E-8	9.375000E-5
1.830000E-8	0.000164
1.835000E-8	0.000680
1.840000E-8	0.001148
1.845000E-8	0.001922
1.850000E-8	0.002508
1.855000E-8	0.003336
1.860000E-8	0.004250
1.865000E-8	0.004750
1.870000E-8	0.005383
1.875000E-8	0.005961
1.880000E-8	0.006039
1.885000E-8	0.006180
1.890000E-8	0.006117
1.895000E-8	0.005633
1.900000E-8	0.005055
1.905000E-8	0.004398
1.910000E-8	0.003836
1.915000E-8	0.003141
1.920000E-8	0.002422
1.925000E-8	0.001648
1.930000E-8	0.000836
1.935000E-8	0.000477
1.940000E-8	8.593750E-5
1.945000E-8	-0.000227
1.950000E-8	-0.000328
1.955000E-8	-0.000156
1.960000E-8	0.000289
1.965000E-8	0.000891
1.970000E-8	0.001313
1.975000E-8	0.002031
1.980000E-8	0.002586
1.985000E-8	0.003117
1.990000E-8	0.003859
1.995000E-8	0.004523
2.000000E-8	0.004828
2.005000E-8	0.005438
2.010000E-8	0.005578
2.015000E-8	0.005719
2.020000E-8	0.005328
2.025000E-8	0.005352
2.030000E-8	0.005000
2.035000E-8	0.004492
2.040000E-8	0.003688
2.045000E-8	0.003078
2.050000E-8	0.002422
2.055000E-8	0.001672
2.060000E-8	0.001102
2.065000E-8	0.000633
2.070000E-8	0.000367
2.075000E-8	-7.812500E-6
2.080000E-8	-0.000258
2.085000E-8	-0.000391
2.090000E-8	-2.343750E-5
2.095000E-8	0.000313
2.100000E-8	0.000609
2.105000E-8	0.001406
2.110000E-8	0.001852
2.115000E-8	0.002516
2.120000E-8	0.003211
2.125000E-8	0.003852
2.130000E-8	0.004266
2.135000E-8	0.004930
2.140000E-8	0.005063
2.145000E-8	0.005352
2.150000E-8	0.005344
2.155000E-8	0.005188
2.160000E-8	0.004562
2.165000E-8	0.004234
2.170000E-8	0.003648
2.175000E-8	0.003211
2.180000E-8	0.002469
2.185000E-8	0.002000
2.190000E-8	0.001398
2.195000E-8	0.000922
2.200000E-8	0.000445
2.205000E-8	9.375000E-5
2.210000E-8	-0.000336
2.215000E-8	-0.000188
2.220000E-8	0.000156
2.225000E-8	0.000242
2.230000E-8	0.000703
2.235000E-8	0.001234
2.240000E-8	0.001563
2.245000E-8	0.002102
2.250000E-8	0.002703
2.255000E-8	0.003273
2.260000E-8	0.003820
2.265000E-8	0.004359
2.270000E-8	0.004750
2.275000E-8	0.004906
2.280000E-8	0.005023
2.285000E-8	0.005016
2.290000E-8	0.004914
2.295000E-8	0.004711
2.300000E-8	0.004148
2.305000E-8	0.003742
2.310000E-8	0.003078
2.315000E-8	0.002516
2.320000E-8	0.001672
2.325000E-8	0.001344
2.330000E-8	0.000766
2.335000E-8	0.000414
2.340000E-8	4.687500E-5
2.345000E-8	-0.000141
2.350000E-8	-0.000336
2.355000E-8	7.812500E-6
2.360000E-8	9.375000E-5
2.365000E-8	0.000531
2.370000E-8	0.001195
2.375000E-8	0.001844
2.380000E-8	0.002297
2.385000E-8	0.003258
2.390000E-8	0.003773
2.395000E-8	0.004547
2.400000E-8	0.004820
2.405000E-8	0.005016
2.410000E-8	0.005039
2.415000E-8	0.005164
2.420000E-8	0.004906
2.425000E-8	0.004687
2.430000E-8	0.004148
2.435000E-8	0.003758
2.440000E-8	0.002906
2.445000E-8	0.002211
2.450000E-8	0.001742
2.455000E-8	0.001266
2.460000E-8	0.000852
2.465000E-8	0.000445
2.470000E-8	0.000477
2.475000E-8	0.000227
2.480000E-8	0.000102
2.485000E-8	9.375000E-5
2.490000E-8	0.000188
2.495000E-8	0.000875
2.500000E-8	0.001375
2.505000E-8	0.001836
2.510000E-8	0.002555
2.515000E-8	0.003156
2.520000E-8	0.003938
2.525000E-8	0.004469
2.530000E-8	0.004859
2.535000E-8	0.005086
2.540000E-8	0.005289
2.545000E-8	0.005234
2.550000E-8	0.004992
2.555000E-8	0.004961
2.560000E-8	0.004320
2.565000E-8	0.003797
2.570000E-8	0.003344
2.575000E-8	0.002719
2.580000E-8	0.002086
2.585000E-8	0.001445
2.590000E-8	0.000844
2.595000E-8	0.000477
2.600000E-8	-1.562500E-5
2.605000E-8	-0.000281
2.610000E-8	-0.000297
2.615000E-8	-7.812500E-5
2.620000E-8	0.000305
2.625000E-8	0.000844
2.630000E-8	0.001383
2.635000E-8	0.001953
2.640000E-8	0.002492
2.645000E-8	0.003102
2.650000E-8	0.003547
2.655000E-8	0.004133
2.660000E-8	0.004687
2.665000E-8	0.004984
2.670000E-8	0.004938
2.675000E-8	0.004930
2.680000E-8	0.004539
2.685000E-8	0.004383
2.690000E-8	0.003828
2.695000E-8	0.003586
2.700000E-8	0.002820
2.705000E-8	0.002133
2.710000E-8	0.001570
2.715000E-8	0.001078
2.720000E-8	0.000617
2.725000E-8	0.000133
2.730000E-8	-2.343750E-5
2.735000E-8	3.906250E-5
2.740000E-8	5.468750E-5
2.745000E-8	0.000188
2.750000E-8	0.000266
2.755000E-8	0.000742
2.760000E-8	0.001500
2.765000E-8	0.002078
2.770000E-8	0.002539
2.775000E-8	0.003055
2.780000E-8	0.003563
2.785000E-8	0.004063
2.790000E-8	0.004406
2.795000E-8	0.004789
2.800000E-8	0.004797
2.805000E-8	0.005008
2.810000E-8	0.004766
2.815000E-8	0.004484
2.820000E-8	0.004180
2.825000E-8	0.003602
2.830000E-8	0.003242
2.835000E-8	0.002742
2.840000E-8	0.002133
2.845000E-8	0.001602
2.850000E-8	0.001008
2.855000E-8	0.000844
2.860000E-8	0.000648
2.865000E-8	0.000328
2.870000E-8	3.906250E-5
2.875000E-8	0.000172
2.880000E-8	0.000438
2.885000E-8	0.000867
2.890000E-8	0.001187
2.895000E-8	0.001719
2.900000E-8	0.002242
2.905000E-8	0.003055
2.910000E-8	0.003500
2.915000E-8	0.003797
2.920000E-8	0.003945
2.925000E-8	0.004266
2.930000E-8	0.004266
2.935000E-8	0.004289
2.940000E-8	0.004336
2.945000E-8	0.003961
2.950000E-8	0.003508
2.955000E-8	0.003156
2.960000E-8	0.002633
2.965000E-8	0.002383
2.970000E-8	0.001977
2.975000E-8	0.001578
2.980000E-8	0.001258
2.985000E-8	0.001117
2.990000E-8	0.000687
2.995000E-8	0.000648
3.000000E-8	0.000258
3.005000E-8	0.000586
3.010000E-8	0.000727
3.015000E-8	0.001086
3.020000E-8	0.001203
3.025000E-8	0.001492
3.030000E-8	0.001680
3.035000E-8	0.002281
3.040000E-8	0.002648
3.045000E-8	0.003008
3.050000E-8	0.003203
3.055000E-8	0.003641
3.060000E-8	0.003492
3.065000E-8	0.003688
3.070000E-8	0.003625
3.075000E-8	0.003727
3.080000E-8	0.003539
3.085000E-8	0.003531
3.090000E-8	0.003016
3.095000E-8	0.002883
3.100000E-8	0.002273
3.105000E-8	0.001953
3.110000E-8	0.001539
3.115000E-8	0.001203
3.120000E-8	0.000883
3.125000E-8	0.000711
3.130000E-8	0.000563
3.135000E-8	0.000555
3.140000E-8	0.000852
3.145000E-8	0.001094
3.150000E-8	0.001172
3.155000E-8	0.001578
3.160000E-8	0.001836
3.165000E-8	0.002477
3.170000E-8	0.002859
3.175000E-8	0.003312
3.180000E-8	0.003742
3.185000E-8	0.003906
3.190000E-8	0.004086
3.195000E-8	0.004406
3.200000E-8	0.004266
3.205000E-8	0.004086
3.210000E-8	0.004023
3.215000E-8	0.003875
3.220000E-8	0.003445
3.225000E-8	0.002891
3.230000E-8	0.002344
3.235000E-8	0.001984
3.240000E-8	0.001508
3.245000E-8	0.001109
3.250000E-8	0.000797
3.255000E-8	0.000594
3.260000E-8	0.000414
3.265000E-8	0.000508
3.270000E-8	0.000633
3.275000E-8	0.000820
3.280000E-8	0.001180
3.285000E-8	0.001563
3.290000E-8	0.001711
3.295000E-8	0.002273
3.300000E-8	0.002516
3.305000E-8	0.003180
3.310000E-8	0.003336
3.315000E-8	0.003492
3.320000E-8	0.003883
3.325000E-8	0.003844
3.330000E-8	0.004016
3.335000E-8	0.003836
3.340000E-8	0.003742
3.345000E-8	0.003688
3.350000E-8	0.003234
3.355000E-8	0.003055
3.360000E-8	0.002570
3.365000E-8	0.002211
3.370000E-8	0.001750
3.375000E-8	0.001492
3.380000E-8	0.001156
3.385000E-8	0.001000
3.390000E-8	0.000727
3.395000E-8	0.000656
3.400000E-8	0.000734
3.405000E-8	0.000852
3.410000E-8	0.000937
3.415000E-8	0.001273
3.420000E-8	0.001516
3.425000E-8	0.002047
3.430000E-8	0.002477
3.435000E-8	0.002758
3.440000E-8	0.003023
3.445000E-8	0.003602
3.450000E-8	0.003875
3.455000E-8	0.004148
3.460000E-8	0.004063
3.465000E-8	0.004211
3.470000E-8	0.004063
3.475000E-8	0.003773
3.480000E-8	0.003664
3.485000E-8	0.003352
3.490000E-8	0.002781
3.495000E-8	0.002437
3.500000E-8	0.001906
3.505000E-8	0.001516
3.510000E-8	0.001094
3.515000E-8	0.001109
3.520000E-8	0.000836
3.525000E-8	0.000687
3.530000E-8	0.000664
3.535000E-8	0.000813
3.540000E-8	0.000961
3.545000E-8	0.001352
3.550000E-8	0.001570
3.555000E-8	0.002031
3.560000E-8	0.002312
3.565000E-8	0.002789
3.570000E-8	0.003328
3.575000E-8	0.003625
3.580000E-8	0.003766
3.585000E-8	0.004000
3.590000E-8	0.004234
3.595000E-8	0.004109
3.600000E-8	0.003898
3.605000E-8	0.003883
3.610000E-8	0.003594
3.615000E-8	0.003375
3.620000E-8	0.002844
3.625000E-8	0.002469
3.630000E-8	0.001969
3.635000E-8	0.001687
3.640000E-8	0.001453
3.645000E-8	0.000977
3.650000E-8	0.000719
3.655000E-8	0.000797
3.660000E-8	0.000602
3.665000E-8	0.000563
3.670000E-8	0.000914
3.675000E-8	0.001445
3.680000E-8	0.001680
3.685000E-8	0.002031
3.690000E-8	0.002328
3.695000E-8	0.002703
3.700000E-8	0.003180
3.705000E-8	0.003742
3.710000E-8	0.003797
3.715000E-8	0.003969
3.720000E-8	0.003789
3.725000E-8	0.003836
3.730000E-8	0.003633
3.735000E-8	0.003594
3.740000E-8	0.003430
3.745000E-8	0.003086
3.750000E-8	0.003000
3.755000E-8	0.002609
3.760000E-8	0.002320
3.765000E-8	0.001758
3.770000E-8	0.001320
3.775000E-8	0.001078
3.780000E-8	0.000766
3.785000E-8	0.000711
3.790000E-8	0.000687
3.795000E-8	0.000719
3.800000E-8	0.000891
3.805000E-8	0.001148
3.810000E-8	0.001352
3.815000E-8	0.001719
3.820000E-8	0.002031
3.825000E-8	0.002578
3.830000E-8	0.002844
3.835000E-8	0.003211
3.840000E-8	0.003398
3.845000E-8	0.003883
3.850000E-8	0.003789
3.855000E-8	0.003812
3.860000E-8	0.003891
3.865000E-8	0.003500
3.870000E-8	0.003172
3.875000E-8	0.003070
3.880000E-8	0.002563
3.885000E-8	0.002352
3.890000E-8	0.002039
3.895000E-8	0.001898
3.900000E-8	0.001477
3.905000E-8	0.001445
3.910000E-8	0.001367
3.915000E-8	0.001039
3.920000E-8	0.000922
3.925000E-8	0.001063
3.930000E-8	0.001227
3.935000E-8	0.001484
3.940000E-8	0.001664
3.945000E-8	0.002141
3.950000E-8	0.002359
3.955000E-8	0.002688
3.960000E-8	0.002906
3.965000E-8	0.003078
3.970000E-8	0.003461
3.975000E-8	0.003773
3.980000E-8	0.003852
3.985000E-8	0.003820
3.990000E-8	0.003812
3.995000E-8	0.003898
4.000000E-8	0.003609
4.005000E-8	0.003461
4.010000E-8	0.002977
4.015000E-8	0.002578
4.020000E-8	0.002156
4.025000E-8	0.001773
4.030000E-8	0.001391
4.035000E-8	0.001039
4.040000E-8	0.000906
4.045000E-8	0.000758
4.050000E-8	0.000703
4.055000E-8	0.000820
4.060000E-8	0.000750
4.065000E-8	0.000805
4.070000E-8	0.000977
4.075000E-8	0.001422
4.080000E-8	0.001758
4.085000E-8	0.002203
4.090000E-8	0.002500
4.095000E-8	0.002914
4.100000E-8	0.002953
4.105000E-8	0.003336
4.110000E-8	0.003484
4.115000E-8	0.003523
4.120000E-8	0.003383
4.125000E-8	0.003336
4.130000E-8	0.003039
4.135000E-8	0.002945
4.140000E-8	0.002797
4.145000E-8	0.002523
4.150000E-8	0.002250
4.155000E-8	0.002109
4.160000E-8	0.001836
4.165000E-8	0.001664
4.170000E-8	0.001531
4.175000E-8	0.001086
4.180000E-8	0.001016
4.185000E-8	0.001086
4.190000E-8	0.001156
4.195000E-8	0.001367
4.200000E-8	0.001414
4.205000E-8	0.001773
4.210000E-8	0.002000
4.215000E-8	0.002398
4.220000E-8	0.002594
4.225000E-8	0.002891
4.230000E-8	0.003227
4.235000E-8	0.003266
4.240000E-8	0.003219
4.245000E-8	0.003531
4.250000E-8	0.003188
4.255000E-8	0.003188
4.260000E-8	0.003289
4.265000E-8	0.003094
4.270000E-8	0.002906
4.275000E-8	0.002977
4.280000E-8	0.002852
4.285000E-8	0.002648
4.290000E-8	0.002406
4.295000E-8	0.002289
4.300000E-8	0.002000
4.305000E-8	0.001641
4.310000E-8	0.001453
4.315000E-8	0.001078
4.320000E-8	0.001109
4.325000E-8	0.000969
4.330000E-8	0.001148
4.335000E-8	0.001344
4.340000E-8	0.001437
4.345000E-8	0.001711
4.350000E-8	0.002016
4.355000E-8	0.002359
4.360000E-8	0.002742
4.365000E-8	0.003063
4.370000E-8	0.003398
4.375000E-8	0.003844
4.380000E-8	0.003680
4.385000E-8	0.003719
4.390000E-8	0.003617
4.395000E-8	0.003430
4.400000E-8	0.003102
4.405000E-8	0.003023
4.410000E-8	0.002633
4.415000E-8	0.002188
4.420000E-8	0.001898
4.425000E-8	0.001453
4.430000E-8	0.001406
4.435000E-8	0.001313
4.440000E-8	0.000992
4.445000E-8	0.000820
4.450000E-8	0.000719
4.455000E-8	0.000930
4.460000E-8	0.001187
4.465000E-8	0.001359
4.470000E-8	0.001523
4.475000E-8	0.001695
4.480000E-8	0.001953
4.485000E-8	0.002414
4.490000E-8	0.002359
4.495000E-8	0.003023
4.500000E-8	0.003125
4.505000E-8	0.003281
4.510000E-8	0.003430
4.515000E-8	0.003375
4.520000E-8	0.003320
4.525000E-8	0.003219
4.530000E-8	0.002781
4.535000E-8	0.002688
4.540000E-8	0.002312
4.545000E-8	0.002141
4.550000E-8	0.001805
4.555000E-8	0.001867
4.560000E-8	0.001469
4.565000E-8	0.001477
4.570000E-8	0.001227
4.575000E-8	0.001055
4.580000E-8	0.000969
4.585000E-8	0.001117
4.590000E-8	0.001109
4.595000E-8	0.001242
4.600000E-8	0.001437
4.605000E-8	0.001773
4.610000E-8	0.001969
4.615000E-8	0.002344
4.620000E-8	0.002531
4.625000E-8	0.002992
4.630000E-8	0.003242
4.635000E-8	0.003492
4.640000E-8	0.003625
4.645000E-8	0.003711
4.650000E-8	0.003672
4.655000E-8	0.003617
4.660000E-8	0.003375
4.665000E-8	0.003219
4.670000E-8	0.002859
4.675000E-8	0.002711
4.680000E-8	0.002188
4.685000E-8	0.002195
4.690000E-8	0.001602
4.695000E-8	0.001437
4.700000E-8	0.001297
4.705000E-8	0.001305
4.710000E-8	0.001297
4.715000E-8	0.001516
4.720000E-8	0.001328
4.725000E-8	0.001430
4.730000E-8	0.001430
4.735000E-8	0.001609
4.740000E-8	0.001852
4.745000E-8	0.002031
4.750000E-8	0.002297
4.755000E-8	0.002711
4.760000E-8	0.002875
4.765000E-8	0.003070
4.770000E-8	0.003070
4.775000E-8	0.003227
4.780000E-8	0.003281
4.785000E-8	0.003320
4.790000E-8	0.003242
4.795000E-8	0.003125
4.800000E-8	0.002883
4.805000E-8	0.002836
4.810000E-8	0.002477
4.815000E-8	0.002016
4.820000E-8	0.001680
4.825000E-8	0.001742
4.830000E-8	0.001500
4.835000E-8	0.001250
4.840000E-8	0.001125
4.845000E-8	0.000977
4.850000E-8	0.001203
4.855000E-8	0.001258
4.860000E-8	0.001234
4.865000E-8	0.001273
4.870000E-8	0.001617
4.875000E-8	0.001953
4.880000E-8	0.002078
4.885000E-8	0.002437
4.890000E-8	0.002781
4.895000E-8	0.003055
4.900000E-8	0.003305
4.905000E-8	0.003508
4.910000E-8	0.003586
4.915000E-8	0.003336
4.920000E-8	0.003219
4.925000E-8	0.003008
4.930000E-8	0.002805
4.935000E-8	0.002641
4.940000E-8	0.002383
4.945000E-8	0.002094
4.950000E-8	0.001930
4.955000E-8	0.001594
4.960000E-8	0.001281
4.965000E-8	0.001125
4.970000E-8	0.000977
4.975000E-8	0.000789
4.980000E-8	0.000852
4.985000E-8	0.001070
4.990000E-8	0.001172
4.995000E-8	0.001469
5.000000E-8	0.001750
5.005000E-8	0.002148
5.010000E-8	0.002312
5.015000E-8	0.002445
5.020000E-8	0.002711
5.025000E-8	0.002945
5.030000E-8	0.002891
5.035000E-8	0.002820
5.040000E-8	0.002445
5.045000E-8	0.002359
5.050000E-8	0.002273
5.055000E-8	0.002352
5.060000E-8	0.002180
5.065000E-8	0.002094
5.070000E-8	0.001930
5.075000E-8	0.001711
5.080000E-8	0.001711
5.085000E-8	0.001547
5.090000E-8	0.001516
5.095000E-8	0.001422
5.100000E-8	0.001352
5.105000E-8	0.001273
5.110000E-8	0.001039
5.115000E-8	0.001148
5.120000E-8	0.001195
5.125000E-8	0.001523
5.130000E-8	0.001531
5.135000E-8	0.001883
5.140000E-8	0.001977
5.145000E-8	0.002461
5.150000E-8	0.002563
5.155000E-8	0.002914
5.160000E-8	0.003000
5.165000E-8	0.003109
5.170000E-8	0.003250
5.175000E-8	0.003172
5.180000E-8	0.003023
5.185000E-8	0.002891
5.190000E-8	0.002719
5.195000E-8	0.002781
5.200000E-8	0.002672
5.205000E-8	0.002656
5.210000E-8	0.002328
5.215000E-8	0.002516
5.220000E-8	0.002148
5.225000E-8	0.002367
5.230000E-8	0.002008
5.235000E-8	0.001687
5.240000E-8	0.001453
5.245000E-8	0.001695
5.250000E-8	0.001570
5.255000E-8	0.001641
5.260000E-8	0.001758
5.265000E-8	0.001680
5.270000E-8	0.001773
5.275000E-8	0.002234
5.280000E-8	0.002492
5.285000E-8	0.002828
5.290000E-8	0.003055
5.295000E-8	0.003430
5.300000E-8	0.003555
5.305000E-8	0.003516
5.310000E-8	0.003672
5.315000E-8	0.003609
5.320000E-8	0.003500
5.325000E-8	0.003445
5.330000E-8	0.003078
5.335000E-8	0.002914
5.340000E-8	0.002430
5.345000E-8	0.002305
5.350000E-8	0.001891
5.355000E-8	0.001563
5.360000E-8	0.001414
5.365000E-8	0.001352
5.370000E-8	0.001289
5.375000E-8	0.001289
5.380000E-8	0.001492
5.385000E-8	0.001477
5.390000E-8	0.001563
5.395000E-8	0.001867
5.400000E-8	0.001992
5.405000E-8	0.002227
5.410000E-8	0.002523
5.415000E-8	0.002742
5.420000E-8	0.002852
5.425000E-8	0.002922
5.430000E-8	0.003188
5.435000E-8	0.003266
5.440000E-8	0.003172
5.445000E-8	0.003148
5.450000E-8	0.003117
5.455000E-8	0.002930
5.460000E-8	0.002820
5.465000E-8	0.002617
5.470000E-8	0.002445
5.475000E-8	0.002281
5.480000E-8	0.001867
5.485000E-8	0.001820
5.490000E-8	0.001695
5.495000E-8	0.001766
5.500000E-8	0.001398
5.505000E-8	0.001344
5.510000E-8	0.001602
5.515000E-8	0.001672
5.520000E-8	0.001711
5.525000E-8	0.001953
5.530000E-8	0.002227
5.535000E-8	0.002406
5.540000E-8	0.002781
5.545000E-8	0.003023
5.550000E-8	0.003031
5.555000E-8	0.003211
5.560000E-8	0.003125
5.565000E-8	0.003289
5.570000E-8	0.003172
5.575000E-8	0.003219
5.580000E-8	0.002930
5.585000E-8	0.002938
5.590000E-8	0.002898
5.595000E-8	0.002695
5.600000E-8	0.002437
5.605000E-8	0.002281
5.610000E-8	0.002289
5.615000E-8	0.002219
5.620000E-8	0.001984
5.625000E-8	0.001727
5.630000E-8	0.001656
5.635000E-8	0.001563
5.640000E-8	0.001430
5.645000E-8	0.001492
5.650000E-8	0.001445
5.655000E-8	0.001578
5.660000E-8	0.001648
5.665000E-8	0.002203
5.670000E-8	0.002563
5.675000E-8	0.002617
5.680000E-8	0.002805
5.685000E-8	0.003086
5.690000E-8	0.002953
5.695000E-8	0.003102
5.700000E-8	0.002953
5.705000E-8	0.002961
5.710000E-8	0.002633
5.715000E-8	0.002688
5.720000E-8	0.002500
5.725000E-8	0.002258
5.730000E-8	0.002063
5.735000E-8	0.001883
5.740000E-8	0.001555
5.745000E-8	0.001586
5.750000E-8	0.001406
5.755000E-8	0.001273
5.760000E-8	0.001164
5.765000E-8	0.001305
5.770000E-8	0.001500
5.775000E-8	0.001625
5.780000E-8	0.001813
5.785000E-8	0.002094
5.790000E-8	0.002250
5.795000E-8	0.002461
5.800000E-8	0.002594
5.805000E-8	0.003000
5.810000E-8	0.003039
5.815000E-8	0.003289
5.820000E-8	0.003359
5.825000E-8	0.003422
5.830000E-8	0.003414
5.835000E-8	0.003297
5.840000E-8	0.003070
5.845000E-8	0.002969
5.850000E-8	0.002906
5.855000E-8	0.002695
5.860000E-8	0.002320
5.865000E-8	0.002078
5.870000E-8	0.001602
5.875000E-8	0.001461
5.880000E-8	0.001156
5.885000E-8	0.001195
5.890000E-8	0.001039
5.895000E-8	0.001156
5.900000E-8	0.001437
5.905000E-8	0.001391
5.910000E-8	0.001695
5.915000E-8	0.001922
5.920000E-8	0.002016
5.925000E-8	0.002266
5.930000E-8	0.002414
5.935000E-8	0.002609
5.940000E-8	0.002602
5.945000E-8	0.002664
5.950000E-8	0.002734
5.955000E-8	0.002797
5.960000E-8	0.002797
5.965000E-8	0.002969
5.970000E-8	0.003063
5.975000E-8	0.003102
5.980000E-8	0.002836
5.985000E-8	0.002953
5.990000E-8	0.002742
5.995000E-8	0.002500
6.000000E-8	0.002359
6.005000E-8	0.002227
6.010000E-8	0.002109
6.015000E-8	0.002188
6.020000E-8	0.002055
6.025000E-8	0.002055
6.030000E-8	0.002234
6.035000E-8	0.002250
6.040000E-8	0.002336
6.045000E-8	0.002414
6.050000E-8	0.002469
6.055000E-8	0.002641
6.060000E-8	0.002586
6.065000E-8	0.002680
6.070000E-8	0.002945
6.075000E-8	0.003109
6.080000E-8	0.003172
6.085000E-8	0.003141
6.090000E-8	0.003422
6.095000E-8	0.003336
6.100000E-8	0.003203
6.105000E-8	0.003070
6.110000E-8	0.002750
6.115000E-8	0.002531
6.120000E-8	0.002312
6.125000E-8	0.002039
6.130000E-8	0.001891
6.135000E-8	0.001672
6.140000E-8	0.001445
6.145000E-8	0.001586
6.150000E-8	0.001484
6.155000E-8	0.001422
6.160000E-8	0.001563
6.165000E-8	0.001609
6.170000E-8	0.001719
6.175000E-8	0.001984
6.180000E-8	0.002148
6.185000E-8	0.002273
6.190000E-8	0.002305
6.195000E-8	0.002500
6.200000E-8	0.002805
6.205000E-8	0.002703
6.210000E-8	0.002758
6.215000E-8	0.002797
6.220000E-8	0.002648
6.225000E-8	0.002852
6.230000E-8	0.002836
6.235000E-8	0.002664
6.240000E-8	0.002516
6.245000E-8	0.002539
6.250000E-8	0.002437
6.255000E-8	0.002391
6.260000E-8	0.002375
6.265000E-8	0.002242
6.270000E-8	0.002125
6.275000E-8	0.002141
6.280000E-8	0.002094
6.285000E-8	0.002094
6.290000E-8	0.002055
6.295000E-8	0.002352
6.300000E-8	0.002070
6.305000E-8	0.002219
6.310000E-8	0.002227
6.315000E-8	0.002469
6.320000E-8	0.002516
6.325000E-8	0.002781
6.330000E-8	0.002781
6.335000E-8	0.002859
6.340000E-8	0.003133
6.345000E-8	0.003203
6.350000E-8	0.003188
6.355000E-8	0.003352
6.360000E-8	0.003258
6.365000E-8	0.003133
6.370000E-8	0.002891
6.375000E-8	0.002773
6.380000E-8	0.002445
6.385000E-8	0.002188
6.390000E-8	0.002055
6.395000E-8	0.002211
6.400000E-8	0.002063
6.405000E-8	0.002086
6.410000E-8	0.002023
6.415000E-8	0.002234
6.420000E-8	0.002211
6.425000E-8	0.002344
6.430000E-8	0.002359
6.435000E-8	0.002469
6.440000E-8	0.002641
6.445000E-8	0.002641
6.450000E-8	0.002805
6.455000E-8	0.002883
6.460000E-8	0.002867
6.465000E-8	0.002984
6.470000E-8	0.002945
6.475000E-8	0.003016
6.480000E-8	0.002953
6.485000E-8	0.002945
6.490000E-8	0.002938
6.495000E-8	0.002906
6.500000E-8	0.002922
6.505000E-8	0.002945
6.510000E-8	0.002812
6.515000E-8	0.002789
6.520000E-8	0.002563
6.525000E-8	0.002484
6.530000E-8	0.002156
6.535000E-8	0.002156
6.540000E-8	0.001906
6.545000E-8	0.001875
6.550000E-8	0.001750
6.555000E-8	0.001781
6.560000E-8	0.001781
6.565000E-8	0.001977
6.570000E-8	0.001961
6.575000E-8	0.002211
6.580000E-8	0.002188
6.585000E-8	0.002406
6.590000E-8	0.002328
6.595000E-8	0.002586
6.600000E-8	0.002469
6.605000E-8	0.002812
6.610000E-8	0.002781
6.615000E-8	0.002742
6.620000E-8	0.002812
6.625000E-8	0.002727
6.630000E-8	0.002711
6.635000E-8	0.002922
6.640000E-8	0.002766
6.645000E-8	0.002812
6.650000E-8	0.002516
6.655000E-8	0.002320
6.660000E-8	0.002070
6.665000E-8	0.002211
6.670000E-8	0.001922
6.675000E-8	0.002023
6.680000E-8	0.001805
6.685000E-8	0.002055
6.690000E-8	0.002117
6.695000E-8	0.002250
6.700000E-8	0.002102
6.705000E-8	0.002383
6.710000E-8	0.002641
6.715000E-8	0.002734
6.720000E-8	0.002867
6.725000E-8	0.002922
6.730000E-8	0.002898
6.735000E-8	0.002883
6.740000E-8	0.002859
6.745000E-8	0.002727
6.750000E-8	0.002688
6.755000E-8	0.002844
6.760000E-8	0.002844
6.765000E-8	0.002922
6.770000E-8	0.002820
6.775000E-8	0.002656
6.780000E-8	0.002398
6.785000E-8	0.002430
6.790000E-8	0.002281
6.795000E-8	0.002273
6.800000E-8	0.001875
6.805000E-8	0.001711
6.810000E-8	0.001656
6.815000E-8	0.001437
6.820000E-8	0.001500
6.825000E-8	0.001750
6.830000E-8	0.001828
6.835000E-8	0.001977
6.840000E-8	0.001859
6.845000E-8	0.002227
6.850000E-8	0.002328
6.855000E-8	0.002563
6.860000E-8	0.002516
6.865000E-8	0.002477
6.870000E-8	0.002594
6.875000E-8	0.002836
6.880000E-8	0.002664
6.885000E-8	0.002820
6.890000E-8	0.002789
6.895000E-8	0.002898
6.900000E-8	0.002750
6.905000E-8	0.002578
6.910000E-8	0.002555
6.915000E-8	0.002437
6.920000E-8	0.002195
6.925000E-8	0.002273
6.930000E-8	0.002141
6.935000E-8	0.002281
6.940000E-8	0.001969
6.945000E-8	0.002070
6.950000E-8	0.001914
6.955000E-8	0.001914
6.960000E-8	0.002023
6.965000E-8	0.002211
6.970000E-8	0.002320
6.975000E-8	0.002453
6.980000E-8	0.002523
6.985000E-8	0.002938
6.990000E-8	0.002812
6.995000E-8	0.002812
7.000000E-8	0.002688
7.005000E-8	0.002734
7.010000E-8	0.002797
7.015000E-8	0.002695
7.020000E-8	0.002703
7.025000E-8	0.002500
7.030000E-8	0.002484
7.035000E-8	0.002344
7.040000E-8	0.002234
7.045000E-8	0.002234
7.050000E-8	0.002047
7.055000E-8	0.002094
7.060000E-8	0.001836
7.065000E-8	0.001805
7.070000E-8	0.001859
7.075000E-8	0.001953
7.080000E-8	0.001961
7.085000E-8	0.002039
7.090000E-8	0.002039
7.095000E-8	0.002055
7.100000E-8	0.002141
7.105000E-8	0.002328
7.110000E-8	0.002609
7.115000E-8	0.002836
7.120000E-8	0.002531
7.125000E-8	0.002523
7.130000E-8	0.002594
7.135000E-8	0.002672
7.140000E-8	0.002617
7.145000E-8	0.002602
7.150000E-8	0.002547
7.155000E-8	0.002547
7.160000E-8	0.002430
7.165000E-8	0.002430
7.170000E-8	0.002188
7.175000E-8	0.002133
7.180000E-8	0.002008
7.185000E-8	0.001930
7.190000E-8	0.002055
7.195000E-8	0.002148
7.200000E-8	0.001891
7.205000E-8	0.001742
7.210000E-8	0.002078
7.215000E-8	0.002047
7.220000E-8	0.002102
7.225000E-8	0.001883
7.230000E-8	0.001906
7.235000E-8	0.002305
7.240000E-8	0.002430
7.245000E-8	0.002445
7.250000E-8	0.002672
7.255000E-8	0.002758
7.260000E-8	0.002695
7.265000E-8	0.002875
7.270000E-8	0.002844
7.275000E-8	0.002914
7.280000E-8	0.002719
7.285000E-8	0.002734
7.290000E-8	0.002727
7.295000E-8	0.002445
7.300000E-8	0.002445
7.305000E-8	0.002359
7.310000E-8	0.002203
7.315000E-8	0.002156
7.320000E-8	0.001969
7.325000E-8	0.001945
7.330000E-8	0.001992
7.335000E-8	0.001625
7.340000E-8	0.001625
7.345000E-8	0.001672
7.350000E-8	0.001891
7.355000E-8	0.001867
7.360000E-8	0.002008
7.365000E-8	0.002047
7.370000E-8	0.002203
7.375000E-8	0.002383
7.380000E-8	0.002516
7.385000E-8	0.002719
7.390000E-8	0.002703
7.395000E-8	0.002906
7.400000E-8	0.002828
7.405000E-8	0.002891
7.410000E-8	0.002789
7.415000E-8	0.003000
7.420000E-8	0.002781
7.425000E-8	0.002445
7.430000E-8	0.002547
7.435000E-8	0.002383
7.440000E-8	0.002414
7.445000E-8	0.002180
7.450000E-8	0.001937
7.455000E-8	0.001984
7.460000E-8	0.001898
7.465000E-8	0.002000
7.470000E-8	0.001937
7.475000E-8	0.001953
7.480000E-8	0.001984
7.485000E-8	0.001953
7.490000E-8	0.001906
7.495000E-8	0.002094
7.500000E-8	0.001883
7.505000E-8	0.002063
7.510000E-8	0.002352
7.515000E-8	0.002617
7.520000E-8	0.002602
7.525000E-8	0.002625
7.530000E-8	0.002711
7.535000E-8	0.002875
7.540000E-8	0.002984
7.545000E-8	0.002922
7.550000E-8	0.002812
7.555000E-8	0.002609
7.560000E-8	0.002258
7.565000E-8	0.002180
7.570000E-8	0.001953
7.575000E-8	0.002008
7.580000E-8	0.001914
7.585000E-8	0.001742
7.590000E-8	0.001820
7.595000E-8	0.002000
7.600000E-8	0.001789
7.605000E-8	0.001813
7.610000E-8	0.001625
7.615000E-8	0.001773
7.620000E-8	0.001492
7.625000E-8	0.001750
7.630000E-8	0.001742
7.635000E-8	0.002102
7.640000E-8	0.002094
7.645000E-8	0.002305
7.650000E-8	0.002375
7.655000E-8	0.002570
7.660000E-8	0.002477
7.665000E-8	0.002602
7.670000E-8	0.002578
7.675000E-8	0.002656
7.680000E-8	0.002734
7.685000E-8	0.002672
7.690000E-8	0.002703
7.695000E-8	0.002602
7.700000E-8	0.002445
7.705000E-8	0.002453
7.710000E-8	0.002406
7.715000E-8	0.002367
7.720000E-8	0.002141
7.725000E-8	0.002219
7.730000E-8	0.002352
7.735000E-8	0.002094
7.740000E-8	0.001969
7.745000E-8	0.002078
7.750000E-8	0.002180
7.755000E-8	0.002102
7.760000E-8	0.002031
7.765000E-8	0.002258
7.770000E-8	0.002125
7.775000E-8	0.002297
7.780000E-8	0.002430
7.785000E-8	0.002383
7.790000E-8	0.002375
7.795000E-8	0.002461
7.800000E-8	0.002539
7.805000E-8	0.002539
7.810000E-8	0.002492
7.815000E-8	0.002570
7.820000E-8	0.002430
7.825000E-8	0.002461
7.830000E-8	0.002406
7.835000E-8	0.002516
7.840000E-8	0.002203
7.845000E-8	0.002180
7.850000E-8	0.002094
7.855000E-8	0.002008
7.860000E-8	0.001789
7.865000E-8	0.001734
7.870000E-8	0.001703
7.875000E-8	0.001711
7.880000E-8	0.001609
7.885000E-8	0.001805
7.890000E-8	0.001602
7.895000E-8	0.001719
7.900000E-8	0.001844
7.905000E-8	0.001813
7.910000E-8	0.001750
7.915000E-8	0.001984
7.920000E-8	0.002008
7.925000E-8	0.002250
7.930000E-8	0.002188
7.935000E-8	0.002281
7.940000E-8	0.002344
7.945000E-8	0.002602
7.950000E-8	0.002523
7.955000E-8	0.002500
7.960000E-8	0.002398
7.965000E-8	0.002305
7.970000E-8	0.002180
7.975000E-8	0.001930
7.980000E-8	0.001867
7.985000E-8	0.001906
7.990000E-8	0.001773
7.995000E-8	0.001937
8.000000E-8	0.001789
8.005000E-8	0.001656
8.010000E-8	0.001656
8.015000E-8	0.001766
8.020000E-8	0.001852
8.025000E-8	0.001969
8.030000E-8	0.002156
8.035000E-8	0.002023
8.040000E-8	0.002188
8.045000E-8	0.002195
8.050000E-8	0.002211
8.055000E-8	0.002406
8.060000E-8	0.002242
8.065000E-8	0.002344
8.070000E-8	0.002289
8.075000E-8	0.002344
8.080000E-8	0.002328
8.085000E-8	0.002437
8.090000E-8	0.002336
8.095000E-8	0.002484
8.100000E-8	0.002125
8.105000E-8	0.001805
8.110000E-8	0.001937
8.115000E-8	0.002000
8.120000E-8	0.001867
8.125000E-8	0.001969
8.130000E-8	0.001898
8.135000E-8	0.002000
8.140000E-8	0.002008
8.145000E-8	0.002125
8.150000E-8	0.002070
8.155000E-8	0.002258
8.160000E-8	0.002070
8.165000E-8	0.002344
8.170000E-8	0.002305
8.175000E-8	0.002188
8.180000E-8	0.002375
8.185000E-8	0.002547
8.190000E-8	0.002258
8.195000E-8	0.002516
8.200000E-8	0.002469
8.205000E-8	0.002547
8.210000E-8	0.002617
8.215000E-8	0.002672
8.220000E-8	0.002508
8.225000E-8	0.002523
8.230000E-8	0.002664
8.235000E-8	0.002227
8.240000E-8	0.002297
8.245000E-8	0.002359
8.250000E-8	0.002195
8.255000E-8	0.002023
8.260000E-8	0.002086
8.265000E-8	0.002211
8.270000E-8	0.002195
8.275000E-8	0.002125
8.280000E-8	0.002141
8.285000E-8	0.002063
8.290000E-8	0.001961
8.295000E-8	0.002172
8.300000E-8	0.002383
8.305000E-8	0.002234
8.310000E-8	0.002359
8.315000E-8	0.002328
8.320000E-8	0.002172
8.325000E-8	0.002195
8.330000E-8	0.002336
8.335000E-8	0.002281
8.340000E-8	0.002391
8.345000E-8	0.002289
8.350000E-8	0.002273
8.355000E-8	0.002336
8.360000E-8	0.002203
8.365000E-8	0.002367
8.370000E-8	0.002344
8.375000E-8	0.002547
8.380000E-8	0.002227
8.385000E-8	0.002281
8.390000E-8	0.002250
8.395000E-8	0.002234
8.400000E-8	0.002414
8.405000E-8	0.002352
8.410000E-8	0.002312
8.415000E-8	0.002258
8.420000E-8	0.002250
8.425000E-8	0.002477
8.430000E-8	0.002539
8.435000E-8	0.002453
8.440000E-8	0.002305
8.445000E-8	0.002406
8.450000E-8	0.002477
8.455000E-8	0.002516
8.460000E-8	0.002359
8.465000E-8	0.002508
8.470000E-8	0.002516
8.475000E-8	0.002547
8.480000E-8	0.002375
8.485000E-8	0.002219
8.490000E-8	0.002250
8.495000E-8	0.002203
8.500000E-8	0.002164
8.505000E-8	0.002125
8.510000E-8	0.001914
8.515000E-8	0.001906
8.520000E-8	0.001820
8.525000E-8	0.001789
8.530000E-8	0.001852
8.535000E-8	0.001969
8.540000E-8	0.001781
8.545000E-8	0.001906
8.550000E-8	0.001852
8.555000E-8	0.002047
8.560000E-8	0.002023
8.565000E-8	0.002039
8.570000E-8	0.002016
8.575000E-8	0.002133
8.580000E-8	0.002320
8.585000E-8	0.002359
8.590000E-8	0.002258
8.595000E-8	0.002359
8.600000E-8	0.002258
8.605000E-8	0.002281
8.610000E-8	0.002219
8.615000E-8	0.002039
8.620000E-8	0.002086
8.625000E-8	0.002148
8.630000E-8	0.002086
8.635000E-8	0.001984
8.640000E-8	0.001773
8.645000E-8	0.002047
8.650000E-8	0.002172
8.655000E-8	0.002414
8.660000E-8	0.002430
8.665000E-8	0.002383
8.670000E-8	0.002375
8.675000E-8	0.002711
8.680000E-8	0.002836
8.685000E-8	0.002836
8.690000E-8	0.002609
8.695000E-8	0.002617
8.700000E-8	0.002625
8.705000E-8	0.002773
8.710000E-8	0.002570
8.715000E-8	0.002656
8.720000E-8	0.002516
8.725000E-8	0.002227
8.730000E-8	0.002312
8.735000E-8	0.002328
8.740000E-8	0.002367
8.745000E-8	0.002406
8.750000E-8	0.002602
8.755000E-8	0.002750
8.760000E-8	0.002477
8.765000E-8	0.002430
8.770000E-8	0.002234
8.775000E-8	0.002227
8.780000E-8	0.002031
8.785000E-8	0.002023
8.790000E-8	0.001930
8.795000E-8	0.002055
8.800000E-8	0.001961
8.805000E-8	0.002055
8.810000E-8	0.001937
8.815000E-8	0.002133
8.820000E-8	0.002195
8.825000E-8	0.002188
8.830000E-8	0.002406
8.835000E-8	0.002430
8.840000E-8	0.002352
8.845000E-8	0.002602
8.850000E-8	0.002781
8.855000E-8	0.002727
8.860000E-8	0.002633
8.865000E-8	0.002523
8.870000E-8	0.002695
8.875000E-8	0.002563
8.880000E-8	0.002258
8.885000E-8	0.002422
8.890000E-8	0.002258
8.895000E-8	0.002234
8.900000E-8	0.002172
8.905000E-8	0.002320
8.910000E-8	0.002352
8.915000E-8	0.002367
8.920000E-8	0.002188
8.925000E-8	0.002297
8.930000E-8	0.002164
8.935000E-8	0.002219
8.940000E-8	0.002102
8.945000E-8	0.002234
8.950000E-8	0.002219
8.955000E-8	0.002430
8.960000E-8	0.002273
8.965000E-8	0.002398
8.970000E-8	0.002375
8.975000E-8	0.002445
8.980000E-8	0.002430
8.985000E-8	0.002523
8.990000E-8	0.002539
8.995000E-8	0.002359
9.000000E-8	0.002289
9.005000E-8	0.002336
9.010000E-8	0.002328
9.015000E-8	0.002477
9.020000E-8	0.002406
9.025000E-8	0.002383
9.030000E-8	0.002242
9.035000E-8	0.002234
9.040000E-8	0.002156
9.045000E-8	0.002406
9.050000E-8	0.002336
9.055000E-8	0.002305
9.060000E-8	0.002188
9.065000E-8	0.002094
9.070000E-8	0.002070
9.075000E-8	0.002258
9.080000E-8	0.002055
9.085000E-8	0.002188
9.090000E-8	0.002195
9.095000E-8	0.002453
9.100000E-8	0.002273
9.105000E-8	0.002336
9.110000E-8	0.002234
9.115000E-8	0.002570
9.120000E-8	0.002234
9.125000E-8	0.002406
9.130000E-8	0.002469
9.135000E-8	0.002461
9.140000E-8	0.002383
9.145000E-8	0.002516
9.150000E-8	0.002328
9.155000E-8	0.002156
9.160000E-8	0.002156
9.165000E-8	0.002203
9.170000E-8	0.001961
9.175000E-8	0.002000
9.180000E-8	0.001805
9.185000E-8	0.001898
9.190000E-8	0.001813
9.195000E-8	0.002094
9.200000E-8	0.002273
9.205000E-8	0.002547
9.210000E-8	0.002453
9.215000E-8	0.002523
9.220000E-8	0.002648
9.225000E-8	0.002883
9.230000E-8	0.002945
9.235000E-8	0.003164
9.240000E-8	0.003023
9.245000E-8	0.002984
9.250000E-8	0.002898
9.255000E-8	0.002719
9.260000E-8	0.002523
9.265000E-8	0.002508
9.270000E-8	0.002422
9.275000E-8	0.002461
9.280000E-8	0.002398
9.285000E-8	0.002344
9.290000E-8	0.002367
9.295000E-8	0.002531
9.300000E-8	0.002500
9.305000E-8	0.002477
9.310000E-8	0.002250
9.315000E-8	0.002250
9.320000E-8	0.002250
9.325000E-8	0.002266
9.330000E-8	0.002281
9.335000E-8	0.002273
9.340000E-8	0.002227
9.345000E-8	0.002258
9.350000E-8	0.002414
9.355000E-8	0.002281
9.360000E-8	0.002297
9.365000E-8	0.002531
9.370000E-8	0.002641
9.375000E-8	0.002805
9.380000E-8	0.002609
9.385000E-8	0.002672
9.390000E-8	0.002641
9.395000E-8	0.002555
9.400000E-8	0.002570
9.405000E-8	0.002352
9.410000E-8	0.002289
9.415000E-8	0.002312
9.420000E-8	0.002141
9.425000E-8	0.002172
9.430000E-8	0.001961
9.435000E-8	0.001914
9.440000E-8	0.002039
9.445000E-8	0.002039
9.450000E-8	0.002188
9.455000E-8	0.002305
9.460000E-8	0.002164
9.465000E-8	0.002125
9.470000E-8	0.002047
9.475000E-8	0.002133
9.480000E-8	0.002078
9.485000E-8	0.002148
9.490000E-8	0.002133
9.495000E-8	0.002461
9.500000E-8	0.002453
9.505000E-8	0.002578
9.510000E-8	0.002688
9.515000E-8	0.002930
9.520000E-8	0.002766
9.525000E-8	0.002758
9.530000E-8	0.002523
9.535000E-8	0.002430
9.540000E-8	0.002117
9.545000E-8	0.002000
9.550000E-8	0.001820
9.555000E-8	0.001766
9.560000E-8	0.001727
9.565000E-8	0.001742
9.570000E-8	0.001656
9.575000E-8	0.001891
9.580000E-8	0.001750
9.585000E-8	0.001961
9.590000E-8	0.002250
9.595000E-8	0.002391
9.600000E-8	0.002125
9.605000E-8	0.002219
9.610000E-8	0.002242
9.615000E-8	0.002258
9.620000E-8	0.002289
9.625000E-8	0.002430
9.630000E-8	0.002406
9.635000E-8	0.002266
9.640000E-8	0.002320
9.645000E-8	0.002352
9.650000E-8	0.002258
9.655000E-8	0.002453
9.660000E-8	0.002250
9.665000E-8	0.002102
9.670000E-8	0.002180
9.675000E-8	0.002258
9.680000E-8	0.002180
9.685000E-8	0.002102
9.690000E-8	0.002016
9.695000E-8	0.002266
9.700000E-8	0.002008
9.705000E-8	0.001984
9.710000E-8	0.002242
9.715000E-8	0.002234
9.720000E-8	0.002109
9.725000E-8	0.002172
9.730000E-8	0.001984
9.735000E-8	0.002250
9.740000E-8	0.001875
9.745000E-8	0.001898
9.750000E-8	0.001891
9.755000E-8	0.001898
9.760000E-8	0.001992
9.765000E-8	0.002063
9.770000E-8	0.002266
9.775000E-8	0.002391
9.780000E-8	0.002367
9.785000E-8	0.002211
9.790000E-8	0.002125
9.795000E-8	0.002234
9.800000E-8	0.002141
9.805000E-8	0.002352
9.810000E-8	0.002156
9.815000E-8	0.002063
9.820000E-8	0.001844
9.825000E-8	0.001945
9.830000E-8	0.001898
9.835000E-8	0.001953
9.840000E-8	0.001867
9.845000E-8	0.002234
9.850000E-8	0.002188
9.855000E-8	0.002320
9.860000E-8	0.002312
9.865000E-8	0.002297
9.870000E-8	0.002375
9.875000E-8	0.002742
9.880000E-8	0.002594
9.885000E-8	0.002828
9.890000E-8	0.002805
9.895000E-8	0.002938
9.900000E-8	0.002672
9.905000E-8	0.002734
9.910000E-8	0.002680
9.915000E-8	0.002547
9.920000E-8	0.002477
9.925000E-8	0.002305
9.930000E-8	0.002203
9.935000E-8	0.002109
9.940000E-8	0.002023
9.945000E-8	0.001992
9.950000E-8	0.002133
9.955000E-8	0.002078
9.960000E-8	0.002469
9.965000E-8	0.002312
9.970000E-8	0.002320
9.975000E-8	0.002180
9.980000E-8	0.002422
9.985000E-8	0.002227
9.990000E-8	0.002023
9.995000E-8	0.002063
