LabVIEW Measurement	
Writer_Version	2
Reader_Version	2
Separator	Tab
Decimal_Separator	.
Multi_Headings	No
X_Columns	Multi
Time_Pref	Relative
Operator	TG lab
Date	2015/03/06
Time	16:39:53.4608426094055175781
***End_of_Header***	
	
Channels	1	
Samples	2000	
Date	1903/12/31	
Time	19:00:00	
X_Dimension	Time	
X0	0.0000000000000000E+0	
Delta_X	5.000000E-11	
***End_of_Header***		
X_Value	Untitled	Comment
0.000000	0.002619
5.000000E-11	0.002794
1.000000E-10	0.002784
1.500000E-10	0.002850
2.000000E-10	0.002838
2.500000E-10	0.002928
3.000000E-10	0.002778
3.500000E-10	0.002794
4.000000E-10	0.002769
4.500000E-10	0.002766
5.000000E-10	0.002603
5.500000E-10	0.002628
6.000000E-10	0.002594
6.500000E-10	0.002475
7.000000E-10	0.002525
7.500000E-10	0.002525
8.000000E-10	0.002434
8.500000E-10	0.002466
9.000000E-10	0.002403
9.500000E-10	0.002403
1.000000E-9	0.002331
1.050000E-9	0.002359
1.100000E-9	0.002288
1.150000E-9	0.002325
1.200000E-9	0.002372
1.250000E-9	0.002391
1.300000E-9	0.002275
1.350000E-9	0.002197
1.400000E-9	0.002063
1.450000E-9	0.002019
1.500000E-9	0.001966
1.550000E-9	0.002075
1.600000E-9	0.002166
1.650000E-9	0.002153
1.700000E-9	0.002216
1.750000E-9	0.002291
1.800000E-9	0.002291
1.850000E-9	0.002406
1.900000E-9	0.002384
1.950000E-9	0.002481
2.000000E-9	0.002381
2.050000E-9	0.002444
2.100000E-9	0.002306
2.150000E-9	0.002309
2.200000E-9	0.002266
2.250000E-9	0.002253
2.300000E-9	0.002131
2.350000E-9	0.002144
2.400000E-9	0.002113
2.450000E-9	0.002156
2.500000E-9	0.002181
2.550000E-9	0.002244
2.600000E-9	0.002319
2.650000E-9	0.002481
2.700000E-9	0.002497
2.750000E-9	0.002625
2.800000E-9	0.002650
2.850000E-9	0.002713
2.900000E-9	0.002719
2.950000E-9	0.002925
3.000000E-9	0.002834
3.050000E-9	0.002853
3.100000E-9	0.002900
3.150000E-9	0.002922
3.200000E-9	0.002803
3.250000E-9	0.002759
3.300000E-9	0.002728
3.350000E-9	0.002750
3.400000E-9	0.002697
3.450000E-9	0.002534
3.500000E-9	0.002506
3.550000E-9	0.002413
3.600000E-9	0.002363
3.650000E-9	0.002441
3.700000E-9	0.002422
3.750000E-9	0.002484
3.800000E-9	0.002378
3.850000E-9	0.002241
3.900000E-9	0.002188
3.950000E-9	0.002184
4.000000E-9	0.002147
4.050000E-9	0.002131
4.100000E-9	0.002097
4.150000E-9	0.002147
4.200000E-9	0.002166
4.250000E-9	0.002266
4.300000E-9	0.002253
4.350000E-9	0.002381
4.400000E-9	0.002403
4.450000E-9	0.002450
4.500000E-9	0.002453
4.550000E-9	0.002322
4.600000E-9	0.002263
4.650000E-9	0.002153
4.700000E-9	0.002138
4.750000E-9	0.002138
4.800000E-9	0.002175
4.850000E-9	0.002175
4.900000E-9	0.002203
4.950000E-9	0.002256
5.000000E-9	0.002319
5.050000E-9	0.002306
5.100000E-9	0.002237
5.150000E-9	0.002216
5.200000E-9	0.002141
5.250000E-9	0.002197
5.300000E-9	0.002147
5.350000E-9	0.002141
5.400000E-9	0.002100
5.450000E-9	0.002078
5.500000E-9	0.002009
5.550000E-9	0.002150
5.600000E-9	0.002016
5.650000E-9	0.002081
5.700000E-9	0.002069
5.750000E-9	0.002225
5.800000E-9	0.002184
5.850000E-9	0.002216
5.900000E-9	0.002141
5.950000E-9	0.002131
6.000000E-9	0.002003
6.050000E-9	0.002003
6.100000E-9	0.001969
6.150000E-9	0.001881
6.200000E-9	0.001775
6.250000E-9	0.001628
6.300000E-9	0.001563
6.350000E-9	0.001563
6.400000E-9	0.001609
6.450000E-9	0.001644
6.500000E-9	0.001694
6.550000E-9	0.001766
6.600000E-9	0.001819
6.650000E-9	0.001819
6.700000E-9	0.001881
6.750000E-9	0.001959
6.800000E-9	0.001891
6.850000E-9	0.002066
6.900000E-9	0.002181
6.950000E-9	0.002353
7.000000E-9	0.002409
7.050000E-9	0.002481
7.100000E-9	0.002553
7.150000E-9	0.002616
7.200000E-9	0.002728
7.250000E-9	0.002847
7.300000E-9	0.002891
7.350000E-9	0.003087
7.400000E-9	0.003156
7.450000E-9	0.003456
7.500000E-9	0.003675
7.550000E-9	0.004122
7.600000E-9	0.004378
7.650000E-9	0.004653
7.700000E-9	0.004634
7.750000E-9	0.004434
7.800000E-9	0.003997
7.850000E-9	0.003103
7.900000E-9	0.001781
7.950000E-9	0.000241
8.000000E-9	-0.001972
8.050000E-9	-0.004481
8.100000E-9	-0.007228
8.150000E-9	-0.010247
8.200000E-9	-0.013419
8.250000E-9	-0.016491
8.300000E-9	-0.019441
8.350000E-9	-0.021900
8.400000E-9	-0.023831
8.450000E-9	-0.025275
8.500000E-9	-0.026038
8.550000E-9	-0.026091
8.600000E-9	-0.025534
8.650000E-9	-0.024387
8.700000E-9	-0.022925
8.750000E-9	-0.021147
8.800000E-9	-0.019300
8.850000E-9	-0.017503
8.900000E-9	-0.015888
8.950000E-9	-0.014566
9.000000E-9	-0.013769
9.050000E-9	-0.013325
9.100000E-9	-0.013244
9.150000E-9	-0.013628
9.200000E-9	-0.014191
9.250000E-9	-0.015050
9.300000E-9	-0.015841
9.350000E-9	-0.016556
9.400000E-9	-0.016934
9.450000E-9	-0.017044
9.500000E-9	-0.016800
9.550000E-9	-0.016097
9.600000E-9	-0.015325
9.650000E-9	-0.014134
9.700000E-9	-0.012797
9.750000E-9	-0.011347
9.800000E-9	-0.009919
9.850000E-9	-0.008628
9.900000E-9	-0.007669
9.950000E-9	-0.006781
1.000000E-8	-0.006400
1.005000E-8	-0.006300
1.010000E-8	-0.006559
1.015000E-8	-0.006909
1.020000E-8	-0.007597
1.025000E-8	-0.008247
1.030000E-8	-0.008819
1.035000E-8	-0.009350
1.040000E-8	-0.009669
1.045000E-8	-0.009750
1.050000E-8	-0.009562
1.055000E-8	-0.008994
1.060000E-8	-0.008228
1.065000E-8	-0.007247
1.070000E-8	-0.006169
1.075000E-8	-0.005066
1.080000E-8	-0.004097
1.085000E-8	-0.003038
1.090000E-8	-0.002425
1.095000E-8	-0.002038
1.100000E-8	-0.001847
1.105000E-8	-0.001978
1.110000E-8	-0.002353
1.115000E-8	-0.002675
1.120000E-8	-0.003328
1.125000E-8	-0.003978
1.130000E-8	-0.004584
1.135000E-8	-0.005169
1.140000E-8	-0.005616
1.145000E-8	-0.005828
1.150000E-8	-0.005753
1.155000E-8	-0.005503
1.160000E-8	-0.005003
1.165000E-8	-0.004231
1.170000E-8	-0.003478
1.175000E-8	-0.002572
1.180000E-8	-0.001713
1.185000E-8	-0.001016
1.190000E-8	-0.000522
1.195000E-8	-0.000109
1.200000E-8	-0.000128
1.205000E-8	-0.000347
1.210000E-8	-0.000684
1.215000E-8	-0.001144
1.220000E-8	-0.001725
1.225000E-8	-0.002403
1.230000E-8	-0.003141
1.235000E-8	-0.003500
1.240000E-8	-0.003956
1.245000E-8	-0.003962
1.250000E-8	-0.003794
1.255000E-8	-0.003453
1.260000E-8	-0.002866
1.265000E-8	-0.002125
1.270000E-8	-0.001284
1.275000E-8	-0.000469
1.280000E-8	0.000381
1.285000E-8	0.001069
1.290000E-8	0.001525
1.295000E-8	0.001853
1.300000E-8	0.001922
1.305000E-8	0.001750
1.310000E-8	0.001284
1.315000E-8	0.000672
1.320000E-8	-4.062500E-5
1.325000E-8	-0.000622
1.330000E-8	-0.001356
1.335000E-8	-0.001925
1.340000E-8	-0.002313
1.345000E-8	-0.002409
1.350000E-8	-0.002369
1.355000E-8	-0.002053
1.360000E-8	-0.001506
1.365000E-8	-0.000763
1.370000E-8	-9.062500E-5
1.375000E-8	0.000759
1.380000E-8	0.001606
1.385000E-8	0.002313
1.390000E-8	0.002691
1.395000E-8	0.002878
1.400000E-8	0.002913
1.405000E-8	0.002719
1.410000E-8	0.002116
1.415000E-8	0.001472
1.420000E-8	0.000706
1.425000E-8	-0.000103
1.430000E-8	-0.000856
1.435000E-8	-0.001384
1.440000E-8	-0.001753
1.445000E-8	-0.001834
1.450000E-8	-0.001625
1.455000E-8	-0.001159
1.460000E-8	-0.000537
1.465000E-8	0.000287
1.470000E-8	0.001116
1.475000E-8	0.002072
1.480000E-8	0.002863
1.485000E-8	0.003447
1.490000E-8	0.003781
1.495000E-8	0.003931
1.500000E-8	0.003716
1.505000E-8	0.003309
1.510000E-8	0.002603
1.515000E-8	0.001756
1.520000E-8	0.000859
1.525000E-8	2.500000E-5
1.530000E-8	-0.000769
1.535000E-8	-0.001206
1.540000E-8	-0.001475
1.545000E-8	-0.001406
1.550000E-8	-0.001138
1.555000E-8	-0.000491
1.560000E-8	0.000259
1.565000E-8	0.001159
1.570000E-8	0.002012
1.575000E-8	0.002781
1.580000E-8	0.003447
1.585000E-8	0.003897
1.590000E-8	0.004034
1.595000E-8	0.003903
1.600000E-8	0.003453
1.605000E-8	0.002828
1.610000E-8	0.001994
1.615000E-8	0.001244
1.620000E-8	0.000369
1.625000E-8	-0.000278
1.630000E-8	-0.000863
1.635000E-8	-0.000988
1.640000E-8	-0.001109
1.645000E-8	-0.000769
1.650000E-8	-0.000256
1.655000E-8	0.000456
1.660000E-8	0.001309
1.665000E-8	0.002197
1.670000E-8	0.002956
1.675000E-8	0.003572
1.680000E-8	0.004028
1.685000E-8	0.004138
1.690000E-8	0.004178
1.695000E-8	0.003903
1.700000E-8	0.003484
1.705000E-8	0.002775
1.710000E-8	0.002056
1.715000E-8	0.001272
1.720000E-8	0.000534
1.725000E-8	-4.375000E-5
1.730000E-8	-0.000525
1.735000E-8	-0.000544
1.740000E-8	-0.000478
1.745000E-8	-6.250000E-5
1.750000E-8	0.000531
1.755000E-8	0.001400
1.760000E-8	0.002169
1.765000E-8	0.003016
1.770000E-8	0.003734
1.775000E-8	0.004303
1.780000E-8	0.004569
1.785000E-8	0.004694
1.790000E-8	0.004434
1.795000E-8	0.003950
1.800000E-8	0.003278
1.805000E-8	0.002450
1.810000E-8	0.001681
1.815000E-8	0.000866
1.820000E-8	0.000303
1.825000E-8	-0.000206
1.830000E-8	-0.000397
1.835000E-8	-0.000381
1.840000E-8	-0.000181
1.845000E-8	0.000256
1.850000E-8	0.000822
1.855000E-8	0.001566
1.860000E-8	0.002328
1.865000E-8	0.003147
1.870000E-8	0.003663
1.875000E-8	0.004197
1.880000E-8	0.004391
1.885000E-8	0.004359
1.890000E-8	0.004119
1.895000E-8	0.003703
1.900000E-8	0.003128
1.905000E-8	0.002494
1.910000E-8	0.001684
1.915000E-8	0.001050
1.920000E-8	0.000506
1.925000E-8	0.000297
1.930000E-8	1.875000E-5
1.935000E-8	0.000119
1.940000E-8	0.000412
1.945000E-8	0.000953
1.950000E-8	0.001472
1.955000E-8	0.002091
1.960000E-8	0.002819
1.965000E-8	0.003444
1.970000E-8	0.003756
1.975000E-8	0.004128
1.980000E-8	0.004131
1.985000E-8	0.003962
1.990000E-8	0.003663
1.995000E-8	0.003181
2.000000E-8	0.002437
2.005000E-8	0.001897
2.010000E-8	0.001256
2.015000E-8	0.000656
2.020000E-8	0.000169
2.025000E-8	-7.812500E-5
2.030000E-8	-5.625000E-5
2.035000E-8	0.000119
2.040000E-8	0.000359
2.045000E-8	0.000881
2.050000E-8	0.001419
2.055000E-8	0.002191
2.060000E-8	0.002778
2.065000E-8	0.003503
2.070000E-8	0.003853
2.075000E-8	0.004053
2.080000E-8	0.004019
2.085000E-8	0.003728
2.090000E-8	0.003259
2.095000E-8	0.002841
2.100000E-8	0.002206
2.105000E-8	0.001559
2.110000E-8	0.000875
2.115000E-8	0.000344
2.120000E-8	-9.062500E-5
2.125000E-8	-0.000363
2.130000E-8	-0.000284
2.135000E-8	0.000125
2.140000E-8	0.000588
2.145000E-8	0.001175
2.150000E-8	0.001894
2.155000E-8	0.002662
2.160000E-8	0.003188
2.165000E-8	0.003753
2.170000E-8	0.004025
2.175000E-8	0.004100
2.180000E-8	0.003994
2.185000E-8	0.003681
2.190000E-8	0.003156
2.195000E-8	0.002519
2.200000E-8	0.001813
2.205000E-8	0.001278
2.210000E-8	0.000759
2.215000E-8	0.000291
2.220000E-8	-9.375000E-6
2.225000E-8	3.437500E-5
2.230000E-8	0.000197
2.235000E-8	0.000503
2.240000E-8	0.000922
2.245000E-8	0.001634
2.250000E-8	0.002206
2.255000E-8	0.003031
2.260000E-8	0.003709
2.265000E-8	0.004184
2.270000E-8	0.004363
2.275000E-8	0.004537
2.280000E-8	0.004266
2.285000E-8	0.003881
2.290000E-8	0.003353
2.295000E-8	0.002628
2.300000E-8	0.001931
2.305000E-8	0.001294
2.310000E-8	0.000556
2.315000E-8	0.000209
2.320000E-8	-9.375000E-6
2.325000E-8	0.000138
2.330000E-8	0.000294
2.335000E-8	0.000956
2.340000E-8	0.001575
2.345000E-8	0.002313
2.350000E-8	0.002991
2.355000E-8	0.003650
2.360000E-8	0.004191
2.365000E-8	0.004469
2.370000E-8	0.004519
2.375000E-8	0.004372
2.380000E-8	0.004013
2.385000E-8	0.003488
2.390000E-8	0.002737
2.395000E-8	0.002022
2.400000E-8	0.001353
2.405000E-8	0.000806
2.410000E-8	0.000191
2.415000E-8	-3.125000E-6
2.420000E-8	-4.062500E-5
2.425000E-8	0.000128
2.430000E-8	0.000459
2.435000E-8	0.001131
2.440000E-8	0.001766
2.445000E-8	0.002559
2.450000E-8	0.003141
2.455000E-8	0.003744
2.460000E-8	0.004178
2.465000E-8	0.004334
2.470000E-8	0.004297
2.475000E-8	0.004103
2.480000E-8	0.003697
2.485000E-8	0.003175
2.490000E-8	0.002538
2.495000E-8	0.002012
2.500000E-8	0.001444
2.505000E-8	0.001034
2.510000E-8	0.000600
2.515000E-8	0.000678
2.520000E-8	0.000834
2.525000E-8	0.001275
2.530000E-8	0.001700
2.535000E-8	0.002319
2.540000E-8	0.002956
2.545000E-8	0.003741
2.550000E-8	0.004184
2.555000E-8	0.004544
2.560000E-8	0.004713
2.565000E-8	0.004669
2.570000E-8	0.004366
2.575000E-8	0.004059
2.580000E-8	0.003322
2.585000E-8	0.002694
2.590000E-8	0.002097
2.595000E-8	0.001422
2.600000E-8	0.000775
2.605000E-8	0.000447
2.610000E-8	0.000344
2.615000E-8	0.000388
2.620000E-8	0.000663
2.625000E-8	0.001147
2.630000E-8	0.001697
2.635000E-8	0.002347
2.640000E-8	0.002819
2.645000E-8	0.003478
2.650000E-8	0.003884
2.655000E-8	0.004166
2.660000E-8	0.004138
2.665000E-8	0.004066
2.670000E-8	0.003853
2.675000E-8	0.003488
2.680000E-8	0.002825
2.685000E-8	0.002162
2.690000E-8	0.001594
2.695000E-8	0.001131
2.700000E-8	0.000653
2.705000E-8	0.000522
2.710000E-8	0.000478
2.715000E-8	0.000625
2.720000E-8	0.000822
2.725000E-8	0.001300
2.730000E-8	0.001919
2.735000E-8	0.002525
2.740000E-8	0.002994
2.745000E-8	0.003481
2.750000E-8	0.003903
2.755000E-8	0.004056
2.760000E-8	0.004153
2.765000E-8	0.003984
2.770000E-8	0.003713
2.775000E-8	0.003266
2.780000E-8	0.002691
2.785000E-8	0.002122
2.790000E-8	0.001594
2.795000E-8	0.001172
2.800000E-8	0.000650
2.805000E-8	0.000563
2.810000E-8	0.000537
2.815000E-8	0.000566
2.820000E-8	0.000988
2.825000E-8	0.001475
2.830000E-8	0.002091
2.835000E-8	0.002809
2.840000E-8	0.003388
2.845000E-8	0.003981
2.850000E-8	0.004197
2.855000E-8	0.004394
2.860000E-8	0.004350
2.865000E-8	0.004100
2.870000E-8	0.003650
2.875000E-8	0.003050
2.880000E-8	0.002344
2.885000E-8	0.001778
2.890000E-8	0.001128
2.895000E-8	0.000737
2.900000E-8	0.000481
2.905000E-8	0.000544
2.910000E-8	0.000578
2.915000E-8	0.000831
2.920000E-8	0.001231
2.925000E-8	0.001753
2.930000E-8	0.002281
2.935000E-8	0.002800
2.940000E-8	0.003300
2.945000E-8	0.003731
2.950000E-8	0.003838
2.955000E-8	0.004003
2.960000E-8	0.003813
2.965000E-8	0.003597
2.970000E-8	0.003250
2.975000E-8	0.002734
2.980000E-8	0.002106
2.985000E-8	0.001591
2.990000E-8	0.001191
2.995000E-8	0.000828
3.000000E-8	0.000463
3.005000E-8	0.000550
3.010000E-8	0.000750
3.015000E-8	0.001119
3.020000E-8	0.001513
3.025000E-8	0.002153
3.030000E-8	0.002606
3.035000E-8	0.003272
3.040000E-8	0.003741
3.045000E-8	0.004163
3.050000E-8	0.004166
3.055000E-8	0.004313
3.060000E-8	0.004053
3.065000E-8	0.003694
3.070000E-8	0.003172
3.075000E-8	0.002616
3.080000E-8	0.001916
3.085000E-8	0.001378
3.090000E-8	0.000853
3.095000E-8	0.000528
3.100000E-8	0.000513
3.105000E-8	0.000531
3.110000E-8	0.000750
3.115000E-8	0.001225
3.120000E-8	0.001716
3.125000E-8	0.002391
3.130000E-8	0.002984
3.135000E-8	0.003472
3.140000E-8	0.003800
3.145000E-8	0.004128
3.150000E-8	0.004056
3.155000E-8	0.003978
3.160000E-8	0.003631
3.165000E-8	0.003281
3.170000E-8	0.002669
3.175000E-8	0.002206
3.180000E-8	0.001691
3.185000E-8	0.001234
3.190000E-8	0.000844
3.195000E-8	0.000750
3.200000E-8	0.000737
3.205000E-8	0.000878
3.210000E-8	0.001144
3.215000E-8	0.001669
3.220000E-8	0.002150
3.225000E-8	0.002775
3.230000E-8	0.003116
3.235000E-8	0.003603
3.240000E-8	0.003809
3.245000E-8	0.003791
3.250000E-8	0.003778
3.255000E-8	0.003444
3.260000E-8	0.003081
3.265000E-8	0.002653
3.270000E-8	0.002072
3.275000E-8	0.001606
3.280000E-8	0.001166
3.285000E-8	0.000878
3.290000E-8	0.000722
3.295000E-8	0.000678
3.300000E-8	0.000869
3.305000E-8	0.001134
3.310000E-8	0.001531
3.315000E-8	0.002047
3.320000E-8	0.002409
3.325000E-8	0.002959
3.330000E-8	0.003356
3.335000E-8	0.003744
3.340000E-8	0.003941
3.345000E-8	0.003975
3.350000E-8	0.003784
3.355000E-8	0.003575
3.360000E-8	0.003138
3.365000E-8	0.002766
3.370000E-8	0.002313
3.375000E-8	0.001897
3.380000E-8	0.001344
3.385000E-8	0.001075
3.390000E-8	0.000944
3.395000E-8	0.000981
3.400000E-8	0.001075
3.405000E-8	0.001303
3.410000E-8	0.001666
3.415000E-8	0.002194
3.420000E-8	0.002622
3.425000E-8	0.003097
3.430000E-8	0.003309
3.435000E-8	0.003650
3.440000E-8	0.003781
3.445000E-8	0.003806
3.450000E-8	0.003516
3.455000E-8	0.003303
3.460000E-8	0.002928
3.465000E-8	0.002566
3.470000E-8	0.002000
3.475000E-8	0.001597
3.480000E-8	0.001203
3.485000E-8	0.001075
3.490000E-8	0.000991
3.495000E-8	0.001044
3.500000E-8	0.001194
3.505000E-8	0.001563
3.510000E-8	0.001934
3.515000E-8	0.002422
3.520000E-8	0.002878
3.525000E-8	0.003253
3.530000E-8	0.003509
3.535000E-8	0.003653
3.540000E-8	0.003609
3.545000E-8	0.003556
3.550000E-8	0.003347
3.555000E-8	0.003019
3.560000E-8	0.002437
3.565000E-8	0.002116
3.570000E-8	0.001603
3.575000E-8	0.001328
3.580000E-8	0.001138
3.585000E-8	0.001056
3.590000E-8	0.000991
3.595000E-8	0.001116
3.600000E-8	0.001303
3.605000E-8	0.001594
3.610000E-8	0.002031
3.615000E-8	0.002472
3.620000E-8	0.002875
3.625000E-8	0.003091
3.630000E-8	0.003297
3.635000E-8	0.003456
3.640000E-8	0.003359
3.645000E-8	0.003206
3.650000E-8	0.003006
3.655000E-8	0.002647
3.660000E-8	0.002259
3.665000E-8	0.001866
3.670000E-8	0.001556
3.675000E-8	0.001422
3.680000E-8	0.001078
3.685000E-8	0.001144
3.690000E-8	0.001100
3.695000E-8	0.001159
3.700000E-8	0.001419
3.705000E-8	0.001691
3.710000E-8	0.002134
3.715000E-8	0.002522
3.720000E-8	0.002819
3.725000E-8	0.003147
3.730000E-8	0.003275
3.735000E-8	0.003303
3.740000E-8	0.003378
3.745000E-8	0.003194
3.750000E-8	0.002947
3.755000E-8	0.002581
3.760000E-8	0.002216
3.765000E-8	0.001797
3.770000E-8	0.001347
3.775000E-8	0.001122
3.780000E-8	0.000906
3.785000E-8	0.000972
3.790000E-8	0.001047
3.795000E-8	0.001288
3.800000E-8	0.001722
3.805000E-8	0.002200
3.810000E-8	0.002694
3.815000E-8	0.003200
3.820000E-8	0.003553
3.825000E-8	0.003900
3.830000E-8	0.004072
3.835000E-8	0.004131
3.840000E-8	0.003906
3.845000E-8	0.003581
3.850000E-8	0.003159
3.855000E-8	0.002719
3.860000E-8	0.002291
3.865000E-8	0.001866
3.870000E-8	0.001472
3.875000E-8	0.001300
3.880000E-8	0.001244
3.885000E-8	0.001275
3.890000E-8	0.001419
3.895000E-8	0.001734
3.900000E-8	0.001963
3.905000E-8	0.002469
3.910000E-8	0.002881
3.915000E-8	0.003116
3.920000E-8	0.003381
3.925000E-8	0.003603
3.930000E-8	0.003600
3.935000E-8	0.003594
3.940000E-8	0.003391
3.945000E-8	0.003144
3.950000E-8	0.002884
3.955000E-8	0.002550
3.960000E-8	0.002003
3.965000E-8	0.001734
3.970000E-8	0.001400
3.975000E-8	0.001222
3.980000E-8	0.001184
3.985000E-8	0.001250
3.990000E-8	0.001459
3.995000E-8	0.001759
4.000000E-8	0.002109
4.005000E-8	0.002613
4.010000E-8	0.002941
4.015000E-8	0.003309
4.020000E-8	0.003419
4.025000E-8	0.003578
4.030000E-8	0.003569
4.035000E-8	0.003522
4.040000E-8	0.003153
4.045000E-8	0.002844
4.050000E-8	0.002509
4.055000E-8	0.002113
4.060000E-8	0.001684
4.065000E-8	0.001456
4.070000E-8	0.001353
4.075000E-8	0.001256
4.080000E-8	0.001259
4.085000E-8	0.001450
4.090000E-8	0.001672
4.095000E-8	0.002072
4.100000E-8	0.002450
4.105000E-8	0.002838
4.110000E-8	0.003181
4.115000E-8	0.003541
4.120000E-8	0.003622
4.125000E-8	0.003666
4.130000E-8	0.003516
4.135000E-8	0.003347
4.140000E-8	0.002997
4.145000E-8	0.002644
4.150000E-8	0.002134
4.155000E-8	0.001869
4.160000E-8	0.001531
4.165000E-8	0.001313
4.170000E-8	0.001038
4.175000E-8	0.001116
4.180000E-8	0.001228
4.185000E-8	0.001484
4.190000E-8	0.001797
4.195000E-8	0.002197
4.200000E-8	0.002544
4.205000E-8	0.002978
4.210000E-8	0.003234
4.215000E-8	0.003538
4.220000E-8	0.003578
4.225000E-8	0.003709
4.230000E-8	0.003512
4.235000E-8	0.003331
4.240000E-8	0.002891
4.245000E-8	0.002609
4.250000E-8	0.002225
4.255000E-8	0.001931
4.260000E-8	0.001638
4.265000E-8	0.001441
4.270000E-8	0.001275
4.275000E-8	0.001328
4.280000E-8	0.001519
4.285000E-8	0.001706
4.290000E-8	0.001897
4.295000E-8	0.002269
4.300000E-8	0.002578
4.305000E-8	0.002863
4.310000E-8	0.003106
4.315000E-8	0.003172
4.320000E-8	0.003247
4.325000E-8	0.003278
4.330000E-8	0.003034
4.335000E-8	0.002913
4.340000E-8	0.002638
4.345000E-8	0.002409
4.350000E-8	0.002016
4.355000E-8	0.001634
4.360000E-8	0.001481
4.365000E-8	0.001456
4.370000E-8	0.001347
4.375000E-8	0.001428
4.380000E-8	0.001531
4.385000E-8	0.001872
4.390000E-8	0.002241
4.395000E-8	0.002647
4.400000E-8	0.003006
4.405000E-8	0.003306
4.410000E-8	0.003525
4.415000E-8	0.003619
4.420000E-8	0.003559
4.425000E-8	0.003488
4.430000E-8	0.003325
4.435000E-8	0.002938
4.440000E-8	0.002525
4.445000E-8	0.002113
4.450000E-8	0.001803
4.455000E-8	0.001547
4.460000E-8	0.001284
4.465000E-8	0.001225
4.470000E-8	0.001247
4.475000E-8	0.001669
4.480000E-8	0.001884
4.485000E-8	0.002147
4.490000E-8	0.002512
4.495000E-8	0.002984
4.500000E-8	0.003244
4.505000E-8	0.003284
4.510000E-8	0.003434
4.515000E-8	0.003366
4.520000E-8	0.003141
4.525000E-8	0.002919
4.530000E-8	0.002631
4.535000E-8	0.002431
4.540000E-8	0.002059
4.545000E-8	0.001719
4.550000E-8	0.001466
4.555000E-8	0.001381
4.560000E-8	0.001213
4.565000E-8	0.001422
4.570000E-8	0.001525
4.575000E-8	0.001734
4.580000E-8	0.001906
4.585000E-8	0.002284
4.590000E-8	0.002594
4.595000E-8	0.002813
4.600000E-8	0.003031
4.605000E-8	0.003159
4.610000E-8	0.003081
4.615000E-8	0.003128
4.620000E-8	0.002941
4.625000E-8	0.002759
4.630000E-8	0.002509
4.635000E-8	0.002297
4.640000E-8	0.001931
4.645000E-8	0.001700
4.650000E-8	0.001544
4.655000E-8	0.001475
4.660000E-8	0.001528
4.665000E-8	0.001663
4.670000E-8	0.001850
4.675000E-8	0.002122
4.680000E-8	0.002444
4.685000E-8	0.002797
4.690000E-8	0.003066
4.695000E-8	0.003263
4.700000E-8	0.003403
4.705000E-8	0.003413
4.710000E-8	0.003313
4.715000E-8	0.003203
4.720000E-8	0.003006
4.725000E-8	0.002662
4.730000E-8	0.002375
4.735000E-8	0.002075
4.740000E-8	0.001791
4.745000E-8	0.001522
4.750000E-8	0.001356
4.755000E-8	0.001309
4.760000E-8	0.001391
4.765000E-8	0.001478
4.770000E-8	0.001716
4.775000E-8	0.002009
4.780000E-8	0.002175
4.785000E-8	0.002591
4.790000E-8	0.002756
4.795000E-8	0.002984
4.800000E-8	0.002984
4.805000E-8	0.003031
4.810000E-8	0.002956
4.815000E-8	0.002872
4.820000E-8	0.002772
4.825000E-8	0.002581
4.830000E-8	0.002178
4.835000E-8	0.002041
4.840000E-8	0.001703
4.845000E-8	0.001663
4.850000E-8	0.001544
4.855000E-8	0.001437
4.860000E-8	0.001431
4.865000E-8	0.001619
4.870000E-8	0.001816
4.875000E-8	0.002200
4.880000E-8	0.002472
4.885000E-8	0.002819
4.890000E-8	0.002997
4.895000E-8	0.003063
4.900000E-8	0.003162
4.905000E-8	0.003247
4.910000E-8	0.003131
4.915000E-8	0.003053
4.920000E-8	0.002816
4.925000E-8	0.002603
4.930000E-8	0.002275
4.935000E-8	0.002081
4.940000E-8	0.001916
4.945000E-8	0.001763
4.950000E-8	0.001766
4.955000E-8	0.001800
4.960000E-8	0.001766
4.965000E-8	0.002000
4.970000E-8	0.002184
4.975000E-8	0.002422
4.980000E-8	0.002616
4.985000E-8	0.002784
4.990000E-8	0.002906
4.995000E-8	0.003069
5.000000E-8	0.003047
5.005000E-8	0.002881
5.010000E-8	0.002731
5.015000E-8	0.002550
5.020000E-8	0.002281
5.025000E-8	0.002019
5.030000E-8	0.001828
5.035000E-8	0.001631
5.040000E-8	0.001384
5.045000E-8	0.001497
5.050000E-8	0.001384
5.055000E-8	0.001469
5.060000E-8	0.001550
5.065000E-8	0.001703
5.070000E-8	0.001984
5.075000E-8	0.002222
5.080000E-8	0.002325
5.085000E-8	0.002606
5.090000E-8	0.002981
5.095000E-8	0.003072
5.100000E-8	0.003109
5.105000E-8	0.003197
5.110000E-8	0.003059
5.115000E-8	0.002928
5.120000E-8	0.002778
5.125000E-8	0.002713
5.130000E-8	0.002381
5.135000E-8	0.002169
5.140000E-8	0.001997
5.145000E-8	0.001916
5.150000E-8	0.001834
5.155000E-8	0.001903
5.160000E-8	0.001884
5.165000E-8	0.002009
5.170000E-8	0.002216
5.175000E-8	0.002450
5.180000E-8	0.002634
5.185000E-8	0.002894
5.190000E-8	0.003012
5.195000E-8	0.003147
5.200000E-8	0.003022
5.205000E-8	0.002956
5.210000E-8	0.002831
5.215000E-8	0.002563
5.220000E-8	0.002478
5.225000E-8	0.002341
5.230000E-8	0.002216
5.235000E-8	0.002072
5.240000E-8	0.001866
5.245000E-8	0.001931
5.250000E-8	0.001937
5.255000E-8	0.002025
5.260000E-8	0.002197
5.265000E-8	0.002328
5.270000E-8	0.002625
5.275000E-8	0.002819
5.280000E-8	0.002991
5.285000E-8	0.003147
5.290000E-8	0.003128
5.295000E-8	0.003131
5.300000E-8	0.002909
5.305000E-8	0.002872
5.310000E-8	0.002559
5.315000E-8	0.002431
5.320000E-8	0.002038
5.325000E-8	0.001944
5.330000E-8	0.001756
5.335000E-8	0.001744
5.340000E-8	0.001653
5.345000E-8	0.001725
5.350000E-8	0.001747
5.355000E-8	0.001944
5.360000E-8	0.002134
5.365000E-8	0.002375
5.370000E-8	0.002447
5.375000E-8	0.002813
5.380000E-8	0.003050
5.385000E-8	0.003087
5.390000E-8	0.003075
5.395000E-8	0.003028
5.400000E-8	0.002925
5.405000E-8	0.002772
5.410000E-8	0.002678
5.415000E-8	0.002534
5.420000E-8	0.002316
5.425000E-8	0.002175
5.430000E-8	0.001988
5.435000E-8	0.001881
5.440000E-8	0.001900
5.445000E-8	0.001900
5.450000E-8	0.001997
5.455000E-8	0.002175
5.460000E-8	0.002275
5.465000E-8	0.002322
5.470000E-8	0.002406
5.475000E-8	0.002584
5.480000E-8	0.002675
5.485000E-8	0.002716
5.490000E-8	0.002697
5.495000E-8	0.002688
5.500000E-8	0.002634
5.505000E-8	0.002559
5.510000E-8	0.002331
5.515000E-8	0.002156
5.520000E-8	0.002003
5.525000E-8	0.001919
5.530000E-8	0.001791
5.535000E-8	0.001775
5.540000E-8	0.001725
5.545000E-8	0.001775
5.550000E-8	0.001763
5.555000E-8	0.002028
5.560000E-8	0.002188
5.565000E-8	0.002247
5.570000E-8	0.002572
5.575000E-8	0.002725
5.580000E-8	0.002741
5.585000E-8	0.002897
5.590000E-8	0.002819
5.595000E-8	0.002875
5.600000E-8	0.002688
5.605000E-8	0.002500
5.610000E-8	0.002313
5.615000E-8	0.002069
5.620000E-8	0.001894
5.625000E-8	0.001713
5.630000E-8	0.001544
5.635000E-8	0.001425
5.640000E-8	0.001456
5.645000E-8	0.001450
5.650000E-8	0.001606
5.655000E-8	0.001763
5.660000E-8	0.001897
5.665000E-8	0.002191
5.670000E-8	0.002388
5.675000E-8	0.002569
5.680000E-8	0.002644
5.685000E-8	0.002763
5.690000E-8	0.002747
5.695000E-8	0.002800
5.700000E-8	0.002628
5.705000E-8	0.002541
5.710000E-8	0.002344
5.715000E-8	0.002231
5.720000E-8	0.002041
5.725000E-8	0.001875
5.730000E-8	0.001744
5.735000E-8	0.001750
5.740000E-8	0.001697
5.745000E-8	0.001741
5.750000E-8	0.001781
5.755000E-8	0.001997
5.760000E-8	0.002284
5.765000E-8	0.002509
5.770000E-8	0.002778
5.775000E-8	0.002931
5.780000E-8	0.002900
5.785000E-8	0.002991
5.790000E-8	0.002972
5.795000E-8	0.002869
5.800000E-8	0.002744
5.805000E-8	0.002625
5.810000E-8	0.002409
5.815000E-8	0.002266
5.820000E-8	0.002063
5.825000E-8	0.001975
5.830000E-8	0.001897
5.835000E-8	0.001916
5.840000E-8	0.001922
5.845000E-8	0.002138
5.850000E-8	0.002250
5.855000E-8	0.002422
5.860000E-8	0.002534
5.865000E-8	0.002662
5.870000E-8	0.002728
5.875000E-8	0.002734
5.880000E-8	0.002847
5.885000E-8	0.002825
5.890000E-8	0.002741
5.895000E-8	0.002500
5.900000E-8	0.002428
5.905000E-8	0.002394
5.910000E-8	0.002103
5.915000E-8	0.001881
5.920000E-8	0.001850
5.925000E-8	0.001834
5.930000E-8	0.001744
5.935000E-8	0.001741
5.940000E-8	0.001881
5.945000E-8	0.002084
5.950000E-8	0.002241
5.955000E-8	0.002356
5.960000E-8	0.002475
5.965000E-8	0.002669
5.970000E-8	0.002759
5.975000E-8	0.002819
5.980000E-8	0.002725
5.985000E-8	0.002650
5.990000E-8	0.002525
5.995000E-8	0.002506
6.000000E-8	0.002288
6.005000E-8	0.002194
6.010000E-8	0.002066
6.015000E-8	0.002050
6.020000E-8	0.001991
6.025000E-8	0.001994
6.030000E-8	0.002050
6.035000E-8	0.002259
6.040000E-8	0.002313
6.045000E-8	0.002434
6.050000E-8	0.002578
6.055000E-8	0.002816
6.060000E-8	0.002956
6.065000E-8	0.003144
6.070000E-8	0.003316
6.075000E-8	0.003300
6.080000E-8	0.003156
6.085000E-8	0.003203
6.090000E-8	0.003025
6.095000E-8	0.002853
6.100000E-8	0.002650
6.105000E-8	0.002437
6.110000E-8	0.002241
6.115000E-8	0.002081
6.120000E-8	0.001978
6.125000E-8	0.001934
6.130000E-8	0.001884
6.135000E-8	0.001991
6.140000E-8	0.002063
6.145000E-8	0.002313
6.150000E-8	0.002316
6.155000E-8	0.002481
6.160000E-8	0.002641
6.165000E-8	0.002713
6.170000E-8	0.002775
6.175000E-8	0.002744
6.180000E-8	0.002628
6.185000E-8	0.002569
6.190000E-8	0.002481
6.195000E-8	0.002328
6.200000E-8	0.002025
6.205000E-8	0.001963
6.210000E-8	0.001872
6.215000E-8	0.001747
6.220000E-8	0.001716
6.225000E-8	0.001769
6.230000E-8	0.001756
6.235000E-8	0.001884
6.240000E-8	0.001975
6.245000E-8	0.002081
6.250000E-8	0.002081
6.255000E-8	0.002109
6.260000E-8	0.002294
6.265000E-8	0.002381
6.270000E-8	0.002409
6.275000E-8	0.002434
6.280000E-8	0.002322
6.285000E-8	0.002244
6.290000E-8	0.002144
6.295000E-8	0.002159
6.300000E-8	0.001928
6.305000E-8	0.001997
6.310000E-8	0.001903
6.315000E-8	0.001906
6.320000E-8	0.001937
6.325000E-8	0.002056
6.330000E-8	0.002116
6.335000E-8	0.002297
6.340000E-8	0.002469
6.345000E-8	0.002581
6.350000E-8	0.002669
6.355000E-8	0.002856
6.360000E-8	0.002797
6.365000E-8	0.002959
6.370000E-8	0.002888
6.375000E-8	0.002778
6.380000E-8	0.002644
6.385000E-8	0.002472
6.390000E-8	0.002409
6.395000E-8	0.002234
6.400000E-8	0.001969
6.405000E-8	0.001797
6.410000E-8	0.001753
6.415000E-8	0.001647
6.420000E-8	0.001641
6.425000E-8	0.001797
6.430000E-8	0.001884
6.435000E-8	0.002100
6.440000E-8	0.002253
6.445000E-8	0.002338
6.450000E-8	0.002509
6.455000E-8	0.002656
6.460000E-8	0.002694
6.465000E-8	0.002666
6.470000E-8	0.002666
6.475000E-8	0.002584
6.480000E-8	0.002366
6.485000E-8	0.002272
6.490000E-8	0.002100
6.495000E-8	0.001969
6.500000E-8	0.001884
6.505000E-8	0.001841
6.510000E-8	0.001841
6.515000E-8	0.001784
6.520000E-8	0.001816
6.525000E-8	0.001903
6.530000E-8	0.002066
6.535000E-8	0.002281
6.540000E-8	0.002400
6.545000E-8	0.002531
6.550000E-8	0.002644
6.555000E-8	0.002772
6.560000E-8	0.002847
6.565000E-8	0.002813
6.570000E-8	0.002650
6.575000E-8	0.002669
6.580000E-8	0.002444
6.585000E-8	0.002409
6.590000E-8	0.002306
6.595000E-8	0.002138
6.600000E-8	0.002141
6.605000E-8	0.001988
6.610000E-8	0.001916
6.615000E-8	0.002069
6.620000E-8	0.001988
6.625000E-8	0.002078
6.630000E-8	0.002122
6.635000E-8	0.002359
6.640000E-8	0.002434
6.645000E-8	0.002528
6.650000E-8	0.002619
6.655000E-8	0.002700
6.660000E-8	0.002819
6.665000E-8	0.002766
6.670000E-8	0.002622
6.675000E-8	0.002603
6.680000E-8	0.002531
6.685000E-8	0.002463
6.690000E-8	0.002219
6.695000E-8	0.002206
6.700000E-8	0.002213
6.705000E-8	0.002256
6.710000E-8	0.002253
6.715000E-8	0.002244
6.720000E-8	0.002341
6.725000E-8	0.002431
6.730000E-8	0.002528
6.735000E-8	0.002591
6.740000E-8	0.002622
6.745000E-8	0.002653
6.750000E-8	0.002669
6.755000E-8	0.002709
6.760000E-8	0.002616
6.765000E-8	0.002441
6.770000E-8	0.002350
6.775000E-8	0.002266
6.780000E-8	0.002144
6.785000E-8	0.002200
6.790000E-8	0.002012
6.795000E-8	0.001997
6.800000E-8	0.002003
6.805000E-8	0.002056
6.810000E-8	0.002131
6.815000E-8	0.002056
6.820000E-8	0.002094
6.825000E-8	0.002125
6.830000E-8	0.002162
6.835000E-8	0.002291
6.840000E-8	0.002266
6.845000E-8	0.002453
6.850000E-8	0.002528
6.855000E-8	0.002459
6.860000E-8	0.002525
6.865000E-8	0.002437
6.870000E-8	0.002375
6.875000E-8	0.002309
6.880000E-8	0.002188
6.885000E-8	0.002100
6.890000E-8	0.002038
6.895000E-8	0.002022
6.900000E-8	0.001937
6.905000E-8	0.001950
6.910000E-8	0.002038
6.915000E-8	0.002237
6.920000E-8	0.002303
6.925000E-8	0.002506
6.930000E-8	0.002506
6.935000E-8	0.002697
6.940000E-8	0.002866
6.945000E-8	0.002831
6.950000E-8	0.002828
6.955000E-8	0.002859
6.960000E-8	0.002703
6.965000E-8	0.002606
6.970000E-8	0.002559
6.975000E-8	0.002450
6.980000E-8	0.002372
6.985000E-8	0.002237
6.990000E-8	0.002091
6.995000E-8	0.002144
7.000000E-8	0.002144
7.005000E-8	0.002181
7.010000E-8	0.002213
7.015000E-8	0.002366
7.020000E-8	0.002388
7.025000E-8	0.002519
7.030000E-8	0.002525
7.035000E-8	0.002541
7.040000E-8	0.002437
7.045000E-8	0.002572
7.050000E-8	0.002519
7.055000E-8	0.002644
7.060000E-8	0.002587
7.065000E-8	0.002541
7.070000E-8	0.002509
7.075000E-8	0.002494
7.080000E-8	0.002297
7.085000E-8	0.002266
7.090000E-8	0.002237
7.095000E-8	0.002166
7.100000E-8	0.002012
7.105000E-8	0.002116
7.110000E-8	0.002219
7.115000E-8	0.002284
7.120000E-8	0.002394
7.125000E-8	0.002416
7.130000E-8	0.002384
7.135000E-8	0.002659
7.140000E-8	0.002569
7.145000E-8	0.002609
7.150000E-8	0.002694
7.155000E-8	0.002766
7.160000E-8	0.002575
7.165000E-8	0.002538
7.170000E-8	0.002288
7.175000E-8	0.002266
7.180000E-8	0.002150
7.185000E-8	0.002078
7.190000E-8	0.002103
7.195000E-8	0.002044
7.200000E-8	0.002031
7.205000E-8	0.002166
7.210000E-8	0.002356
7.215000E-8	0.002491
7.220000E-8	0.002528
7.225000E-8	0.002628
7.230000E-8	0.002644
7.235000E-8	0.002697
7.240000E-8	0.002544
7.245000E-8	0.002563
7.250000E-8	0.002509
7.255000E-8	0.002594
7.260000E-8	0.002506
7.265000E-8	0.002378
7.270000E-8	0.002338
7.275000E-8	0.002316
7.280000E-8	0.002303
7.285000E-8	0.002350
7.290000E-8	0.002237
7.295000E-8	0.002375
7.300000E-8	0.002375
7.305000E-8	0.002309
7.310000E-8	0.002363
7.315000E-8	0.002369
7.320000E-8	0.002297
7.325000E-8	0.002456
7.330000E-8	0.002419
7.335000E-8	0.002478
7.340000E-8	0.002447
7.345000E-8	0.002600
7.350000E-8	0.002650
7.355000E-8	0.002603
7.360000E-8	0.002566
7.365000E-8	0.002444
7.370000E-8	0.002250
7.375000E-8	0.002219
7.380000E-8	0.002141
7.385000E-8	0.002109
7.390000E-8	0.002091
7.395000E-8	0.002156
7.400000E-8	0.002100
7.405000E-8	0.002259
7.410000E-8	0.002222
7.415000E-8	0.002475
7.420000E-8	0.002441
7.425000E-8	0.002553
7.430000E-8	0.002625
7.435000E-8	0.002656
7.440000E-8	0.002587
7.445000E-8	0.002531
7.450000E-8	0.002481
7.455000E-8	0.002453
7.460000E-8	0.002331
7.465000E-8	0.002316
7.470000E-8	0.002291
7.475000E-8	0.002275
7.480000E-8	0.002272
7.485000E-8	0.002334
7.490000E-8	0.002331
7.495000E-8	0.002344
7.500000E-8	0.002397
7.505000E-8	0.002488
7.510000E-8	0.002609
7.515000E-8	0.002569
7.520000E-8	0.002584
7.525000E-8	0.002578
7.530000E-8	0.002569
7.535000E-8	0.002584
7.540000E-8	0.002509
7.545000E-8	0.002475
7.550000E-8	0.002297
7.555000E-8	0.002338
7.560000E-8	0.002119
7.565000E-8	0.002116
7.570000E-8	0.001894
7.575000E-8	0.001919
7.580000E-8	0.001906
7.585000E-8	0.002019
7.590000E-8	0.002081
7.595000E-8	0.002250
7.600000E-8	0.002331
7.605000E-8	0.002416
7.610000E-8	0.002578
7.615000E-8	0.002778
7.620000E-8	0.002700
7.625000E-8	0.002750
7.630000E-8	0.002681
7.635000E-8	0.002675
7.640000E-8	0.002528
7.645000E-8	0.002263
7.650000E-8	0.001969
7.655000E-8	0.001947
7.660000E-8	0.001928
7.665000E-8	0.001937
7.670000E-8	0.001897
7.675000E-8	0.001981
7.680000E-8	0.002053
7.685000E-8	0.002134
7.690000E-8	0.002297
7.695000E-8	0.002481
7.700000E-8	0.002519
7.705000E-8	0.002584
7.710000E-8	0.002688
7.715000E-8	0.002719
7.720000E-8	0.002719
7.725000E-8	0.002737
7.730000E-8	0.002516
7.735000E-8	0.002494
7.740000E-8	0.002375
7.745000E-8	0.002344
7.750000E-8	0.002119
7.755000E-8	0.002116
7.760000E-8	0.002094
7.765000E-8	0.002213
7.770000E-8	0.002172
7.775000E-8	0.002272
7.780000E-8	0.002284
7.785000E-8	0.002569
7.790000E-8	0.002512
7.795000E-8	0.002634
7.800000E-8	0.002688
7.805000E-8	0.002681
7.810000E-8	0.002669
7.815000E-8	0.002750
7.820000E-8	0.002697
7.825000E-8	0.002603
7.830000E-8	0.002469
7.835000E-8	0.002491
7.840000E-8	0.002338
7.845000E-8	0.002213
7.850000E-8	0.002100
7.855000E-8	0.002184
7.860000E-8	0.002200
7.865000E-8	0.002275
7.870000E-8	0.002237
7.875000E-8	0.002253
7.880000E-8	0.002284
7.885000E-8	0.002288
7.890000E-8	0.002344
7.895000E-8	0.002319
7.900000E-8	0.002328
7.905000E-8	0.002391
7.910000E-8	0.002263
7.915000E-8	0.002328
7.920000E-8	0.002316
7.925000E-8	0.002375
7.930000E-8	0.002309
7.935000E-8	0.002266
7.940000E-8	0.002006
7.945000E-8	0.002081
7.950000E-8	0.002006
7.955000E-8	0.002041
7.960000E-8	0.002003
7.965000E-8	0.001947
7.970000E-8	0.001984
7.975000E-8	0.002125
7.980000E-8	0.002231
7.985000E-8	0.002338
7.990000E-8	0.002466
7.995000E-8	0.002497
8.000000E-8	0.002647
8.005000E-8	0.002606
8.010000E-8	0.002541
8.015000E-8	0.002622
8.020000E-8	0.002591
8.025000E-8	0.002503
8.030000E-8	0.002431
8.035000E-8	0.002475
8.040000E-8	0.002278
8.045000E-8	0.002244
8.050000E-8	0.002219
8.055000E-8	0.002281
8.060000E-8	0.002128
8.065000E-8	0.002203
8.070000E-8	0.002131
8.075000E-8	0.002225
8.080000E-8	0.002288
8.085000E-8	0.002334
8.090000E-8	0.002353
8.095000E-8	0.002375
8.100000E-8	0.002441
8.105000E-8	0.002600
8.110000E-8	0.002691
8.115000E-8	0.002653
8.120000E-8	0.002631
8.125000E-8	0.002603
8.130000E-8	0.002512
8.135000E-8	0.002506
8.140000E-8	0.002322
8.145000E-8	0.002313
8.150000E-8	0.002219
8.155000E-8	0.002194
8.160000E-8	0.002234
8.165000E-8	0.002216
8.170000E-8	0.002125
8.175000E-8	0.002181
8.180000E-8	0.002156
8.185000E-8	0.002253
8.190000E-8	0.002363
8.195000E-8	0.002416
8.200000E-8	0.002466
8.205000E-8	0.002616
8.210000E-8	0.002613
8.215000E-8	0.002628
8.220000E-8	0.002544
8.225000E-8	0.002625
8.230000E-8	0.002516
8.235000E-8	0.002413
8.240000E-8	0.002331
8.245000E-8	0.002372
8.250000E-8	0.002241
8.255000E-8	0.002150
8.260000E-8	0.002109
8.265000E-8	0.002069
8.270000E-8	0.002081
8.275000E-8	0.002144
8.280000E-8	0.002166
8.285000E-8	0.002341
8.290000E-8	0.002413
8.295000E-8	0.002550
8.300000E-8	0.002553
8.305000E-8	0.002647
8.310000E-8	0.002688
8.315000E-8	0.002703
8.320000E-8	0.002622
8.325000E-8	0.002528
8.330000E-8	0.002469
8.335000E-8	0.002509
8.340000E-8	0.002441
8.345000E-8	0.002319
8.350000E-8	0.002256
8.355000E-8	0.002263
8.360000E-8	0.002297
8.365000E-8	0.002422
8.370000E-8	0.002425
8.375000E-8	0.002603
8.380000E-8	0.002594
8.385000E-8	0.002578
8.390000E-8	0.002609
8.395000E-8	0.002784
8.400000E-8	0.002791
8.405000E-8	0.002728
8.410000E-8	0.002631
8.415000E-8	0.002512
8.420000E-8	0.002400
8.425000E-8	0.002416
8.430000E-8	0.002388
8.435000E-8	0.002234
8.440000E-8	0.002272
8.445000E-8	0.002219
8.450000E-8	0.002222
8.455000E-8	0.002250
8.460000E-8	0.002253
8.465000E-8	0.002241
8.470000E-8	0.002203
8.475000E-8	0.002272
8.480000E-8	0.002297
8.485000E-8	0.002437
8.490000E-8	0.002459
8.495000E-8	0.002481
8.500000E-8	0.002478
8.505000E-8	0.002450
8.510000E-8	0.002447
8.515000E-8	0.002519
8.520000E-8	0.002484
8.525000E-8	0.002531
8.530000E-8	0.002456
8.535000E-8	0.002484
8.540000E-8	0.002350
8.545000E-8	0.002356
8.550000E-8	0.002272
8.555000E-8	0.002394
8.560000E-8	0.002338
8.565000E-8	0.002384
8.570000E-8	0.002425
8.575000E-8	0.002356
8.580000E-8	0.002388
8.585000E-8	0.002425
8.590000E-8	0.002481
8.595000E-8	0.002488
8.600000E-8	0.002509
8.605000E-8	0.002531
8.610000E-8	0.002587
8.615000E-8	0.002684
8.620000E-8	0.002578
8.625000E-8	0.002491
8.630000E-8	0.002416
8.635000E-8	0.002475
8.640000E-8	0.002372
8.645000E-8	0.002475
8.650000E-8	0.002288
8.655000E-8	0.002272
8.660000E-8	0.002234
8.665000E-8	0.002272
8.670000E-8	0.002222
8.675000E-8	0.002284
8.680000E-8	0.002169
8.685000E-8	0.002194
8.690000E-8	0.002294
8.695000E-8	0.002328
8.700000E-8	0.002366
8.705000E-8	0.002428
8.710000E-8	0.002459
8.715000E-8	0.002494
8.720000E-8	0.002503
8.725000E-8	0.002622
8.730000E-8	0.002522
8.735000E-8	0.002475
8.740000E-8	0.002359
8.745000E-8	0.002363
8.750000E-8	0.002253
8.755000E-8	0.002325
8.760000E-8	0.002241
8.765000E-8	0.002216
8.770000E-8	0.002188
8.775000E-8	0.002241
8.780000E-8	0.002216
8.785000E-8	0.002291
8.790000E-8	0.002403
8.795000E-8	0.002431
8.800000E-8	0.002484
8.805000E-8	0.002606
8.810000E-8	0.002547
8.815000E-8	0.002594
8.820000E-8	0.002553
8.825000E-8	0.002488
8.830000E-8	0.002384
8.835000E-8	0.002444
8.840000E-8	0.002397
8.845000E-8	0.002328
8.850000E-8	0.002316
8.855000E-8	0.002372
8.860000E-8	0.002309
8.865000E-8	0.002397
8.870000E-8	0.002397
8.875000E-8	0.002444
8.880000E-8	0.002481
8.885000E-8	0.002491
8.890000E-8	0.002525
8.895000E-8	0.002638
8.900000E-8	0.002653
8.905000E-8	0.002591
8.910000E-8	0.002484
8.915000E-8	0.002506
8.920000E-8	0.002306
8.925000E-8	0.002431
8.930000E-8	0.002281
8.935000E-8	0.002338
8.940000E-8	0.002237
8.945000E-8	0.002222
8.950000E-8	0.002266
8.955000E-8	0.002391
8.960000E-8	0.002428
8.965000E-8	0.002584
8.970000E-8	0.002600
8.975000E-8	0.002653
8.980000E-8	0.002606
8.985000E-8	0.002666
8.990000E-8	0.002581
8.995000E-8	0.002631
9.000000E-8	0.002559
9.005000E-8	0.002534
9.010000E-8	0.002388
9.015000E-8	0.002416
9.020000E-8	0.002422
9.025000E-8	0.002350
9.030000E-8	0.002272
9.035000E-8	0.002291
9.040000E-8	0.002250
9.045000E-8	0.002225
9.050000E-8	0.002266
9.055000E-8	0.002375
9.060000E-8	0.002266
9.065000E-8	0.002397
9.070000E-8	0.002366
9.075000E-8	0.002547
9.080000E-8	0.002519
9.085000E-8	0.002534
9.090000E-8	0.002431
9.095000E-8	0.002497
9.100000E-8	0.002447
9.105000E-8	0.002416
9.110000E-8	0.002259
9.115000E-8	0.002241
9.120000E-8	0.002153
9.125000E-8	0.002225
9.130000E-8	0.002200
9.135000E-8	0.002234
9.140000E-8	0.002247
9.145000E-8	0.002281
9.150000E-8	0.002241
9.155000E-8	0.002331
9.160000E-8	0.002250
9.165000E-8	0.002222
9.170000E-8	0.002222
9.175000E-8	0.002403
9.180000E-8	0.002409
9.185000E-8	0.002431
9.190000E-8	0.002306
9.195000E-8	0.002309
9.200000E-8	0.002328
9.205000E-8	0.002356
9.210000E-8	0.002269
9.215000E-8	0.002356
9.220000E-8	0.002325
9.225000E-8	0.002328
9.230000E-8	0.002347
9.235000E-8	0.002406
9.240000E-8	0.002341
9.245000E-8	0.002431
9.250000E-8	0.002400
9.255000E-8	0.002494
9.260000E-8	0.002372
9.265000E-8	0.002422
9.270000E-8	0.002463
9.275000E-8	0.002516
9.280000E-8	0.002481
9.285000E-8	0.002484
9.290000E-8	0.002416
9.295000E-8	0.002519
9.300000E-8	0.002381
9.305000E-8	0.002184
9.310000E-8	0.002125
9.315000E-8	0.002153
9.320000E-8	0.002103
9.325000E-8	0.002184
9.330000E-8	0.002134
9.335000E-8	0.002050
9.340000E-8	0.002175
9.345000E-8	0.002316
9.350000E-8	0.002334
9.355000E-8	0.002475
9.360000E-8	0.002491
9.365000E-8	0.002475
9.370000E-8	0.002416
9.375000E-8	0.002547
9.380000E-8	0.002506
9.385000E-8	0.002422
9.390000E-8	0.002316
9.395000E-8	0.002375
9.400000E-8	0.002228
9.405000E-8	0.002213
9.410000E-8	0.002303
9.415000E-8	0.002334
9.420000E-8	0.002222
9.425000E-8	0.002328
9.430000E-8	0.002331
9.435000E-8	0.002350
9.440000E-8	0.002347
9.445000E-8	0.002394
9.450000E-8	0.002353
9.455000E-8	0.002384
9.460000E-8	0.002350
9.465000E-8	0.002369
9.470000E-8	0.002394
9.475000E-8	0.002512
9.480000E-8	0.002459
9.485000E-8	0.002381
9.490000E-8	0.002441
9.495000E-8	0.002441
9.500000E-8	0.002266
9.505000E-8	0.002394
9.510000E-8	0.002206
9.515000E-8	0.002237
9.520000E-8	0.002231
9.525000E-8	0.002222
9.530000E-8	0.002100
9.535000E-8	0.002147
9.540000E-8	0.002109
9.545000E-8	0.002194
9.550000E-8	0.002144
9.555000E-8	0.002141
9.560000E-8	0.002119
9.565000E-8	0.002075
9.570000E-8	0.002069
9.575000E-8	0.002078
9.580000E-8	0.002106
9.585000E-8	0.002175
9.590000E-8	0.002162
9.595000E-8	0.002200
9.600000E-8	0.002116
9.605000E-8	0.002025
9.610000E-8	0.002100
9.615000E-8	0.002166
9.620000E-8	0.002188
9.625000E-8	0.002153
9.630000E-8	0.002069
9.635000E-8	0.002266
9.640000E-8	0.002375
9.645000E-8	0.002478
9.650000E-8	0.002494
9.655000E-8	0.002522
9.660000E-8	0.002488
9.665000E-8	0.002606
9.670000E-8	0.002488
9.675000E-8	0.002431
9.680000E-8	0.002353
9.685000E-8	0.002263
9.690000E-8	0.002206
9.695000E-8	0.002141
9.700000E-8	0.002066
9.705000E-8	0.002081
9.710000E-8	0.002012
9.715000E-8	0.002087
9.720000E-8	0.002044
9.725000E-8	0.002188
9.730000E-8	0.002128
9.735000E-8	0.002197
9.740000E-8	0.002141
9.745000E-8	0.002288
9.750000E-8	0.002297
9.755000E-8	0.002366
9.760000E-8	0.002428
9.765000E-8	0.002538
9.770000E-8	0.002469
9.775000E-8	0.002566
9.780000E-8	0.002453
9.785000E-8	0.002391
9.790000E-8	0.002325
9.795000E-8	0.002275
9.800000E-8	0.002159
9.805000E-8	0.002162
9.810000E-8	0.002038
9.815000E-8	0.002113
9.820000E-8	0.002116
9.825000E-8	0.002206
9.830000E-8	0.002203
9.835000E-8	0.002294
9.840000E-8	0.002397
9.845000E-8	0.002478
9.850000E-8	0.002456
9.855000E-8	0.002538
9.860000E-8	0.002581
9.865000E-8	0.002566
9.870000E-8	0.002491
9.875000E-8	0.002425
9.880000E-8	0.002338
9.885000E-8	0.002306
9.890000E-8	0.002194
9.895000E-8	0.002181
9.900000E-8	0.002141
9.905000E-8	0.002216
9.910000E-8	0.002237
9.915000E-8	0.002247
9.920000E-8	0.002266
9.925000E-8	0.002334
9.930000E-8	0.002331
9.935000E-8	0.002359
9.940000E-8	0.002344
9.945000E-8	0.002209
9.950000E-8	0.002172
9.955000E-8	0.002206
9.960000E-8	0.002072
9.965000E-8	0.002097
9.970000E-8	0.001991
9.975000E-8	0.002209
9.980000E-8	0.002069
9.985000E-8	0.002128
9.990000E-8	0.002109
9.995000E-8	0.002091
