LabVIEW Measurement	
Writer_Version	2
Reader_Version	2
Separator	Tab
Decimal_Separator	.
Multi_Headings	No
X_Columns	Multi
Time_Pref	Relative
Operator	TG lab
Date	2015/03/06
Time	17:40:06.78851318359375
***End_of_Header***	
	
Channels	1	
Samples	2000	
Date	1903/12/31	
Time	19:00:00	
X_Dimension	Time	
X0	0.0000000000000000E+0	
Delta_X	5.000000E-11	
***End_of_Header***		
X_Value	Untitled	Comment
0.000000	0.002461
5.000000E-11	0.002531
1.000000E-10	0.002578
1.500000E-10	0.002719
2.000000E-10	0.002672
2.500000E-10	0.002742
3.000000E-10	0.002758
3.500000E-10	0.002852
4.000000E-10	0.002508
4.500000E-10	0.002750
5.000000E-10	0.002750
5.500000E-10	0.002789
6.000000E-10	0.002547
6.500000E-10	0.002773
7.000000E-10	0.002797
7.500000E-10	0.002828
8.000000E-10	0.002805
8.500000E-10	0.002969
9.000000E-10	0.002836
9.500000E-10	0.003000
1.000000E-9	0.002953
1.050000E-9	0.002961
1.100000E-9	0.002914
1.150000E-9	0.002977
1.200000E-9	0.002945
1.250000E-9	0.002953
1.300000E-9	0.002773
1.350000E-9	0.003078
1.400000E-9	0.002820
1.450000E-9	0.002938
1.500000E-9	0.002828
1.550000E-9	0.003109
1.600000E-9	0.003109
1.650000E-9	0.003086
1.700000E-9	0.002961
1.750000E-9	0.003117
1.800000E-9	0.003039
1.850000E-9	0.003258
1.900000E-9	0.002992
1.950000E-9	0.003211
2.000000E-9	0.003156
2.050000E-9	0.003234
2.100000E-9	0.003273
2.150000E-9	0.003312
2.200000E-9	0.003344
2.250000E-9	0.003359
2.300000E-9	0.003359
2.350000E-9	0.003281
2.400000E-9	0.003484
2.450000E-9	0.003531
2.500000E-9	0.003523
2.550000E-9	0.003742
2.600000E-9	0.003773
2.650000E-9	0.003977
2.700000E-9	0.003867
2.750000E-9	0.004063
2.800000E-9	0.004219
2.850000E-9	0.004430
2.900000E-9	0.004289
2.950000E-9	0.004234
3.000000E-9	0.003984
3.050000E-9	0.004188
3.100000E-9	0.004172
3.150000E-9	0.004219
3.200000E-9	0.004172
3.250000E-9	0.004125
3.300000E-9	0.004086
3.350000E-9	0.004281
3.400000E-9	0.004297
3.450000E-9	0.004352
3.500000E-9	0.004195
3.550000E-9	0.004516
3.600000E-9	0.004633
3.650000E-9	0.004820
3.700000E-9	0.004719
3.750000E-9	0.004977
3.800000E-9	0.004953
3.850000E-9	0.005211
3.900000E-9	0.005359
3.950000E-9	0.005523
4.000000E-9	0.005992
4.050000E-9	0.005945
4.100000E-9	0.006344
4.150000E-9	0.006555
4.200000E-9	0.007133
4.250000E-9	0.007875
4.300000E-9	0.008352
4.350000E-9	0.009102
4.400000E-9	0.010094
4.450000E-9	0.011133
4.500000E-9	0.012398
4.550000E-9	0.013938
4.600000E-9	0.015555
4.650000E-9	0.017313
4.700000E-9	0.019055
4.750000E-9	0.020906
4.800000E-9	0.023023
4.850000E-9	0.025070
4.900000E-9	0.027227
4.950000E-9	0.029625
5.000000E-9	0.031992
5.050000E-9	0.034352
5.100000E-9	0.036687
5.150000E-9	0.038711
5.200000E-9	0.040727
5.250000E-9	0.042609
5.300000E-9	0.043766
5.350000E-9	0.045055
5.400000E-9	0.045867
5.450000E-9	0.046703
5.500000E-9	0.046867
5.550000E-9	0.047156
5.600000E-9	0.047008
5.650000E-9	0.046867
5.700000E-9	0.046266
5.750000E-9	0.045508
5.800000E-9	0.043945
5.850000E-9	0.042656
5.900000E-9	0.040594
5.950000E-9	0.038383
6.000000E-9	0.035766
6.050000E-9	0.033344
6.100000E-9	0.030852
6.150000E-9	0.028969
6.200000E-9	0.027117
6.250000E-9	0.025781
6.300000E-9	0.024961
6.350000E-9	0.024734
6.400000E-9	0.024836
6.450000E-9	0.025398
6.500000E-9	0.026172
6.550000E-9	0.027039
6.600000E-9	0.027945
6.650000E-9	0.028828
6.700000E-9	0.029781
6.750000E-9	0.030312
6.800000E-9	0.030719
6.850000E-9	0.030859
6.900000E-9	0.030648
6.950000E-9	0.030539
7.000000E-9	0.030023
7.050000E-9	0.029320
7.100000E-9	0.028391
7.150000E-9	0.027008
7.200000E-9	0.025742
7.250000E-9	0.024203
7.300000E-9	0.022852
7.350000E-9	0.021461
7.400000E-9	0.019914
7.450000E-9	0.018656
7.500000E-9	0.017672
7.550000E-9	0.016828
7.600000E-9	0.016102
7.650000E-9	0.015859
7.700000E-9	0.015680
7.750000E-9	0.016008
7.800000E-9	0.016336
7.850000E-9	0.017242
7.900000E-9	0.017938
7.950000E-9	0.019141
8.000000E-9	0.019664
8.050000E-9	0.020773
8.100000E-9	0.021617
8.150000E-9	0.022422
8.200000E-9	0.022484
8.250000E-9	0.022758
8.300000E-9	0.022562
8.350000E-9	0.022047
8.400000E-9	0.021375
8.450000E-9	0.020367
8.500000E-9	0.019062
8.550000E-9	0.018070
8.600000E-9	0.016641
8.650000E-9	0.015461
8.700000E-9	0.014078
8.750000E-9	0.012992
8.800000E-9	0.011938
8.850000E-9	0.011359
8.900000E-9	0.010789
8.950000E-9	0.010750
9.000000E-9	0.010625
9.050000E-9	0.010938
9.100000E-9	0.011273
9.150000E-9	0.012023
9.200000E-9	0.012508
9.250000E-9	0.013250
9.300000E-9	0.014031
9.350000E-9	0.014977
9.400000E-9	0.015523
9.450000E-9	0.015961
9.500000E-9	0.016438
9.550000E-9	0.016578
9.600000E-9	0.016422
9.650000E-9	0.016328
9.700000E-9	0.015852
9.750000E-9	0.015250
9.800000E-9	0.014453
9.850000E-9	0.013594
9.900000E-9	0.012500
9.950000E-9	0.011586
1.000000E-8	0.010633
1.005000E-8	0.009773
1.010000E-8	0.008984
1.015000E-8	0.008203
1.020000E-8	0.007617
1.025000E-8	0.007414
1.030000E-8	0.007227
1.035000E-8	0.007352
1.040000E-8	0.007523
1.045000E-8	0.008156
1.050000E-8	0.008594
1.055000E-8	0.009500
1.060000E-8	0.010117
1.065000E-8	0.010688
1.070000E-8	0.011539
1.075000E-8	0.012352
1.080000E-8	0.013039
1.085000E-8	0.013445
1.090000E-8	0.013570
1.095000E-8	0.013562
1.100000E-8	0.013406
1.105000E-8	0.012961
1.110000E-8	0.012320
1.115000E-8	0.011594
1.120000E-8	0.010813
1.125000E-8	0.009883
1.130000E-8	0.008688
1.135000E-8	0.007781
1.140000E-8	0.006922
1.145000E-8	0.006102
1.150000E-8	0.005305
1.155000E-8	0.005031
1.160000E-8	0.004617
1.165000E-8	0.004719
1.170000E-8	0.004484
1.175000E-8	0.005078
1.180000E-8	0.005445
1.185000E-8	0.006297
1.190000E-8	0.006891
1.195000E-8	0.007789
1.200000E-8	0.008148
1.205000E-8	0.009164
1.210000E-8	0.009727
1.215000E-8	0.010375
1.220000E-8	0.010734
1.225000E-8	0.010891
1.230000E-8	0.011008
1.235000E-8	0.010828
1.240000E-8	0.010180
1.245000E-8	0.009547
1.250000E-8	0.008852
1.255000E-8	0.008047
1.260000E-8	0.007313
1.265000E-8	0.006234
1.270000E-8	0.005250
1.275000E-8	0.004445
1.280000E-8	0.003586
1.285000E-8	0.003055
1.290000E-8	0.002781
1.295000E-8	0.002641
1.300000E-8	0.002531
1.305000E-8	0.003211
1.310000E-8	0.003664
1.315000E-8	0.004469
1.320000E-8	0.005086
1.325000E-8	0.006164
1.330000E-8	0.006828
1.335000E-8	0.007867
1.340000E-8	0.008813
1.345000E-8	0.009570
1.350000E-8	0.010383
1.355000E-8	0.010547
1.360000E-8	0.010336
1.365000E-8	0.010313
1.370000E-8	0.009664
1.375000E-8	0.009094
1.380000E-8	0.008109
1.385000E-8	0.007375
1.390000E-8	0.006430
1.395000E-8	0.005680
1.400000E-8	0.004500
1.405000E-8	0.003688
1.410000E-8	0.002688
1.415000E-8	0.002164
1.420000E-8	0.001563
1.425000E-8	0.001414
1.430000E-8	0.001055
1.435000E-8	0.001398
1.440000E-8	0.001930
1.445000E-8	0.002633
1.450000E-8	0.003320
1.455000E-8	0.004328
1.460000E-8	0.005328
1.465000E-8	0.006344
1.470000E-8	0.007297
1.475000E-8	0.007961
1.480000E-8	0.008414
1.485000E-8	0.009109
1.490000E-8	0.009008
1.495000E-8	0.008797
1.500000E-8	0.008313
1.505000E-8	0.007727
1.510000E-8	0.006852
1.515000E-8	0.006141
1.520000E-8	0.004938
1.525000E-8	0.003984
1.530000E-8	0.002859
1.535000E-8	0.002055
1.540000E-8	0.001219
1.545000E-8	0.000813
1.550000E-8	0.000430
1.555000E-8	0.000430
1.560000E-8	0.000359
1.565000E-8	0.001000
1.570000E-8	0.001180
1.575000E-8	0.001953
1.580000E-8	0.002672
1.585000E-8	0.003734
1.590000E-8	0.004367
1.595000E-8	0.005289
1.600000E-8	0.006266
1.605000E-8	0.007094
1.610000E-8	0.007664
1.615000E-8	0.008203
1.620000E-8	0.008266
1.625000E-8	0.008289
1.630000E-8	0.007922
1.635000E-8	0.007391
1.640000E-8	0.006547
1.645000E-8	0.005820
1.650000E-8	0.004750
1.655000E-8	0.003734
1.660000E-8	0.002828
1.665000E-8	0.001781
1.670000E-8	0.001031
1.675000E-8	0.000492
1.680000E-8	6.250000E-5
1.685000E-8	1.562500E-5
1.690000E-8	-2.343750E-5
1.695000E-8	0.000352
1.700000E-8	0.000813
1.705000E-8	0.001711
1.710000E-8	0.002359
1.715000E-8	0.003383
1.720000E-8	0.004359
1.725000E-8	0.005148
1.730000E-8	0.005766
1.735000E-8	0.006445
1.740000E-8	0.007125
1.745000E-8	0.007422
1.750000E-8	0.007297
1.755000E-8	0.007227
1.760000E-8	0.006945
1.765000E-8	0.006391
1.770000E-8	0.005687
1.775000E-8	0.004875
1.780000E-8	0.004109
1.785000E-8	0.003211
1.790000E-8	0.002273
1.795000E-8	0.001594
1.800000E-8	0.000945
1.805000E-8	0.000266
1.810000E-8	-0.000211
1.815000E-8	-0.000398
1.820000E-8	-0.000398
1.825000E-8	-0.000195
1.830000E-8	0.000172
1.835000E-8	0.000781
1.840000E-8	0.001492
1.845000E-8	0.002398
1.850000E-8	0.003047
1.855000E-8	0.004258
1.860000E-8	0.005039
1.865000E-8	0.005461
1.870000E-8	0.006016
1.875000E-8	0.006562
1.880000E-8	0.006609
1.885000E-8	0.006930
1.890000E-8	0.006664
1.895000E-8	0.006273
1.900000E-8	0.005734
1.905000E-8	0.005055
1.910000E-8	0.004203
1.915000E-8	0.003172
1.920000E-8	0.002172
1.925000E-8	0.001219
1.930000E-8	0.000617
1.935000E-8	3.125000E-5
1.940000E-8	-0.000422
1.945000E-8	-0.000281
1.950000E-8	-0.000344
1.955000E-8	-0.000211
1.960000E-8	4.687500E-5
1.965000E-8	0.000641
1.970000E-8	0.001414
1.975000E-8	0.002305
1.980000E-8	0.003164
1.985000E-8	0.004242
1.990000E-8	0.004602
1.995000E-8	0.005492
2.000000E-8	0.005891
2.005000E-8	0.006508
2.010000E-8	0.006609
2.015000E-8	0.006797
2.020000E-8	0.006539
2.025000E-8	0.006336
2.030000E-8	0.005531
2.035000E-8	0.004836
2.040000E-8	0.003781
2.045000E-8	0.003164
2.050000E-8	0.002312
2.055000E-8	0.001578
2.060000E-8	0.000719
2.065000E-8	0.000133
2.070000E-8	-0.000289
2.075000E-8	-0.000680
2.080000E-8	-0.000750
2.085000E-8	-0.000609
2.090000E-8	-0.000234
2.095000E-8	0.000133
2.100000E-8	0.000625
2.105000E-8	0.001297
2.110000E-8	0.001859
2.115000E-8	0.002563
2.120000E-8	0.003250
2.125000E-8	0.004094
2.130000E-8	0.004687
2.135000E-8	0.005391
2.140000E-8	0.005703
2.145000E-8	0.006094
2.150000E-8	0.005867
2.155000E-8	0.005852
2.160000E-8	0.005492
2.165000E-8	0.005000
2.170000E-8	0.004227
2.175000E-8	0.003531
2.180000E-8	0.002703
2.185000E-8	0.001930
2.190000E-8	0.001242
2.195000E-8	0.000805
2.200000E-8	0.000156
2.205000E-8	4.687500E-5
2.210000E-8	-0.000164
2.215000E-8	-1.562500E-5
2.220000E-8	0.000172
2.225000E-8	0.000453
2.230000E-8	0.000766
2.235000E-8	0.001508
2.240000E-8	0.002094
2.245000E-8	0.003016
2.250000E-8	0.003648
2.255000E-8	0.004406
2.260000E-8	0.004742
2.265000E-8	0.005406
2.270000E-8	0.005578
2.275000E-8	0.005961
2.280000E-8	0.006109
2.285000E-8	0.006086
2.290000E-8	0.005648
2.295000E-8	0.005195
2.300000E-8	0.004508
2.305000E-8	0.003703
2.310000E-8	0.003102
2.315000E-8	0.002461
2.320000E-8	0.001469
2.325000E-8	0.000680
2.330000E-8	7.031250E-5
2.335000E-8	-0.000352
2.340000E-8	-0.000719
2.345000E-8	-0.000758
2.350000E-8	-0.000469
2.355000E-8	-0.000250
2.360000E-8	4.687500E-5
2.365000E-8	0.000703
2.370000E-8	0.001203
2.375000E-8	0.002258
2.380000E-8	0.002938
2.385000E-8	0.003805
2.390000E-8	0.004492
2.395000E-8	0.005203
2.400000E-8	0.005531
2.405000E-8	0.005633
2.410000E-8	0.005414
2.415000E-8	0.005359
2.420000E-8	0.005117
2.425000E-8	0.004750
2.430000E-8	0.004203
2.435000E-8	0.003484
2.440000E-8	0.002961
2.445000E-8	0.002180
2.450000E-8	0.001328
2.455000E-8	0.000719
2.460000E-8	-0.000258
2.465000E-8	-0.000695
2.470000E-8	-0.000992
2.475000E-8	-0.000930
2.480000E-8	-0.000773
2.485000E-8	-0.000422
2.490000E-8	-5.468750E-5
2.495000E-8	0.000508
2.500000E-8	0.001211
2.505000E-8	0.002141
2.510000E-8	0.002945
2.515000E-8	0.003867
2.520000E-8	0.004445
2.525000E-8	0.005094
2.530000E-8	0.005438
2.535000E-8	0.005727
2.540000E-8	0.005766
2.545000E-8	0.005828
2.550000E-8	0.005125
2.555000E-8	0.004945
2.560000E-8	0.004188
2.565000E-8	0.003414
2.570000E-8	0.002789
2.575000E-8	0.002109
2.580000E-8	0.001367
2.585000E-8	0.000758
2.590000E-8	0.000281
2.595000E-8	-7.812500E-6
2.600000E-8	-0.000148
2.605000E-8	-0.000305
2.610000E-8	-0.000313
2.615000E-8	-0.000203
2.620000E-8	0.000227
2.625000E-8	0.001063
2.630000E-8	0.001586
2.635000E-8	0.002414
2.640000E-8	0.003133
2.645000E-8	0.003734
2.650000E-8	0.004477
2.655000E-8	0.005063
2.660000E-8	0.005562
2.665000E-8	0.005828
2.670000E-8	0.006086
2.675000E-8	0.005930
2.680000E-8	0.005570
2.685000E-8	0.005195
2.690000E-8	0.004398
2.695000E-8	0.003805
2.700000E-8	0.002703
2.705000E-8	0.001914
2.710000E-8	0.001094
2.715000E-8	0.000375
2.720000E-8	-7.812500E-5
2.725000E-8	-0.000453
2.730000E-8	-0.000766
2.735000E-8	-0.000695
2.740000E-8	-0.000703
2.745000E-8	-0.000375
2.750000E-8	7.031250E-5
2.755000E-8	0.000836
2.760000E-8	0.001422
2.765000E-8	0.002258
2.770000E-8	0.002852
2.775000E-8	0.003641
2.780000E-8	0.004258
2.785000E-8	0.004820
2.790000E-8	0.005172
2.795000E-8	0.005313
2.800000E-8	0.005344
2.805000E-8	0.005250
2.810000E-8	0.004914
2.815000E-8	0.004727
2.820000E-8	0.004016
2.825000E-8	0.003617
2.830000E-8	0.002922
2.835000E-8	0.002250
2.840000E-8	0.001242
2.845000E-8	0.000641
2.850000E-8	-6.250000E-5
2.855000E-8	-0.000359
2.860000E-8	-0.000430
2.865000E-8	-0.000352
2.870000E-8	-0.000367
2.875000E-8	-9.375000E-5
2.880000E-8	0.000391
2.885000E-8	0.000867
2.890000E-8	0.001406
2.895000E-8	0.002055
2.900000E-8	0.002703
2.905000E-8	0.003430
2.910000E-8	0.003977
2.915000E-8	0.004344
2.920000E-8	0.004766
2.925000E-8	0.005289
2.930000E-8	0.005211
2.935000E-8	0.005391
2.940000E-8	0.004938
2.945000E-8	0.004602
2.950000E-8	0.004117
2.955000E-8	0.003641
2.960000E-8	0.002938
2.965000E-8	0.002305
2.970000E-8	0.001414
2.975000E-8	0.001039
2.980000E-8	0.000414
2.985000E-8	-1.562500E-5
2.990000E-8	-0.000180
2.995000E-8	-0.000188
3.000000E-8	-9.375000E-5
3.005000E-8	0.000164
3.010000E-8	6.250000E-5
3.015000E-8	0.000570
3.020000E-8	0.000914
3.025000E-8	0.001672
3.030000E-8	0.002352
3.035000E-8	0.002852
3.040000E-8	0.003461
3.045000E-8	0.003836
3.050000E-8	0.004695
3.055000E-8	0.004891
3.060000E-8	0.004836
3.065000E-8	0.004938
3.070000E-8	0.004844
3.075000E-8	0.004539
3.080000E-8	0.004195
3.085000E-8	0.003797
3.090000E-8	0.003055
3.095000E-8	0.002508
3.100000E-8	0.002148
3.105000E-8	0.001539
3.110000E-8	0.000828
3.115000E-8	0.000539
3.120000E-8	0.000375
3.125000E-8	0.000383
3.130000E-8	0.000328
3.135000E-8	0.000281
3.140000E-8	0.000500
3.145000E-8	0.001039
3.150000E-8	0.001148
3.155000E-8	0.001766
3.160000E-8	0.002312
3.165000E-8	0.002945
3.170000E-8	0.003242
3.175000E-8	0.003789
3.180000E-8	0.004359
3.185000E-8	0.004547
3.190000E-8	0.004648
3.195000E-8	0.005000
3.200000E-8	0.004789
3.205000E-8	0.004695
3.210000E-8	0.004297
3.215000E-8	0.004039
3.220000E-8	0.003320
3.225000E-8	0.003047
3.230000E-8	0.002180
3.235000E-8	0.001461
3.240000E-8	0.000859
3.245000E-8	0.000656
3.250000E-8	0.000242
3.255000E-8	-5.468750E-5
3.260000E-8	-0.000164
3.265000E-8	-0.000133
3.270000E-8	7.812500E-6
3.275000E-8	0.000453
3.280000E-8	0.000891
3.285000E-8	0.001617
3.290000E-8	0.001844
3.295000E-8	0.002711
3.300000E-8	0.003078
3.305000E-8	0.003648
3.310000E-8	0.004109
3.315000E-8	0.004672
3.320000E-8	0.004828
3.325000E-8	0.005016
3.330000E-8	0.004883
3.335000E-8	0.004906
3.340000E-8	0.004422
3.345000E-8	0.004109
3.350000E-8	0.003523
3.355000E-8	0.003203
3.360000E-8	0.002578
3.365000E-8	0.001953
3.370000E-8	0.001406
3.375000E-8	0.000969
3.380000E-8	0.000680
3.385000E-8	0.000453
3.390000E-8	0.000188
3.395000E-8	0.000164
3.400000E-8	0.000469
3.405000E-8	0.000891
3.410000E-8	0.000992
3.415000E-8	0.001469
3.420000E-8	0.001805
3.425000E-8	0.002539
3.430000E-8	0.002906
3.435000E-8	0.003445
3.440000E-8	0.003844
3.445000E-8	0.004313
3.450000E-8	0.004602
3.455000E-8	0.004687
3.460000E-8	0.004562
3.465000E-8	0.004398
3.470000E-8	0.004117
3.475000E-8	0.004063
3.480000E-8	0.003547
3.485000E-8	0.003125
3.490000E-8	0.002555
3.495000E-8	0.002008
3.500000E-8	0.001352
3.505000E-8	0.001086
3.510000E-8	0.000555
3.515000E-8	0.000359
3.520000E-8	0.000219
3.525000E-8	0.000305
3.530000E-8	0.000570
3.535000E-8	0.000930
3.540000E-8	0.000867
3.545000E-8	0.001516
3.550000E-8	0.001922
3.555000E-8	0.002664
3.560000E-8	0.003250
3.565000E-8	0.003875
3.570000E-8	0.004562
3.575000E-8	0.004977
3.580000E-8	0.005281
3.585000E-8	0.005383
3.590000E-8	0.005203
3.595000E-8	0.005086
3.600000E-8	0.004766
3.605000E-8	0.004430
3.610000E-8	0.003938
3.615000E-8	0.003484
3.620000E-8	0.002625
3.625000E-8	0.002164
3.630000E-8	0.001555
3.635000E-8	0.001164
3.640000E-8	0.000875
3.645000E-8	0.000797
3.650000E-8	0.000547
3.655000E-8	0.000711
3.660000E-8	0.000859
3.665000E-8	0.000969
3.670000E-8	0.001063
3.675000E-8	0.001625
3.680000E-8	0.002094
3.685000E-8	0.002523
3.690000E-8	0.002891
3.695000E-8	0.003383
3.700000E-8	0.003789
3.705000E-8	0.004484
3.710000E-8	0.004797
3.715000E-8	0.004992
3.720000E-8	0.004914
3.725000E-8	0.004766
3.730000E-8	0.004313
3.735000E-8	0.004117
3.740000E-8	0.003563
3.745000E-8	0.003117
3.750000E-8	0.002477
3.755000E-8	0.002078
3.760000E-8	0.001594
3.765000E-8	0.001133
3.770000E-8	0.000469
3.775000E-8	0.000328
3.780000E-8	5.468750E-5
3.785000E-8	1.562500E-5
3.790000E-8	1.562500E-5
3.795000E-8	0.000391
3.800000E-8	0.000609
3.805000E-8	0.001141
3.810000E-8	0.001641
3.815000E-8	0.002492
3.820000E-8	0.002844
3.825000E-8	0.003414
3.830000E-8	0.003836
3.835000E-8	0.003945
3.840000E-8	0.003992
3.845000E-8	0.004297
3.850000E-8	0.004203
3.855000E-8	0.004219
3.860000E-8	0.004047
3.865000E-8	0.003930
3.870000E-8	0.003609
3.875000E-8	0.003141
3.880000E-8	0.002617
3.885000E-8	0.002164
3.890000E-8	0.001586
3.895000E-8	0.001344
3.900000E-8	0.000852
3.905000E-8	0.000492
3.910000E-8	0.000133
3.915000E-8	0.000383
3.920000E-8	0.000523
3.925000E-8	0.000641
3.930000E-8	0.000977
3.935000E-8	0.001234
3.940000E-8	0.001531
3.945000E-8	0.002297
3.950000E-8	0.002703
3.955000E-8	0.003125
3.960000E-8	0.003375
3.965000E-8	0.003695
3.970000E-8	0.003930
3.975000E-8	0.004133
3.980000E-8	0.004172
3.985000E-8	0.004156
3.990000E-8	0.003922
3.995000E-8	0.003688
4.000000E-8	0.003297
4.005000E-8	0.002922
4.010000E-8	0.002586
4.015000E-8	0.002203
4.020000E-8	0.001555
4.025000E-8	0.001484
4.030000E-8	0.001133
4.035000E-8	0.000719
4.040000E-8	0.000453
4.045000E-8	0.000492
4.050000E-8	0.000523
4.055000E-8	0.000750
4.060000E-8	0.000750
4.065000E-8	0.001367
4.070000E-8	0.001594
4.075000E-8	0.002219
4.080000E-8	0.002563
4.085000E-8	0.003234
4.090000E-8	0.003422
4.095000E-8	0.003773
4.100000E-8	0.004242
4.105000E-8	0.004703
4.110000E-8	0.004672
4.115000E-8	0.004602
4.120000E-8	0.004055
4.125000E-8	0.003938
4.130000E-8	0.003492
4.135000E-8	0.003320
4.140000E-8	0.002773
4.145000E-8	0.002500
4.150000E-8	0.002125
4.155000E-8	0.001758
4.160000E-8	0.001563
4.165000E-8	0.001352
4.170000E-8	0.000969
4.175000E-8	0.000828
4.180000E-8	0.000898
4.185000E-8	0.000937
4.190000E-8	0.001203
4.195000E-8	0.001344
4.200000E-8	0.001695
4.205000E-8	0.002164
4.210000E-8	0.002156
4.215000E-8	0.002469
4.220000E-8	0.002836
4.225000E-8	0.003406
4.230000E-8	0.003836
4.235000E-8	0.003953
4.240000E-8	0.004000
4.245000E-8	0.004141
4.250000E-8	0.004031
4.255000E-8	0.003586
4.260000E-8	0.003398
4.265000E-8	0.003273
4.270000E-8	0.002922
4.275000E-8	0.002437
4.280000E-8	0.001937
4.285000E-8	0.001375
4.290000E-8	0.000930
4.295000E-8	0.000672
4.300000E-8	0.000500
4.305000E-8	0.000469
4.310000E-8	0.000445
4.315000E-8	0.000656
4.320000E-8	0.000813
4.325000E-8	0.001195
4.330000E-8	0.001508
4.335000E-8	0.002086
4.340000E-8	0.002594
4.345000E-8	0.002859
4.350000E-8	0.003031
4.355000E-8	0.003281
4.360000E-8	0.003734
4.365000E-8	0.004000
4.370000E-8	0.004016
4.375000E-8	0.004180
4.380000E-8	0.004086
4.385000E-8	0.004141
4.390000E-8	0.003727
4.395000E-8	0.003508
4.400000E-8	0.003133
4.405000E-8	0.003016
4.410000E-8	0.002508
4.415000E-8	0.002266
4.420000E-8	0.001844
4.425000E-8	0.001563
4.430000E-8	0.001234
4.435000E-8	0.001086
4.440000E-8	0.001094
4.445000E-8	0.001133
4.450000E-8	0.001055
4.455000E-8	0.001070
4.460000E-8	0.001266
4.465000E-8	0.001773
4.470000E-8	0.002023
4.475000E-8	0.002477
4.480000E-8	0.002711
4.485000E-8	0.003008
4.490000E-8	0.003141
4.495000E-8	0.003492
4.500000E-8	0.003789
4.505000E-8	0.003945
4.510000E-8	0.003867
4.515000E-8	0.003836
4.520000E-8	0.003563
4.525000E-8	0.003406
4.530000E-8	0.003078
4.535000E-8	0.002633
4.540000E-8	0.002063
4.545000E-8	0.001781
4.550000E-8	0.001531
4.555000E-8	0.001187
4.560000E-8	0.000891
4.565000E-8	0.000883
4.570000E-8	0.000539
4.575000E-8	0.000500
4.580000E-8	0.000633
4.585000E-8	0.000906
4.590000E-8	0.001227
4.595000E-8	0.001539
4.600000E-8	0.002000
4.605000E-8	0.002609
4.610000E-8	0.002758
4.615000E-8	0.003273
4.620000E-8	0.003492
4.625000E-8	0.003664
4.630000E-8	0.003789
4.635000E-8	0.003930
4.640000E-8	0.003906
4.645000E-8	0.003633
4.650000E-8	0.003398
4.655000E-8	0.003422
4.660000E-8	0.003109
4.665000E-8	0.002664
4.670000E-8	0.002453
4.675000E-8	0.002031
4.680000E-8	0.001727
4.685000E-8	0.001508
4.690000E-8	0.001242
4.695000E-8	0.001164
4.700000E-8	0.000789
4.705000E-8	0.000781
4.710000E-8	0.000648
4.715000E-8	0.000906
4.720000E-8	0.001047
4.725000E-8	0.001469
4.730000E-8	0.001766
4.735000E-8	0.002414
4.740000E-8	0.002742
4.745000E-8	0.003000
4.750000E-8	0.003367
4.755000E-8	0.003477
4.760000E-8	0.003742
4.765000E-8	0.003859
4.770000E-8	0.003711
4.775000E-8	0.003469
4.780000E-8	0.003211
4.785000E-8	0.002930
4.790000E-8	0.002484
4.795000E-8	0.002234
4.800000E-8	0.001867
4.805000E-8	0.001758
4.810000E-8	0.001352
4.815000E-8	0.001148
4.820000E-8	0.000969
4.825000E-8	0.001016
4.830000E-8	0.000828
4.835000E-8	0.001063
4.840000E-8	0.000914
4.845000E-8	0.001180
4.850000E-8	0.001383
4.855000E-8	0.001625
4.860000E-8	0.001836
4.865000E-8	0.002250
4.870000E-8	0.002484
4.875000E-8	0.003000
4.880000E-8	0.003125
4.885000E-8	0.003336
4.890000E-8	0.003375
4.895000E-8	0.003609
4.900000E-8	0.003695
4.905000E-8	0.003609
4.910000E-8	0.003414
4.915000E-8	0.003297
4.920000E-8	0.002859
4.925000E-8	0.002719
4.930000E-8	0.002375
4.935000E-8	0.002336
4.940000E-8	0.001945
4.945000E-8	0.001891
4.950000E-8	0.001656
4.955000E-8	0.001563
4.960000E-8	0.001453
4.965000E-8	0.001445
4.970000E-8	0.001625
4.975000E-8	0.001727
4.980000E-8	0.001555
4.985000E-8	0.001906
4.990000E-8	0.002188
4.995000E-8	0.002391
5.000000E-8	0.002547
5.005000E-8	0.003063
5.010000E-8	0.003242
5.015000E-8	0.003391
5.020000E-8	0.003578
5.025000E-8	0.003719
5.030000E-8	0.003711
5.035000E-8	0.003898
5.040000E-8	0.003586
5.045000E-8	0.003492
5.050000E-8	0.003008
5.055000E-8	0.002875
5.060000E-8	0.002242
5.065000E-8	0.002203
5.070000E-8	0.001828
5.075000E-8	0.001570
5.080000E-8	0.001172
5.085000E-8	0.000961
5.090000E-8	0.000813
5.095000E-8	0.000805
5.100000E-8	0.000742
5.105000E-8	0.001008
5.110000E-8	0.001063
5.115000E-8	0.001602
5.120000E-8	0.001719
5.125000E-8	0.002047
5.130000E-8	0.002180
5.135000E-8	0.002539
5.140000E-8	0.002812
5.145000E-8	0.003281
5.150000E-8	0.003320
5.155000E-8	0.003453
5.160000E-8	0.003594
5.165000E-8	0.003680
5.170000E-8	0.003570
5.175000E-8	0.003688
5.180000E-8	0.003547
5.185000E-8	0.003070
5.190000E-8	0.002859
5.195000E-8	0.002578
5.200000E-8	0.002148
5.205000E-8	0.001656
5.210000E-8	0.001391
5.215000E-8	0.001305
5.220000E-8	0.001023
5.225000E-8	0.001133
5.230000E-8	0.001156
5.235000E-8	0.001172
5.240000E-8	0.001359
5.245000E-8	0.001563
5.250000E-8	0.001813
5.255000E-8	0.002109
5.260000E-8	0.002242
5.265000E-8	0.002516
5.270000E-8	0.002500
5.275000E-8	0.003008
5.280000E-8	0.003430
5.285000E-8	0.003492
5.290000E-8	0.003469
5.295000E-8	0.003758
5.300000E-8	0.003383
5.305000E-8	0.003258
5.310000E-8	0.003000
5.315000E-8	0.002922
5.320000E-8	0.002586
5.325000E-8	0.002578
5.330000E-8	0.002141
5.335000E-8	0.001969
5.340000E-8	0.001664
5.345000E-8	0.001477
5.350000E-8	0.001250
5.355000E-8	0.001172
5.360000E-8	0.001203
5.365000E-8	0.001055
5.370000E-8	0.000977
5.375000E-8	0.001352
5.380000E-8	0.001766
5.385000E-8	0.002039
5.390000E-8	0.002359
5.395000E-8	0.002680
5.400000E-8	0.002688
5.405000E-8	0.003023
5.410000E-8	0.003039
5.415000E-8	0.003242
5.420000E-8	0.003414
5.425000E-8	0.003453
5.430000E-8	0.003461
5.435000E-8	0.003570
5.440000E-8	0.003359
5.445000E-8	0.003195
5.450000E-8	0.003039
5.455000E-8	0.002727
5.460000E-8	0.002133
5.465000E-8	0.001742
5.470000E-8	0.001719
5.475000E-8	0.001422
5.480000E-8	0.001055
5.485000E-8	0.000953
5.490000E-8	0.000844
5.495000E-8	0.001164
5.500000E-8	0.001172
5.505000E-8	0.001500
5.510000E-8	0.001578
5.515000E-8	0.001945
5.520000E-8	0.002133
5.525000E-8	0.002672
5.530000E-8	0.002781
5.535000E-8	0.003008
5.540000E-8	0.003156
5.545000E-8	0.003383
5.550000E-8	0.003195
5.555000E-8	0.003227
5.560000E-8	0.003297
5.565000E-8	0.003102
5.570000E-8	0.002867
5.575000E-8	0.002547
5.580000E-8	0.002297
5.585000E-8	0.002039
5.590000E-8	0.001625
5.595000E-8	0.001727
5.600000E-8	0.001359
5.605000E-8	0.001328
5.610000E-8	0.001125
5.615000E-8	0.001234
5.620000E-8	0.001203
5.625000E-8	0.001477
5.630000E-8	0.001703
5.635000E-8	0.001844
5.640000E-8	0.001992
5.645000E-8	0.002117
5.650000E-8	0.002180
5.655000E-8	0.002578
5.660000E-8	0.002445
5.665000E-8	0.002766
5.670000E-8	0.002867
5.675000E-8	0.003055
5.680000E-8	0.003320
5.685000E-8	0.003508
5.690000E-8	0.003328
5.695000E-8	0.003359
5.700000E-8	0.003109
5.705000E-8	0.003039
5.710000E-8	0.002797
5.715000E-8	0.002672
5.720000E-8	0.002461
5.725000E-8	0.002063
5.730000E-8	0.001766
5.735000E-8	0.001836
5.740000E-8	0.001375
5.745000E-8	0.001539
5.750000E-8	0.001500
5.755000E-8	0.001406
5.760000E-8	0.001531
5.765000E-8	0.001680
5.770000E-8	0.001773
5.775000E-8	0.002242
5.780000E-8	0.002156
5.785000E-8	0.002516
5.790000E-8	0.002625
5.795000E-8	0.003047
5.800000E-8	0.003188
5.805000E-8	0.003305
5.810000E-8	0.003273
5.815000E-8	0.003414
5.820000E-8	0.003328
5.825000E-8	0.003273
5.830000E-8	0.003094
5.835000E-8	0.002781
5.840000E-8	0.002563
5.845000E-8	0.002523
5.850000E-8	0.002188
5.855000E-8	0.002070
5.860000E-8	0.001875
5.865000E-8	0.001836
5.870000E-8	0.001570
5.875000E-8	0.001539
5.880000E-8	0.001430
5.885000E-8	0.001445
5.890000E-8	0.001461
5.895000E-8	0.001898
5.900000E-8	0.001828
5.905000E-8	0.002164
5.910000E-8	0.001914
5.915000E-8	0.002164
5.920000E-8	0.002133
5.925000E-8	0.002711
5.930000E-8	0.002633
5.935000E-8	0.002922
5.940000E-8	0.002812
5.945000E-8	0.002984
5.950000E-8	0.003047
5.955000E-8	0.003289
5.960000E-8	0.003016
5.965000E-8	0.002977
5.970000E-8	0.002750
5.975000E-8	0.002477
5.980000E-8	0.002320
5.985000E-8	0.002258
5.990000E-8	0.001977
5.995000E-8	0.001930
6.000000E-8	0.001617
6.005000E-8	0.001508
6.010000E-8	0.001297
6.015000E-8	0.001586
6.020000E-8	0.001648
6.025000E-8	0.001898
6.030000E-8	0.001836
6.035000E-8	0.002109
6.040000E-8	0.002195
6.045000E-8	0.002484
6.050000E-8	0.002617
6.055000E-8	0.003063
6.060000E-8	0.003039
6.065000E-8	0.003555
6.070000E-8	0.003445
6.075000E-8	0.003883
6.080000E-8	0.003531
6.085000E-8	0.003547
6.090000E-8	0.003367
6.095000E-8	0.003328
6.100000E-8	0.003047
6.105000E-8	0.002930
6.110000E-8	0.002766
6.115000E-8	0.002500
6.120000E-8	0.002250
6.125000E-8	0.001945
6.130000E-8	0.001680
6.135000E-8	0.001664
6.140000E-8	0.001680
6.145000E-8	0.001453
6.150000E-8	0.001594
6.155000E-8	0.001719
6.160000E-8	0.001672
6.165000E-8	0.001750
6.170000E-8	0.001883
6.175000E-8	0.002250
6.180000E-8	0.002352
6.185000E-8	0.002594
6.190000E-8	0.002586
6.195000E-8	0.002656
6.200000E-8	0.002719
6.205000E-8	0.002789
6.210000E-8	0.003086
6.215000E-8	0.003125
6.220000E-8	0.003164
6.225000E-8	0.002891
6.230000E-8	0.002664
6.235000E-8	0.002594
6.240000E-8	0.002648
6.245000E-8	0.002406
6.250000E-8	0.002148
6.255000E-8	0.002094
6.260000E-8	0.001977
6.265000E-8	0.001883
6.270000E-8	0.001766
6.275000E-8	0.001641
6.280000E-8	0.001367
6.285000E-8	0.001625
6.290000E-8	0.001781
6.295000E-8	0.001945
6.300000E-8	0.002023
6.305000E-8	0.002273
6.310000E-8	0.002406
6.315000E-8	0.002906
6.320000E-8	0.002930
6.325000E-8	0.003219
6.330000E-8	0.003195
6.335000E-8	0.003328
6.340000E-8	0.003453
6.345000E-8	0.003430
6.350000E-8	0.003141
6.355000E-8	0.002984
6.360000E-8	0.002828
6.365000E-8	0.002484
6.370000E-8	0.002219
6.375000E-8	0.002203
6.380000E-8	0.001898
6.385000E-8	0.001961
6.390000E-8	0.001742
6.395000E-8	0.001758
6.400000E-8	0.001703
6.405000E-8	0.001828
6.410000E-8	0.001867
6.415000E-8	0.001773
6.420000E-8	0.001805
6.425000E-8	0.002102
6.430000E-8	0.002203
6.435000E-8	0.002289
6.440000E-8	0.002508
6.445000E-8	0.002477
6.450000E-8	0.002477
6.455000E-8	0.002594
6.460000E-8	0.002719
6.465000E-8	0.002828
6.470000E-8	0.002867
6.475000E-8	0.003000
6.480000E-8	0.002922
6.485000E-8	0.002906
6.490000E-8	0.002586
6.495000E-8	0.002641
6.500000E-8	0.002359
6.505000E-8	0.002289
6.510000E-8	0.001930
6.515000E-8	0.001711
6.520000E-8	0.001539
6.525000E-8	0.001656
6.530000E-8	0.001492
6.535000E-8	0.001523
6.540000E-8	0.001391
6.545000E-8	0.001500
6.550000E-8	0.001695
6.555000E-8	0.001773
6.560000E-8	0.001937
6.565000E-8	0.002000
6.570000E-8	0.001891
6.575000E-8	0.002148
6.580000E-8	0.002008
6.585000E-8	0.002281
6.590000E-8	0.002422
6.595000E-8	0.002641
6.600000E-8	0.002812
6.605000E-8	0.002992
6.610000E-8	0.003070
6.615000E-8	0.003086
6.620000E-8	0.003070
6.625000E-8	0.003031
6.630000E-8	0.002844
6.635000E-8	0.002844
6.640000E-8	0.002437
6.645000E-8	0.002266
6.650000E-8	0.002125
6.655000E-8	0.001906
6.660000E-8	0.001734
6.665000E-8	0.001609
6.670000E-8	0.001523
6.675000E-8	0.001687
6.680000E-8	0.001750
6.685000E-8	0.002023
6.690000E-8	0.002102
6.695000E-8	0.002445
6.700000E-8	0.002523
6.705000E-8	0.002797
6.710000E-8	0.002695
6.715000E-8	0.002977
6.720000E-8	0.002961
6.725000E-8	0.003172
6.730000E-8	0.003016
6.735000E-8	0.002992
6.740000E-8	0.002992
6.745000E-8	0.002773
6.750000E-8	0.002570
6.755000E-8	0.002773
6.760000E-8	0.002453
6.765000E-8	0.002555
6.770000E-8	0.002328
6.775000E-8	0.002086
6.780000E-8	0.001984
6.785000E-8	0.002016
6.790000E-8	0.001703
6.795000E-8	0.001633
6.800000E-8	0.001539
6.805000E-8	0.001484
6.810000E-8	0.001375
6.815000E-8	0.001484
6.820000E-8	0.001469
6.825000E-8	0.001742
6.830000E-8	0.001758
6.835000E-8	0.002273
6.840000E-8	0.002422
6.845000E-8	0.002500
6.850000E-8	0.002539
6.855000E-8	0.002672
6.860000E-8	0.002539
6.865000E-8	0.002742
6.870000E-8	0.002875
6.875000E-8	0.002797
6.880000E-8	0.002602
6.885000E-8	0.002766
6.890000E-8	0.002539
6.895000E-8	0.002578
6.900000E-8	0.002523
6.905000E-8	0.002484
6.910000E-8	0.002500
6.915000E-8	0.002352
6.920000E-8	0.002250
6.925000E-8	0.002141
6.930000E-8	0.001898
6.935000E-8	0.001937
6.940000E-8	0.001695
6.945000E-8	0.001789
6.950000E-8	0.001625
6.955000E-8	0.001984
6.960000E-8	0.001906
6.965000E-8	0.002484
6.970000E-8	0.002703
6.975000E-8	0.002867
6.980000E-8	0.002867
6.985000E-8	0.003180
6.990000E-8	0.003047
6.995000E-8	0.003320
7.000000E-8	0.003242
7.005000E-8	0.003242
7.010000E-8	0.003055
7.015000E-8	0.003211
7.020000E-8	0.002977
7.025000E-8	0.002875
7.030000E-8	0.002547
7.035000E-8	0.002477
7.040000E-8	0.002336
7.045000E-8	0.002359
7.050000E-8	0.002148
7.055000E-8	0.002156
7.060000E-8	0.001875
7.065000E-8	0.001867
7.070000E-8	0.001805
7.075000E-8	0.001906
7.080000E-8	0.001953
7.085000E-8	0.001945
7.090000E-8	0.002063
7.095000E-8	0.002281
7.100000E-8	0.002102
7.105000E-8	0.002398
7.110000E-8	0.002445
7.115000E-8	0.002664
7.120000E-8	0.002891
7.125000E-8	0.003000
7.130000E-8	0.003078
7.135000E-8	0.003109
7.140000E-8	0.003023
7.145000E-8	0.002930
7.150000E-8	0.002656
7.155000E-8	0.002383
7.160000E-8	0.002461
7.165000E-8	0.002367
7.170000E-8	0.002063
7.175000E-8	0.002180
7.180000E-8	0.002195
7.185000E-8	0.002531
7.190000E-8	0.002320
7.195000E-8	0.002305
7.200000E-8	0.002312
7.205000E-8	0.002195
7.210000E-8	0.002219
7.215000E-8	0.002391
7.220000E-8	0.002219
7.225000E-8	0.002500
7.230000E-8	0.002352
7.235000E-8	0.002641
7.240000E-8	0.002453
7.245000E-8	0.002633
7.250000E-8	0.002484
7.255000E-8	0.002563
7.260000E-8	0.002484
7.265000E-8	0.002688
7.270000E-8	0.002492
7.275000E-8	0.002617
7.280000E-8	0.002367
7.285000E-8	0.002398
7.290000E-8	0.002289
7.295000E-8	0.002312
7.300000E-8	0.002016
7.305000E-8	0.001953
7.310000E-8	0.001891
7.315000E-8	0.001875
7.320000E-8	0.001813
7.325000E-8	0.001914
7.330000E-8	0.001656
7.335000E-8	0.001937
7.340000E-8	0.002234
7.345000E-8	0.002375
7.350000E-8	0.002109
7.355000E-8	0.002344
7.360000E-8	0.002203
7.365000E-8	0.002125
7.370000E-8	0.002086
7.375000E-8	0.002344
7.380000E-8	0.002188
7.385000E-8	0.002563
7.390000E-8	0.002453
7.395000E-8	0.002609
7.400000E-8	0.002586
7.405000E-8	0.002828
7.410000E-8	0.002859
7.415000E-8	0.002719
7.420000E-8	0.002648
7.425000E-8	0.002648
7.430000E-8	0.002437
7.435000E-8	0.002570
7.440000E-8	0.002437
7.445000E-8	0.002461
7.450000E-8	0.002141
7.455000E-8	0.002164
7.460000E-8	0.002203
7.465000E-8	0.002141
7.470000E-8	0.002250
7.475000E-8	0.002094
7.480000E-8	0.002063
7.485000E-8	0.002359
7.490000E-8	0.002344
7.495000E-8	0.002406
7.500000E-8	0.002430
7.505000E-8	0.002570
7.510000E-8	0.002578
7.515000E-8	0.002781
7.520000E-8	0.002812
7.525000E-8	0.002914
7.530000E-8	0.002648
7.535000E-8	0.002875
7.540000E-8	0.002766
7.545000E-8	0.002891
7.550000E-8	0.002570
7.555000E-8	0.002516
7.560000E-8	0.001992
7.565000E-8	0.001875
7.570000E-8	0.001664
7.575000E-8	0.001609
7.580000E-8	0.001687
7.585000E-8	0.001813
7.590000E-8	0.001867
7.595000E-8	0.002039
7.600000E-8	0.001992
7.605000E-8	0.002070
7.610000E-8	0.002258
7.615000E-8	0.002328
7.620000E-8	0.002352
7.625000E-8	0.002445
7.630000E-8	0.002469
7.635000E-8	0.002516
7.640000E-8	0.002398
7.645000E-8	0.002422
7.650000E-8	0.002289
7.655000E-8	0.002750
7.660000E-8	0.002750
7.665000E-8	0.003016
7.670000E-8	0.002648
7.675000E-8	0.002875
7.680000E-8	0.002742
7.685000E-8	0.002594
7.690000E-8	0.002500
7.695000E-8	0.002320
7.700000E-8	0.002125
7.705000E-8	0.002070
7.710000E-8	0.002016
7.715000E-8	0.002031
7.720000E-8	0.001922
7.725000E-8	0.002008
7.730000E-8	0.001961
7.735000E-8	0.002109
7.740000E-8	0.002070
7.745000E-8	0.002102
7.750000E-8	0.001898
7.755000E-8	0.001852
7.760000E-8	0.002141
7.765000E-8	0.002461
7.770000E-8	0.002594
7.775000E-8	0.002742
7.780000E-8	0.002633
7.785000E-8	0.002914
7.790000E-8	0.002891
7.795000E-8	0.002875
7.800000E-8	0.002930
7.805000E-8	0.003078
7.810000E-8	0.002812
7.815000E-8	0.002812
7.820000E-8	0.002625
7.825000E-8	0.002695
7.830000E-8	0.002445
7.835000E-8	0.002484
7.840000E-8	0.002391
7.845000E-8	0.002453
7.850000E-8	0.002219
7.855000E-8	0.002188
7.860000E-8	0.002172
7.865000E-8	0.002266
7.870000E-8	0.002305
7.875000E-8	0.002633
7.880000E-8	0.002297
7.885000E-8	0.002500
7.890000E-8	0.002531
7.895000E-8	0.002719
7.900000E-8	0.002492
7.905000E-8	0.002500
7.910000E-8	0.002539
7.915000E-8	0.002625
7.920000E-8	0.002461
7.925000E-8	0.002430
7.930000E-8	0.002375
7.935000E-8	0.002383
7.940000E-8	0.002375
7.945000E-8	0.002578
7.950000E-8	0.002156
7.955000E-8	0.002219
7.960000E-8	0.002016
7.965000E-8	0.002141
7.970000E-8	0.002000
7.975000E-8	0.001977
7.980000E-8	0.002039
7.985000E-8	0.002016
7.990000E-8	0.002055
7.995000E-8	0.002031
8.000000E-8	0.001828
8.005000E-8	0.001977
8.010000E-8	0.002008
8.015000E-8	0.002422
8.020000E-8	0.002594
8.025000E-8	0.002641
8.030000E-8	0.002570
8.035000E-8	0.002648
8.040000E-8	0.002594
8.045000E-8	0.002656
8.050000E-8	0.002742
8.055000E-8	0.002781
8.060000E-8	0.002672
8.065000E-8	0.002758
8.070000E-8	0.002398
8.075000E-8	0.002445
8.080000E-8	0.002359
8.085000E-8	0.002516
8.090000E-8	0.002258
8.095000E-8	0.002492
8.100000E-8	0.002203
8.105000E-8	0.002258
8.110000E-8	0.002219
8.115000E-8	0.002375
8.120000E-8	0.002164
8.125000E-8	0.002242
8.130000E-8	0.002234
8.135000E-8	0.002242
8.140000E-8	0.002180
8.145000E-8	0.002336
8.150000E-8	0.002461
8.155000E-8	0.002531
8.160000E-8	0.002391
8.165000E-8	0.002617
8.170000E-8	0.002570
8.175000E-8	0.002898
8.180000E-8	0.002773
8.185000E-8	0.003023
8.190000E-8	0.002781
8.195000E-8	0.002852
8.200000E-8	0.002664
8.205000E-8	0.002602
8.210000E-8	0.002320
8.215000E-8	0.002445
8.220000E-8	0.002320
8.225000E-8	0.002305
8.230000E-8	0.002281
8.235000E-8	0.002266
8.240000E-8	0.002172
8.245000E-8	0.002422
8.250000E-8	0.002305
8.255000E-8	0.002508
8.260000E-8	0.002516
8.265000E-8	0.002750
8.270000E-8	0.002859
8.275000E-8	0.002812
8.280000E-8	0.002875
8.285000E-8	0.002719
8.290000E-8	0.002656
8.295000E-8	0.002703
8.300000E-8	0.002766
8.305000E-8	0.002797
8.310000E-8	0.002992
8.315000E-8	0.003148
8.320000E-8	0.003086
8.325000E-8	0.003039
8.330000E-8	0.002773
8.335000E-8	0.002922
8.340000E-8	0.002672
8.345000E-8	0.002578
8.350000E-8	0.002547
8.355000E-8	0.002477
8.360000E-8	0.002258
8.365000E-8	0.002148
8.370000E-8	0.002031
8.375000E-8	0.002008
8.380000E-8	0.001984
8.385000E-8	0.002000
8.390000E-8	0.001836
8.395000E-8	0.001953
8.400000E-8	0.001953
8.405000E-8	0.002227
8.410000E-8	0.002344
8.415000E-8	0.002625
8.420000E-8	0.002453
8.425000E-8	0.002555
8.430000E-8	0.002516
8.435000E-8	0.002617
8.440000E-8	0.002625
8.445000E-8	0.002719
8.450000E-8	0.002570
8.455000E-8	0.002680
8.460000E-8	0.002586
8.465000E-8	0.002617
8.470000E-8	0.002477
8.475000E-8	0.002609
8.480000E-8	0.002195
8.485000E-8	0.002383
8.490000E-8	0.002172
8.495000E-8	0.002172
8.500000E-8	0.001875
8.505000E-8	0.001813
8.510000E-8	0.001969
8.515000E-8	0.001969
8.520000E-8	0.001937
8.525000E-8	0.002180
8.530000E-8	0.002164
8.535000E-8	0.002500
8.540000E-8	0.002336
8.545000E-8	0.002398
8.550000E-8	0.002492
8.555000E-8	0.002484
8.560000E-8	0.002469
8.565000E-8	0.002461
8.570000E-8	0.002375
8.575000E-8	0.002500
8.580000E-8	0.002680
8.585000E-8	0.002609
8.590000E-8	0.002461
8.595000E-8	0.002617
8.600000E-8	0.002570
8.605000E-8	0.002391
8.610000E-8	0.002312
8.615000E-8	0.002328
8.620000E-8	0.002203
8.625000E-8	0.002148
8.630000E-8	0.002094
8.635000E-8	0.002070
8.640000E-8	0.001984
8.645000E-8	0.002180
8.650000E-8	0.002070
8.655000E-8	0.002305
8.660000E-8	0.002320
8.665000E-8	0.002539
8.670000E-8	0.002523
8.675000E-8	0.002789
8.680000E-8	0.002695
8.685000E-8	0.002781
8.690000E-8	0.002695
8.695000E-8	0.002852
8.700000E-8	0.002766
8.705000E-8	0.002727
8.710000E-8	0.002695
8.715000E-8	0.002891
8.720000E-8	0.002711
8.725000E-8	0.002516
8.730000E-8	0.002281
8.735000E-8	0.002406
8.740000E-8	0.002180
8.745000E-8	0.002375
8.750000E-8	0.002312
8.755000E-8	0.002469
8.760000E-8	0.002242
8.765000E-8	0.002406
8.770000E-8	0.002305
8.775000E-8	0.002328
8.780000E-8	0.002305
8.785000E-8	0.002195
8.790000E-8	0.002281
8.795000E-8	0.002477
8.800000E-8	0.002555
8.805000E-8	0.002508
8.810000E-8	0.002367
8.815000E-8	0.002508
8.820000E-8	0.002539
8.825000E-8	0.002609
8.830000E-8	0.002617
8.835000E-8	0.002898
8.840000E-8	0.002828
8.845000E-8	0.002625
8.850000E-8	0.002492
8.855000E-8	0.002664
8.860000E-8	0.002375
8.865000E-8	0.002430
8.870000E-8	0.002367
8.875000E-8	0.002414
8.880000E-8	0.002328
8.885000E-8	0.002195
8.890000E-8	0.002000
8.895000E-8	0.001992
8.900000E-8	0.002117
8.905000E-8	0.002320
8.910000E-8	0.002172
8.915000E-8	0.002383
8.920000E-8	0.002312
8.925000E-8	0.002398
8.930000E-8	0.002406
8.935000E-8	0.002312
8.940000E-8	0.002227
8.945000E-8	0.002336
8.950000E-8	0.002406
8.955000E-8	0.002570
8.960000E-8	0.002672
8.965000E-8	0.002758
8.970000E-8	0.002461
8.975000E-8	0.002563
8.980000E-8	0.002422
8.985000E-8	0.002492
8.990000E-8	0.002398
8.995000E-8	0.002500
9.000000E-8	0.002492
9.005000E-8	0.002523
9.010000E-8	0.002352
9.015000E-8	0.002586
9.020000E-8	0.002398
9.025000E-8	0.002266
9.030000E-8	0.002102
9.035000E-8	0.002242
9.040000E-8	0.002133
9.045000E-8	0.002031
9.050000E-8	0.002063
9.055000E-8	0.002094
9.060000E-8	0.001984
9.065000E-8	0.002047
9.070000E-8	0.002172
9.075000E-8	0.002234
9.080000E-8	0.002281
9.085000E-8	0.002219
9.090000E-8	0.002227
9.095000E-8	0.002266
9.100000E-8	0.002414
9.105000E-8	0.002344
9.110000E-8	0.002164
9.115000E-8	0.002367
9.120000E-8	0.002195
9.125000E-8	0.002461
9.130000E-8	0.002461
9.135000E-8	0.002594
9.140000E-8	0.002352
9.145000E-8	0.002516
9.150000E-8	0.002414
9.155000E-8	0.002359
9.160000E-8	0.002164
9.165000E-8	0.002117
9.170000E-8	0.002055
9.175000E-8	0.002102
9.180000E-8	0.001906
9.185000E-8	0.002055
9.190000E-8	0.002047
9.195000E-8	0.002125
9.200000E-8	0.002133
9.205000E-8	0.002172
9.210000E-8	0.002078
9.215000E-8	0.002422
9.220000E-8	0.002469
9.225000E-8	0.002453
9.230000E-8	0.002422
9.235000E-8	0.002570
9.240000E-8	0.002375
9.245000E-8	0.002617
9.250000E-8	0.002703
9.255000E-8	0.002625
9.260000E-8	0.002266
9.265000E-8	0.002133
9.270000E-8	0.002203
9.275000E-8	0.002086
9.280000E-8	0.002133
9.285000E-8	0.002148
9.290000E-8	0.002289
9.295000E-8	0.001937
9.300000E-8	0.001906
9.305000E-8	0.001937
9.310000E-8	0.002016
9.315000E-8	0.002375
9.320000E-8	0.002406
9.325000E-8	0.002516
9.330000E-8	0.002547
9.335000E-8	0.002570
9.340000E-8	0.002523
9.345000E-8	0.002703
9.350000E-8	0.002555
9.355000E-8	0.002508
9.360000E-8	0.002500
9.365000E-8	0.002516
9.370000E-8	0.002477
9.375000E-8	0.002430
9.380000E-8	0.002289
9.385000E-8	0.002555
9.390000E-8	0.002602
9.395000E-8	0.002453
9.400000E-8	0.002406
9.405000E-8	0.002305
9.410000E-8	0.002164
9.415000E-8	0.002414
9.420000E-8	0.002203
9.425000E-8	0.002141
9.430000E-8	0.001961
9.435000E-8	0.002188
9.440000E-8	0.002172
9.445000E-8	0.002344
9.450000E-8	0.002102
9.455000E-8	0.002414
9.460000E-8	0.002398
9.465000E-8	0.002500
9.470000E-8	0.002555
9.475000E-8	0.002594
9.480000E-8	0.002469
9.485000E-8	0.002742
9.490000E-8	0.002531
9.495000E-8	0.002602
9.500000E-8	0.002414
9.505000E-8	0.002422
9.510000E-8	0.002297
9.515000E-8	0.002414
9.520000E-8	0.002242
9.525000E-8	0.002078
9.530000E-8	0.002164
9.535000E-8	0.002375
9.540000E-8	0.002414
9.545000E-8	0.002141
9.550000E-8	0.001859
9.555000E-8	0.002039
9.560000E-8	0.001867
9.565000E-8	0.002125
9.570000E-8	0.002156
9.575000E-8	0.002297
9.580000E-8	0.002086
9.585000E-8	0.002250
9.590000E-8	0.002227
9.595000E-8	0.002445
9.600000E-8	0.002437
9.605000E-8	0.002508
9.610000E-8	0.002258
9.615000E-8	0.002477
9.620000E-8	0.002398
9.625000E-8	0.002625
9.630000E-8	0.002352
9.635000E-8	0.002617
9.640000E-8	0.002430
9.645000E-8	0.002531
9.650000E-8	0.002344
9.655000E-8	0.002563
9.660000E-8	0.002461
9.665000E-8	0.002477
9.670000E-8	0.002453
9.675000E-8	0.002219
9.680000E-8	0.002234
9.685000E-8	0.002445
9.690000E-8	0.002227
9.695000E-8	0.002211
9.700000E-8	0.002039
9.705000E-8	0.002055
9.710000E-8	0.001805
9.715000E-8	0.002016
9.720000E-8	0.001836
9.725000E-8	0.001867
9.730000E-8	0.001820
9.735000E-8	0.001930
9.740000E-8	0.001867
9.745000E-8	0.002039
9.750000E-8	0.002125
9.755000E-8	0.002039
9.760000E-8	0.002133
9.765000E-8	0.002289
9.770000E-8	0.002234
9.775000E-8	0.002375
9.780000E-8	0.002359
9.785000E-8	0.002312
9.790000E-8	0.002328
9.795000E-8	0.002258
9.800000E-8	0.002211
9.805000E-8	0.002328
9.810000E-8	0.002055
9.815000E-8	0.002188
9.820000E-8	0.002039
9.825000E-8	0.001961
9.830000E-8	0.001883
9.835000E-8	0.002000
9.840000E-8	0.002000
9.845000E-8	0.002180
9.850000E-8	0.002297
9.855000E-8	0.002422
9.860000E-8	0.002445
9.865000E-8	0.002656
9.870000E-8	0.002461
9.875000E-8	0.002609
9.880000E-8	0.002516
9.885000E-8	0.002586
9.890000E-8	0.002531
9.895000E-8	0.002688
9.900000E-8	0.002437
9.905000E-8	0.002523
9.910000E-8	0.002625
9.915000E-8	0.002547
9.920000E-8	0.002453
9.925000E-8	0.002094
9.930000E-8	0.002234
9.935000E-8	0.002375
9.940000E-8	0.002367
9.945000E-8	0.002461
9.950000E-8	0.002172
9.955000E-8	0.002227
9.960000E-8	0.002172
9.965000E-8	0.002297
9.970000E-8	0.001930
9.975000E-8	0.001977
9.980000E-8	0.001750
9.985000E-8	0.001875
9.990000E-8	0.001891
9.995000E-8	0.002016
