LabVIEW Measurement	
Writer_Version	2
Reader_Version	2
Separator	Tab
Decimal_Separator	.
Multi_Headings	No
X_Columns	Multi
Time_Pref	Relative
Operator	TG lab
Date	2015/03/06
Time	18:20:08.3518743515014648437
***End_of_Header***	
	
Channels	1	
Samples	2000	
Date	1903/12/31	
Time	19:00:00	
X_Dimension	Time	
X0	0.0000000000000000E+0	
Delta_X	5.000000E-11	
***End_of_Header***		
X_Value	Untitled	Comment
0.000000	0.001602
5.000000E-11	0.001797
1.000000E-10	0.001523
1.500000E-10	0.001383
2.000000E-10	0.001289
2.500000E-10	0.001406
3.000000E-10	0.001266
3.500000E-10	0.001305
4.000000E-10	0.001313
4.500000E-10	0.001281
5.000000E-10	0.001344
5.500000E-10	0.001289
6.000000E-10	0.001461
6.500000E-10	0.001406
7.000000E-10	0.001367
7.500000E-10	0.001516
8.000000E-10	0.001477
8.500000E-10	0.001719
9.000000E-10	0.001602
9.500000E-10	0.001742
1.000000E-9	0.001844
1.050000E-9	0.001969
1.100000E-9	0.001984
1.150000E-9	0.002172
1.200000E-9	0.002023
1.250000E-9	0.002039
1.300000E-9	0.001828
1.350000E-9	0.001930
1.400000E-9	0.002086
1.450000E-9	0.002227
1.500000E-9	0.002117
1.550000E-9	0.002422
1.600000E-9	0.002242
1.650000E-9	0.002461
1.700000E-9	0.002336
1.750000E-9	0.002273
1.800000E-9	0.002188
1.850000E-9	0.002094
1.900000E-9	0.001961
1.950000E-9	0.001984
2.000000E-9	0.001836
2.050000E-9	0.001969
2.100000E-9	0.001664
2.150000E-9	0.001813
2.200000E-9	0.001711
2.250000E-9	0.001961
2.300000E-9	0.002008
2.350000E-9	0.002078
2.400000E-9	0.002047
2.450000E-9	0.002367
2.500000E-9	0.002320
2.550000E-9	0.002422
2.600000E-9	0.002531
2.650000E-9	0.002648
2.700000E-9	0.002758
2.750000E-9	0.002539
2.800000E-9	0.002547
2.850000E-9	0.002711
2.900000E-9	0.002625
2.950000E-9	0.002797
3.000000E-9	0.002594
3.050000E-9	0.002703
3.100000E-9	0.002703
3.150000E-9	0.002914
3.200000E-9	0.003016
3.250000E-9	0.002992
3.300000E-9	0.002898
3.350000E-9	0.002867
3.400000E-9	0.002758
3.450000E-9	0.003055
3.500000E-9	0.002945
3.550000E-9	0.002922
3.600000E-9	0.003023
3.650000E-9	0.003305
3.700000E-9	0.003219
3.750000E-9	0.003414
3.800000E-9	0.003539
3.850000E-9	0.003625
3.900000E-9	0.003781
3.950000E-9	0.003969
4.000000E-9	0.004180
4.050000E-9	0.004273
4.100000E-9	0.004523
4.150000E-9	0.004852
4.200000E-9	0.005320
4.250000E-9	0.005891
4.300000E-9	0.006344
4.350000E-9	0.006938
4.400000E-9	0.007555
4.450000E-9	0.008711
4.500000E-9	0.009883
4.550000E-9	0.011172
4.600000E-9	0.012367
4.650000E-9	0.013961
4.700000E-9	0.015547
4.750000E-9	0.017125
4.800000E-9	0.018562
4.850000E-9	0.020227
4.900000E-9	0.021938
4.950000E-9	0.023430
5.000000E-9	0.024766
5.050000E-9	0.026625
5.100000E-9	0.027969
5.150000E-9	0.029703
5.200000E-9	0.031555
5.250000E-9	0.033578
5.300000E-9	0.034945
5.350000E-9	0.036687
5.400000E-9	0.038234
5.450000E-9	0.039656
5.500000E-9	0.040703
5.550000E-9	0.041758
5.600000E-9	0.042094
5.650000E-9	0.042203
5.700000E-9	0.041836
5.750000E-9	0.041164
5.800000E-9	0.040023
5.850000E-9	0.038547
5.900000E-9	0.036570
5.950000E-9	0.034453
6.000000E-9	0.032094
6.050000E-9	0.029898
6.100000E-9	0.027711
6.150000E-9	0.025688
6.200000E-9	0.024008
6.250000E-9	0.022734
6.300000E-9	0.021789
6.350000E-9	0.021672
6.400000E-9	0.021734
6.450000E-9	0.022000
6.500000E-9	0.022781
6.550000E-9	0.023711
6.600000E-9	0.024586
6.650000E-9	0.025664
6.700000E-9	0.026219
6.750000E-9	0.026875
6.800000E-9	0.027266
6.850000E-9	0.027430
6.900000E-9	0.027625
6.950000E-9	0.027352
7.000000E-9	0.027047
7.050000E-9	0.026336
7.100000E-9	0.025508
7.150000E-9	0.024563
7.200000E-9	0.023359
7.250000E-9	0.021758
7.300000E-9	0.020273
7.350000E-9	0.018922
7.400000E-9	0.017563
7.450000E-9	0.016289
7.500000E-9	0.015242
7.550000E-9	0.014547
7.600000E-9	0.014102
7.650000E-9	0.013859
7.700000E-9	0.013836
7.750000E-9	0.014039
7.800000E-9	0.014406
7.850000E-9	0.014938
7.900000E-9	0.015688
7.950000E-9	0.016570
8.000000E-9	0.017344
8.050000E-9	0.018109
8.100000E-9	0.018766
8.150000E-9	0.019391
8.200000E-9	0.019766
8.250000E-9	0.020164
8.300000E-9	0.020070
8.350000E-9	0.019883
8.400000E-9	0.018953
8.450000E-9	0.018297
8.500000E-9	0.017352
8.550000E-9	0.015891
8.600000E-9	0.014555
8.650000E-9	0.013227
8.700000E-9	0.011852
8.750000E-9	0.010773
8.800000E-9	0.009781
8.850000E-9	0.009148
8.900000E-9	0.008461
8.950000E-9	0.008172
9.000000E-9	0.008313
9.050000E-9	0.008516
9.100000E-9	0.008750
9.150000E-9	0.009430
9.200000E-9	0.010266
9.250000E-9	0.010953
9.300000E-9	0.011508
9.350000E-9	0.012195
9.400000E-9	0.012586
9.450000E-9	0.013391
9.500000E-9	0.013813
9.550000E-9	0.014078
9.600000E-9	0.014047
9.650000E-9	0.014008
9.700000E-9	0.013555
9.750000E-9	0.013289
9.800000E-9	0.012781
9.850000E-9	0.011906
9.900000E-9	0.010969
9.950000E-9	0.010039
1.000000E-8	0.008891
1.005000E-8	0.007977
1.010000E-8	0.007273
1.015000E-8	0.006484
1.020000E-8	0.006000
1.025000E-8	0.005617
1.030000E-8	0.005234
1.035000E-8	0.005234
1.040000E-8	0.005398
1.045000E-8	0.005672
1.050000E-8	0.006359
1.055000E-8	0.007117
1.060000E-8	0.007641
1.065000E-8	0.008258
1.070000E-8	0.008984
1.075000E-8	0.009859
1.080000E-8	0.010250
1.085000E-8	0.010648
1.090000E-8	0.010727
1.095000E-8	0.011086
1.100000E-8	0.010953
1.105000E-8	0.010617
1.110000E-8	0.010031
1.115000E-8	0.009617
1.120000E-8	0.008656
1.125000E-8	0.007812
1.130000E-8	0.006844
1.135000E-8	0.005977
1.140000E-8	0.005094
1.145000E-8	0.004430
1.150000E-8	0.003734
1.155000E-8	0.003398
1.160000E-8	0.002781
1.165000E-8	0.002711
1.170000E-8	0.002852
1.175000E-8	0.003250
1.180000E-8	0.003695
1.185000E-8	0.004438
1.190000E-8	0.004891
1.195000E-8	0.005828
1.200000E-8	0.006445
1.205000E-8	0.007219
1.210000E-8	0.007789
1.215000E-8	0.008508
1.220000E-8	0.008719
1.225000E-8	0.009133
1.230000E-8	0.009203
1.235000E-8	0.009109
1.240000E-8	0.008938
1.245000E-8	0.008469
1.250000E-8	0.007742
1.255000E-8	0.006898
1.260000E-8	0.006063
1.265000E-8	0.005094
1.270000E-8	0.004031
1.275000E-8	0.003148
1.280000E-8	0.002469
1.285000E-8	0.001719
1.290000E-8	0.001352
1.295000E-8	0.000992
1.300000E-8	0.001047
1.305000E-8	0.001141
1.310000E-8	0.001641
1.315000E-8	0.002453
1.320000E-8	0.003133
1.325000E-8	0.003906
1.330000E-8	0.004625
1.335000E-8	0.005641
1.340000E-8	0.006422
1.345000E-8	0.007203
1.350000E-8	0.007625
1.355000E-8	0.008320
1.360000E-8	0.008508
1.365000E-8	0.008500
1.370000E-8	0.008164
1.375000E-8	0.007766
1.380000E-8	0.007133
1.385000E-8	0.006336
1.390000E-8	0.005469
1.395000E-8	0.004703
1.400000E-8	0.003750
1.405000E-8	0.002828
1.410000E-8	0.001953
1.415000E-8	0.001445
1.420000E-8	0.001039
1.425000E-8	0.000687
1.430000E-8	0.000648
1.435000E-8	0.000797
1.440000E-8	0.000891
1.445000E-8	0.001641
1.450000E-8	0.002180
1.455000E-8	0.002953
1.460000E-8	0.003547
1.465000E-8	0.004719
1.470000E-8	0.005500
1.475000E-8	0.006273
1.480000E-8	0.006938
1.485000E-8	0.007438
1.490000E-8	0.007539
1.495000E-8	0.007891
1.500000E-8	0.007641
1.505000E-8	0.007297
1.510000E-8	0.006539
1.515000E-8	0.005695
1.520000E-8	0.004734
1.525000E-8	0.003883
1.530000E-8	0.002852
1.535000E-8	0.001953
1.540000E-8	0.001016
1.545000E-8	0.000242
1.550000E-8	-0.000313
1.555000E-8	-0.000430
1.560000E-8	-0.000641
1.565000E-8	-0.000289
1.570000E-8	7.812500E-6
1.575000E-8	0.000680
1.580000E-8	0.001266
1.585000E-8	0.002328
1.590000E-8	0.002992
1.595000E-8	0.004039
1.600000E-8	0.004859
1.605000E-8	0.005609
1.610000E-8	0.005906
1.615000E-8	0.006305
1.620000E-8	0.006539
1.625000E-8	0.006539
1.630000E-8	0.006367
1.635000E-8	0.006109
1.640000E-8	0.005586
1.645000E-8	0.004969
1.650000E-8	0.004039
1.655000E-8	0.003141
1.660000E-8	0.002406
1.665000E-8	0.001484
1.670000E-8	0.000758
1.675000E-8	0.000125
1.680000E-8	-0.000500
1.685000E-8	-0.000695
1.690000E-8	-0.000672
1.695000E-8	-0.000578
1.700000E-8	-0.000430
1.705000E-8	9.375000E-5
1.710000E-8	0.000648
1.715000E-8	0.001609
1.720000E-8	0.002359
1.725000E-8	0.003164
1.730000E-8	0.003938
1.735000E-8	0.004836
1.740000E-8	0.005141
1.745000E-8	0.005539
1.750000E-8	0.005672
1.755000E-8	0.005766
1.760000E-8	0.005492
1.765000E-8	0.005430
1.770000E-8	0.004875
1.775000E-8	0.004172
1.780000E-8	0.003469
1.785000E-8	0.002750
1.790000E-8	0.001773
1.795000E-8	0.001352
1.800000E-8	0.000297
1.805000E-8	-9.375000E-5
1.810000E-8	-0.000906
1.815000E-8	-0.001203
1.820000E-8	-0.001383
1.825000E-8	-0.001437
1.830000E-8	-0.001211
1.835000E-8	-0.000555
1.840000E-8	-5.468750E-5
1.845000E-8	0.000773
1.850000E-8	0.001805
1.855000E-8	0.002789
1.860000E-8	0.003586
1.865000E-8	0.004359
1.870000E-8	0.004656
1.875000E-8	0.005203
1.880000E-8	0.005484
1.885000E-8	0.005609
1.890000E-8	0.005305
1.895000E-8	0.005102
1.900000E-8	0.004609
1.905000E-8	0.004063
1.910000E-8	0.003133
1.915000E-8	0.002188
1.920000E-8	0.001375
1.925000E-8	0.000617
1.930000E-8	-5.468750E-5
1.935000E-8	-0.000664
1.940000E-8	-0.000984
1.945000E-8	-0.001031
1.950000E-8	-0.001023
1.955000E-8	-0.000828
1.960000E-8	-0.000648
1.965000E-8	-0.000242
1.970000E-8	0.000250
1.975000E-8	0.000937
1.980000E-8	0.001461
1.985000E-8	0.002336
1.990000E-8	0.002945
1.995000E-8	0.003594
2.000000E-8	0.003938
2.005000E-8	0.004539
2.010000E-8	0.004867
2.015000E-8	0.005008
2.020000E-8	0.005047
2.025000E-8	0.004891
2.030000E-8	0.004602
2.035000E-8	0.004203
2.040000E-8	0.003680
2.045000E-8	0.003234
2.050000E-8	0.002414
2.055000E-8	0.001836
2.060000E-8	0.000805
2.065000E-8	0.000320
2.070000E-8	-0.000266
2.075000E-8	-0.000766
2.080000E-8	-0.001047
2.085000E-8	-0.001180
2.090000E-8	-0.001063
2.095000E-8	-0.000844
2.100000E-8	-0.000633
2.105000E-8	0.000234
2.110000E-8	0.000602
2.115000E-8	0.001414
2.120000E-8	0.001930
2.125000E-8	0.002711
2.130000E-8	0.003445
2.135000E-8	0.004016
2.140000E-8	0.004461
2.145000E-8	0.004687
2.150000E-8	0.004859
2.155000E-8	0.004758
2.160000E-8	0.004539
2.165000E-8	0.004328
2.170000E-8	0.003875
2.175000E-8	0.003430
2.180000E-8	0.002703
2.185000E-8	0.002172
2.190000E-8	0.001125
2.195000E-8	0.000500
2.200000E-8	-0.000141
2.205000E-8	-0.000398
2.210000E-8	-0.000867
2.215000E-8	-0.000945
2.220000E-8	-0.000781
2.225000E-8	-0.000570
2.230000E-8	-0.000328
2.235000E-8	0.000227
2.240000E-8	0.000680
2.245000E-8	0.001406
2.250000E-8	0.001859
2.255000E-8	0.002477
2.260000E-8	0.002820
2.265000E-8	0.003492
2.270000E-8	0.003961
2.275000E-8	0.004242
2.280000E-8	0.004492
2.285000E-8	0.004852
2.290000E-8	0.004531
2.295000E-8	0.004555
2.300000E-8	0.003773
2.305000E-8	0.003305
2.310000E-8	0.002445
2.315000E-8	0.001852
2.320000E-8	0.001195
2.325000E-8	0.000438
2.330000E-8	-0.000188
2.335000E-8	-0.000727
2.340000E-8	-0.000937
2.345000E-8	-0.001102
2.350000E-8	-0.001125
2.355000E-8	-0.001055
2.360000E-8	-0.000664
2.365000E-8	-7.812500E-6
2.370000E-8	0.000484
2.375000E-8	0.000781
2.380000E-8	0.001398
2.385000E-8	0.002133
2.390000E-8	0.002680
2.395000E-8	0.003195
2.400000E-8	0.003898
2.405000E-8	0.004172
2.410000E-8	0.004258
2.415000E-8	0.004320
2.420000E-8	0.004133
2.425000E-8	0.004094
2.430000E-8	0.003617
2.435000E-8	0.003000
2.440000E-8	0.002406
2.445000E-8	0.001797
2.450000E-8	0.001109
2.455000E-8	0.000289
2.460000E-8	-3.125000E-5
2.465000E-8	-0.000477
2.470000E-8	-0.000586
2.475000E-8	-0.000836
2.480000E-8	-0.000969
2.485000E-8	-0.000695
2.490000E-8	-0.000820
2.495000E-8	-0.000406
2.500000E-8	0.000180
2.505000E-8	0.000797
2.510000E-8	0.001445
2.515000E-8	0.002297
2.520000E-8	0.002844
2.525000E-8	0.003539
2.530000E-8	0.003984
2.535000E-8	0.004430
2.540000E-8	0.004500
2.545000E-8	0.004687
2.550000E-8	0.004555
2.555000E-8	0.004445
2.560000E-8	0.003844
2.565000E-8	0.003680
2.570000E-8	0.002844
2.575000E-8	0.002188
2.580000E-8	0.001297
2.585000E-8	0.000703
2.590000E-8	0.000172
2.595000E-8	-0.000281
2.600000E-8	-0.000750
2.605000E-8	-0.000867
2.610000E-8	-0.001141
2.615000E-8	-0.001047
2.620000E-8	-0.001047
2.625000E-8	-0.000609
2.630000E-8	-0.000102
2.635000E-8	0.000508
2.640000E-8	0.001000
2.645000E-8	0.001906
2.650000E-8	0.002375
2.655000E-8	0.002984
2.660000E-8	0.003523
2.665000E-8	0.003828
2.670000E-8	0.004047
2.675000E-8	0.004094
2.680000E-8	0.004000
2.685000E-8	0.003758
2.690000E-8	0.003367
2.695000E-8	0.002984
2.700000E-8	0.002102
2.705000E-8	0.001422
2.710000E-8	0.000937
2.715000E-8	0.000266
2.720000E-8	-3.906250E-5
2.725000E-8	-0.000352
2.730000E-8	-0.000820
2.735000E-8	-0.000984
2.740000E-8	-0.001133
2.745000E-8	-0.001117
2.750000E-8	-0.001063
2.755000E-8	-0.000578
2.760000E-8	-0.000188
2.765000E-8	0.000227
2.770000E-8	0.000523
2.775000E-8	0.001242
2.780000E-8	0.001883
2.785000E-8	0.002477
2.790000E-8	0.002789
2.795000E-8	0.003484
2.800000E-8	0.003531
2.805000E-8	0.003961
2.810000E-8	0.004141
2.815000E-8	0.003938
2.820000E-8	0.003742
2.825000E-8	0.003281
2.830000E-8	0.002883
2.835000E-8	0.002164
2.840000E-8	0.001391
2.845000E-8	0.000773
2.850000E-8	0.000367
2.855000E-8	-0.000133
2.860000E-8	-0.000602
2.865000E-8	-0.000687
2.870000E-8	-0.000914
2.875000E-8	-0.000930
2.880000E-8	-0.000867
2.885000E-8	-0.000391
2.890000E-8	-6.250000E-5
2.895000E-8	0.000570
2.900000E-8	0.000984
2.905000E-8	0.001547
2.910000E-8	0.002188
2.915000E-8	0.002656
2.920000E-8	0.003141
2.925000E-8	0.003391
2.930000E-8	0.003531
2.935000E-8	0.003797
2.940000E-8	0.003914
2.945000E-8	0.003883
2.950000E-8	0.003547
2.955000E-8	0.003219
2.960000E-8	0.002672
2.965000E-8	0.002063
2.970000E-8	0.001305
2.975000E-8	0.000703
2.980000E-8	0.000203
2.985000E-8	-8.593750E-5
2.990000E-8	-0.000383
2.995000E-8	-0.000500
3.000000E-8	-0.000836
3.005000E-8	-0.000828
3.010000E-8	-0.000742
3.015000E-8	-0.000367
3.020000E-8	3.125000E-5
3.025000E-8	0.000516
3.030000E-8	0.001008
3.035000E-8	0.001500
3.040000E-8	0.002133
3.045000E-8	0.002766
3.050000E-8	0.002961
3.055000E-8	0.003328
3.060000E-8	0.003547
3.065000E-8	0.003602
3.070000E-8	0.003328
3.075000E-8	0.003406
3.080000E-8	0.003023
3.085000E-8	0.002805
3.090000E-8	0.002398
3.095000E-8	0.002234
3.100000E-8	0.001617
3.105000E-8	0.001359
3.110000E-8	0.000852
3.115000E-8	0.000508
3.120000E-8	0.000164
3.125000E-8	-1.562500E-5
3.130000E-8	-0.000297
3.135000E-8	-0.000156
3.140000E-8	-0.000352
3.145000E-8	-0.000164
3.150000E-8	-2.343750E-5
3.155000E-8	0.000469
3.160000E-8	0.000781
3.165000E-8	0.001281
3.170000E-8	0.001555
3.175000E-8	0.002023
3.180000E-8	0.002352
3.185000E-8	0.002695
3.190000E-8	0.002984
3.195000E-8	0.003023
3.200000E-8	0.003086
3.205000E-8	0.003266
3.210000E-8	0.003055
3.215000E-8	0.003102
3.220000E-8	0.002680
3.225000E-8	0.002492
3.230000E-8	0.002125
3.235000E-8	0.001492
3.240000E-8	0.001016
3.245000E-8	0.000711
3.250000E-8	0.000289
3.255000E-8	0.000195
3.260000E-8	-0.000227
3.265000E-8	-0.000648
3.270000E-8	-0.000836
3.275000E-8	-0.000656
3.280000E-8	-0.000469
3.285000E-8	5.468750E-5
3.290000E-8	0.000391
3.295000E-8	0.000750
3.300000E-8	0.001125
3.305000E-8	0.001641
3.310000E-8	0.002047
3.315000E-8	0.002664
3.320000E-8	0.002867
3.325000E-8	0.003445
3.330000E-8	0.003422
3.335000E-8	0.003531
3.340000E-8	0.003500
3.345000E-8	0.003242
3.350000E-8	0.002695
3.355000E-8	0.002445
3.360000E-8	0.001781
3.365000E-8	0.001445
3.370000E-8	0.000758
3.375000E-8	0.000500
3.380000E-8	0.000211
3.385000E-8	7.812500E-6
3.390000E-8	-3.125000E-5
3.395000E-8	-7.812500E-5
3.400000E-8	-2.343750E-5
3.405000E-8	0.000141
3.410000E-8	1.562500E-5
3.415000E-8	0.000273
3.420000E-8	0.000438
3.425000E-8	0.000992
3.430000E-8	0.001305
3.435000E-8	0.001820
3.440000E-8	0.002359
3.445000E-8	0.002742
3.450000E-8	0.002852
3.455000E-8	0.003266
3.460000E-8	0.003523
3.465000E-8	0.003641
3.470000E-8	0.003484
3.475000E-8	0.003422
3.480000E-8	0.003039
3.485000E-8	0.002680
3.490000E-8	0.002117
3.495000E-8	0.001766
3.500000E-8	0.001234
3.505000E-8	0.000969
3.510000E-8	0.000445
3.515000E-8	0.000109
3.520000E-8	-0.000117
3.525000E-8	-7.812500E-5
3.530000E-8	-0.000188
3.535000E-8	-0.000195
3.540000E-8	-4.687500E-5
3.545000E-8	0.000320
3.550000E-8	0.000633
3.555000E-8	0.001187
3.560000E-8	0.001375
3.565000E-8	0.002000
3.570000E-8	0.002086
3.575000E-8	0.002531
3.580000E-8	0.002789
3.585000E-8	0.002969
3.590000E-8	0.003117
3.595000E-8	0.003219
3.600000E-8	0.003242
3.605000E-8	0.003328
3.610000E-8	0.003055
3.615000E-8	0.002734
3.620000E-8	0.002156
3.625000E-8	0.001852
3.630000E-8	0.001328
3.635000E-8	0.000789
3.640000E-8	0.000461
3.645000E-8	0.000266
3.650000E-8	-0.000188
3.655000E-8	-0.000398
3.660000E-8	-0.000469
3.665000E-8	-0.000266
3.670000E-8	-3.125000E-5
3.675000E-8	5.468750E-5
3.680000E-8	5.468750E-5
3.685000E-8	0.000578
3.690000E-8	0.001016
3.695000E-8	0.001578
3.700000E-8	0.001844
3.705000E-8	0.002227
3.710000E-8	0.002484
3.715000E-8	0.002750
3.720000E-8	0.002844
3.725000E-8	0.003078
3.730000E-8	0.003078
3.735000E-8	0.002898
3.740000E-8	0.002664
3.745000E-8	0.002547
3.750000E-8	0.002141
3.755000E-8	0.001766
3.760000E-8	0.001320
3.765000E-8	0.001063
3.770000E-8	0.000633
3.775000E-8	0.000359
3.780000E-8	0.000125
3.785000E-8	-6.250000E-5
3.790000E-8	-0.000211
3.795000E-8	-0.000102
3.800000E-8	4.687500E-5
3.805000E-8	0.000219
3.810000E-8	0.000383
3.815000E-8	0.000891
3.820000E-8	0.001203
3.825000E-8	0.001680
3.830000E-8	0.001813
3.835000E-8	0.002016
3.840000E-8	0.002312
3.845000E-8	0.002563
3.850000E-8	0.002602
3.855000E-8	0.002703
3.860000E-8	0.002914
3.865000E-8	0.002930
3.870000E-8	0.002719
3.875000E-8	0.002406
3.880000E-8	0.002070
3.885000E-8	0.001781
3.890000E-8	0.001352
3.895000E-8	0.000922
3.900000E-8	0.000625
3.905000E-8	0.000242
3.910000E-8	-0.000344
3.915000E-8	-0.000375
3.920000E-8	-0.000281
3.925000E-8	-0.000148
3.930000E-8	-0.000219
3.935000E-8	0.000164
3.940000E-8	0.000320
3.945000E-8	0.000797
3.950000E-8	0.001234
3.955000E-8	0.001570
3.960000E-8	0.001867
3.965000E-8	0.002023
3.970000E-8	0.002141
3.975000E-8	0.002305
3.980000E-8	0.002352
3.985000E-8	0.002523
3.990000E-8	0.002430
3.995000E-8	0.002344
4.000000E-8	0.002102
4.005000E-8	0.002125
4.010000E-8	0.001687
4.015000E-8	0.001633
4.020000E-8	0.001492
4.025000E-8	0.001344
4.030000E-8	0.000906
4.035000E-8	0.000781
4.040000E-8	0.000430
4.045000E-8	0.000359
4.050000E-8	0.000000
4.055000E-8	8.593750E-5
4.060000E-8	7.812500E-5
4.065000E-8	0.000477
4.070000E-8	0.000531
4.075000E-8	0.000813
4.080000E-8	0.001094
4.085000E-8	0.001367
4.090000E-8	0.001711
4.095000E-8	0.002063
4.100000E-8	0.002188
4.105000E-8	0.002328
4.110000E-8	0.002594
4.115000E-8	0.002766
4.120000E-8	0.002766
4.125000E-8	0.002789
4.130000E-8	0.002469
4.135000E-8	0.002336
4.140000E-8	0.002148
4.145000E-8	0.001883
4.150000E-8	0.001570
4.155000E-8	0.001367
4.160000E-8	0.000945
4.165000E-8	0.000586
4.170000E-8	0.000242
4.175000E-8	0.000156
4.180000E-8	-0.000227
4.185000E-8	3.125000E-5
4.190000E-8	4.687500E-5
4.195000E-8	0.000352
4.200000E-8	0.000289
4.205000E-8	0.000680
4.210000E-8	0.000750
4.215000E-8	0.001180
4.220000E-8	0.001508
4.225000E-8	0.002039
4.230000E-8	0.002336
4.235000E-8	0.002617
4.240000E-8	0.002586
4.245000E-8	0.003016
4.250000E-8	0.002703
4.255000E-8	0.002594
4.260000E-8	0.002656
4.265000E-8	0.002563
4.270000E-8	0.002109
4.275000E-8	0.001766
4.280000E-8	0.001414
4.285000E-8	0.001258
4.290000E-8	0.000742
4.295000E-8	0.000695
4.300000E-8	0.000625
4.305000E-8	0.000461
4.310000E-8	4.687500E-5
4.315000E-8	7.812500E-5
4.320000E-8	-7.812500E-5
4.325000E-8	6.250000E-5
4.330000E-8	0.000156
4.335000E-8	0.000242
4.340000E-8	0.000563
4.345000E-8	0.000937
4.350000E-8	0.001375
4.355000E-8	0.001914
4.360000E-8	0.002047
4.365000E-8	0.002250
4.370000E-8	0.002469
4.375000E-8	0.003031
4.380000E-8	0.003008
4.385000E-8	0.002930
4.390000E-8	0.002766
4.395000E-8	0.002625
4.400000E-8	0.002312
4.405000E-8	0.002125
4.410000E-8	0.001906
4.415000E-8	0.001445
4.420000E-8	0.001187
4.425000E-8	0.000906
4.430000E-8	0.000477
4.435000E-8	0.000320
4.440000E-8	0.000258
4.445000E-8	0.000273
4.450000E-8	0.000250
4.455000E-8	0.000328
4.460000E-8	0.000492
4.465000E-8	0.000852
4.470000E-8	0.000977
4.475000E-8	0.001187
4.480000E-8	0.001492
4.485000E-8	0.001687
4.490000E-8	0.001828
4.495000E-8	0.002289
4.500000E-8	0.002359
4.505000E-8	0.002617
4.510000E-8	0.002656
4.515000E-8	0.002664
4.520000E-8	0.002563
4.525000E-8	0.002516
4.530000E-8	0.002250
4.535000E-8	0.001898
4.540000E-8	0.001516
4.545000E-8	0.001422
4.550000E-8	0.000906
4.555000E-8	0.000836
4.560000E-8	0.000445
4.565000E-8	0.000180
4.570000E-8	-0.000203
4.575000E-8	-0.000289
4.580000E-8	-0.000344
4.585000E-8	-7.031250E-5
4.590000E-8	0.000297
4.595000E-8	0.000445
4.600000E-8	0.000828
4.605000E-8	0.001242
4.610000E-8	0.001523
4.615000E-8	0.001875
4.620000E-8	0.002164
4.625000E-8	0.002664
4.630000E-8	0.002672
4.635000E-8	0.002781
4.640000E-8	0.003031
4.645000E-8	0.002977
4.650000E-8	0.002781
4.655000E-8	0.002453
4.660000E-8	0.002156
4.665000E-8	0.002203
4.670000E-8	0.001641
4.675000E-8	0.001617
4.680000E-8	0.001164
4.685000E-8	0.000922
4.690000E-8	0.000602
4.695000E-8	0.000469
4.700000E-8	0.000234
4.705000E-8	0.000195
4.710000E-8	0.000234
4.715000E-8	0.000266
4.720000E-8	0.000406
4.725000E-8	0.000914
4.730000E-8	0.001000
4.735000E-8	0.001328
4.740000E-8	0.001367
4.745000E-8	0.001789
4.750000E-8	0.001937
4.755000E-8	0.002312
4.760000E-8	0.002375
4.765000E-8	0.002711
4.770000E-8	0.002641
4.775000E-8	0.002516
4.780000E-8	0.002500
4.785000E-8	0.002391
4.790000E-8	0.002063
4.795000E-8	0.001992
4.800000E-8	0.001664
4.805000E-8	0.001344
4.810000E-8	0.000953
4.815000E-8	0.000477
4.820000E-8	0.000359
4.825000E-8	0.000461
4.830000E-8	0.000461
4.835000E-8	0.000484
4.840000E-8	0.000547
4.845000E-8	0.000539
4.850000E-8	0.000516
4.855000E-8	0.000852
4.860000E-8	0.000969
4.865000E-8	0.001187
4.870000E-8	0.001359
4.875000E-8	0.001656
4.880000E-8	0.001828
4.885000E-8	0.002086
4.890000E-8	0.002273
4.895000E-8	0.002289
4.900000E-8	0.002383
4.905000E-8	0.002625
4.910000E-8	0.002547
4.915000E-8	0.002445
4.920000E-8	0.002156
4.925000E-8	0.002320
4.930000E-8	0.002078
4.935000E-8	0.001773
4.940000E-8	0.001625
4.945000E-8	0.001336
4.950000E-8	0.001164
4.955000E-8	0.000906
4.960000E-8	0.000828
4.965000E-8	0.000766
4.970000E-8	0.000828
4.975000E-8	0.000758
4.980000E-8	0.000687
4.985000E-8	0.000844
4.990000E-8	0.000906
4.995000E-8	0.001047
5.000000E-8	0.001000
5.005000E-8	0.001477
5.010000E-8	0.001625
5.015000E-8	0.001711
5.020000E-8	0.001969
5.025000E-8	0.002281
5.030000E-8	0.002195
5.035000E-8	0.002539
5.040000E-8	0.002391
5.045000E-8	0.002703
5.050000E-8	0.002328
5.055000E-8	0.002312
5.060000E-8	0.002086
5.065000E-8	0.001813
5.070000E-8	0.001453
5.075000E-8	0.001172
5.080000E-8	0.000609
5.085000E-8	0.000438
5.090000E-8	0.000289
5.095000E-8	0.000250
5.100000E-8	0.000180
5.105000E-8	0.000281
5.110000E-8	0.000180
5.115000E-8	0.000469
5.120000E-8	0.000594
5.125000E-8	0.000875
5.130000E-8	0.000953
5.135000E-8	0.001242
5.140000E-8	0.001281
5.145000E-8	0.001469
5.150000E-8	0.001617
5.155000E-8	0.001734
5.160000E-8	0.001727
5.165000E-8	0.002133
5.170000E-8	0.002141
5.175000E-8	0.002180
5.180000E-8	0.002047
5.185000E-8	0.002039
5.190000E-8	0.001859
5.195000E-8	0.001758
5.200000E-8	0.001305
5.205000E-8	0.001211
5.210000E-8	0.001078
5.215000E-8	0.000852
5.220000E-8	0.000742
5.225000E-8	0.000875
5.230000E-8	0.000672
5.235000E-8	0.000563
5.240000E-8	0.000578
5.245000E-8	0.000891
5.250000E-8	0.000789
5.255000E-8	0.001063
5.260000E-8	0.001297
5.265000E-8	0.001508
5.270000E-8	0.001437
5.275000E-8	0.001703
5.280000E-8	0.001891
5.285000E-8	0.002133
5.290000E-8	0.002258
5.295000E-8	0.002398
5.300000E-8	0.002367
5.305000E-8	0.002563
5.310000E-8	0.002242
5.315000E-8	0.002016
5.320000E-8	0.001930
5.325000E-8	0.001617
5.330000E-8	0.001383
5.335000E-8	0.001258
5.340000E-8	0.000875
5.345000E-8	0.000609
5.350000E-8	0.000336
5.355000E-8	0.000484
5.360000E-8	-1.562500E-5
5.365000E-8	0.000211
5.370000E-8	0.000219
5.375000E-8	0.000672
5.380000E-8	0.000641
5.385000E-8	0.000727
5.390000E-8	0.000875
5.395000E-8	0.001367
5.400000E-8	0.001359
5.405000E-8	0.001672
5.410000E-8	0.001781
5.415000E-8	0.002266
5.420000E-8	0.002023
5.425000E-8	0.002281
5.430000E-8	0.002281
5.435000E-8	0.002281
5.440000E-8	0.002047
5.445000E-8	0.002094
5.450000E-8	0.001828
5.455000E-8	0.001719
5.460000E-8	0.001461
5.465000E-8	0.001516
5.470000E-8	0.001109
5.475000E-8	0.000891
5.480000E-8	0.000547
5.485000E-8	0.000609
5.490000E-8	0.000586
5.495000E-8	0.000813
5.500000E-8	0.000750
5.505000E-8	0.000930
5.510000E-8	0.000953
5.515000E-8	0.001250
5.520000E-8	0.001375
5.525000E-8	0.001523
5.530000E-8	0.001633
5.535000E-8	0.001773
5.540000E-8	0.001914
5.545000E-8	0.002352
5.550000E-8	0.002469
5.555000E-8	0.002523
5.560000E-8	0.002492
5.565000E-8	0.002508
5.570000E-8	0.002320
5.575000E-8	0.002320
5.580000E-8	0.001969
5.585000E-8	0.001930
5.590000E-8	0.001578
5.595000E-8	0.001406
5.600000E-8	0.001102
5.605000E-8	0.000906
5.610000E-8	0.000914
5.615000E-8	0.000773
5.620000E-8	0.000875
5.625000E-8	0.000930
5.630000E-8	0.000906
5.635000E-8	0.000906
5.640000E-8	0.000875
5.645000E-8	0.001008
5.650000E-8	0.000945
5.655000E-8	0.001156
5.660000E-8	0.001211
5.665000E-8	0.001477
5.670000E-8	0.001359
5.675000E-8	0.001523
5.680000E-8	0.001852
5.685000E-8	0.002039
5.690000E-8	0.002086
5.695000E-8	0.002352
5.700000E-8	0.002266
5.705000E-8	0.002328
5.710000E-8	0.002320
5.715000E-8	0.002172
5.720000E-8	0.001930
5.725000E-8	0.001758
5.730000E-8	0.001305
5.735000E-8	0.001148
5.740000E-8	0.000719
5.745000E-8	0.000617
5.750000E-8	0.000633
5.755000E-8	0.000492
5.760000E-8	0.000594
5.765000E-8	0.000539
5.770000E-8	0.000664
5.775000E-8	0.000992
5.780000E-8	0.001133
5.785000E-8	0.001422
5.790000E-8	0.001391
5.795000E-8	0.001789
5.800000E-8	0.001625
5.805000E-8	0.002000
5.810000E-8	0.002016
5.815000E-8	0.002039
5.820000E-8	0.002125
5.825000E-8	0.002203
5.830000E-8	0.002016
5.835000E-8	0.001836
5.840000E-8	0.001750
5.845000E-8	0.001641
5.850000E-8	0.001336
5.855000E-8	0.001266
5.860000E-8	0.000930
5.865000E-8	0.000750
5.870000E-8	0.000758
5.875000E-8	0.000602
5.880000E-8	0.000453
5.885000E-8	0.000687
5.890000E-8	0.000469
5.895000E-8	0.000578
5.900000E-8	0.000641
5.905000E-8	0.000953
5.910000E-8	0.000898
5.915000E-8	0.001133
5.920000E-8	0.001063
5.925000E-8	0.001320
5.930000E-8	0.001500
5.935000E-8	0.001625
5.940000E-8	0.001828
5.945000E-8	0.002047
5.950000E-8	0.001930
5.955000E-8	0.002109
5.960000E-8	0.002055
5.965000E-8	0.002164
5.970000E-8	0.002141
5.975000E-8	0.002039
5.980000E-8	0.001844
5.985000E-8	0.001766
5.990000E-8	0.001344
5.995000E-8	0.001328
6.000000E-8	0.001422
6.005000E-8	0.001328
6.010000E-8	0.001039
6.015000E-8	0.000820
6.020000E-8	0.000687
6.025000E-8	0.001000
6.030000E-8	0.000836
6.035000E-8	0.001031
6.040000E-8	0.000984
6.045000E-8	0.001078
6.050000E-8	0.001234
6.055000E-8	0.001414
6.060000E-8	0.001547
6.065000E-8	0.001781
6.070000E-8	0.001797
6.075000E-8	0.001969
6.080000E-8	0.002008
6.085000E-8	0.002047
6.090000E-8	0.001953
6.095000E-8	0.001953
6.100000E-8	0.001945
6.105000E-8	0.001836
6.110000E-8	0.001633
6.115000E-8	0.001531
6.120000E-8	0.001281
6.125000E-8	0.001180
6.130000E-8	0.001086
6.135000E-8	0.001078
6.140000E-8	0.000961
6.145000E-8	0.000969
6.150000E-8	0.000930
6.155000E-8	0.000781
6.160000E-8	0.001023
6.165000E-8	0.001148
6.170000E-8	0.001063
6.175000E-8	0.001250
6.180000E-8	0.001320
6.185000E-8	0.001437
6.190000E-8	0.001563
6.195000E-8	0.001617
6.200000E-8	0.001664
6.205000E-8	0.001773
6.210000E-8	0.001719
6.215000E-8	0.001602
6.220000E-8	0.001586
6.225000E-8	0.001766
6.230000E-8	0.001711
6.235000E-8	0.001820
6.240000E-8	0.001578
6.245000E-8	0.001672
6.250000E-8	0.001398
6.255000E-8	0.001383
6.260000E-8	0.001258
6.265000E-8	0.001414
6.270000E-8	0.001039
6.275000E-8	0.001016
6.280000E-8	0.001000
6.285000E-8	0.000906
6.290000E-8	0.000781
6.295000E-8	0.000766
6.300000E-8	0.000773
6.305000E-8	0.001016
6.310000E-8	0.001047
6.315000E-8	0.001219
6.320000E-8	0.001227
6.325000E-8	0.001602
6.330000E-8	0.001484
6.335000E-8	0.002016
6.340000E-8	0.002109
6.345000E-8	0.002219
6.350000E-8	0.002234
6.355000E-8	0.002266
6.360000E-8	0.002422
6.365000E-8	0.002250
6.370000E-8	0.002047
6.375000E-8	0.001797
6.380000E-8	0.001320
6.385000E-8	0.001172
6.390000E-8	0.001047
6.395000E-8	0.001023
6.400000E-8	0.001031
6.405000E-8	0.001031
6.410000E-8	0.000891
6.415000E-8	0.001141
6.420000E-8	0.001305
6.425000E-8	0.001187
6.430000E-8	0.001234
6.435000E-8	0.001320
6.440000E-8	0.001344
6.445000E-8	0.001539
6.450000E-8	0.001453
6.455000E-8	0.001617
6.460000E-8	0.001563
6.465000E-8	0.001664
6.470000E-8	0.001531
6.475000E-8	0.001680
6.480000E-8	0.001695
6.485000E-8	0.001641
6.490000E-8	0.001578
6.495000E-8	0.001555
6.500000E-8	0.001563
6.505000E-8	0.001547
6.510000E-8	0.001359
6.515000E-8	0.001234
6.520000E-8	0.001117
6.525000E-8	0.001164
6.530000E-8	0.001000
6.535000E-8	0.000977
6.540000E-8	0.000750
6.545000E-8	0.000922
6.550000E-8	0.000937
6.555000E-8	0.001141
6.560000E-8	0.001039
6.565000E-8	0.001305
6.570000E-8	0.001414
6.575000E-8	0.001711
6.580000E-8	0.001531
6.585000E-8	0.001500
6.590000E-8	0.001750
6.595000E-8	0.001883
6.600000E-8	0.001945
6.605000E-8	0.002055
6.610000E-8	0.002039
6.615000E-8	0.002086
6.620000E-8	0.001891
6.625000E-8	0.002164
6.630000E-8	0.001875
6.635000E-8	0.001836
6.640000E-8	0.001945
6.645000E-8	0.002047
6.650000E-8	0.001945
6.655000E-8	0.001805
6.660000E-8	0.001703
6.665000E-8	0.001695
6.670000E-8	0.001508
6.675000E-8	0.001430
6.680000E-8	0.001383
6.685000E-8	0.001234
6.690000E-8	0.001297
6.695000E-8	0.001086
6.700000E-8	0.000961
6.705000E-8	0.001266
6.710000E-8	0.001406
6.715000E-8	0.001695
6.720000E-8	0.001578
6.725000E-8	0.001711
6.730000E-8	0.001531
6.735000E-8	0.001727
6.740000E-8	0.001359
6.745000E-8	0.001484
6.750000E-8	0.001383
6.755000E-8	0.001391
6.760000E-8	0.001406
6.765000E-8	0.001516
6.770000E-8	0.001555
6.775000E-8	0.001508
6.780000E-8	0.001305
6.785000E-8	0.001195
6.790000E-8	0.001109
6.795000E-8	0.001211
6.800000E-8	0.001078
6.805000E-8	0.000773
6.810000E-8	0.000602
6.815000E-8	0.000711
6.820000E-8	0.001016
6.825000E-8	0.001273
6.830000E-8	0.001094
6.835000E-8	0.001273
6.840000E-8	0.001359
6.845000E-8	0.001617
6.850000E-8	0.001633
6.855000E-8	0.001555
6.860000E-8	0.001758
6.865000E-8	0.001867
6.870000E-8	0.001922
6.875000E-8	0.001852
6.880000E-8	0.001891
6.885000E-8	0.001680
6.890000E-8	0.001641
6.895000E-8	0.001648
6.900000E-8	0.001422
6.905000E-8	0.001539
6.910000E-8	0.001570
6.915000E-8	0.001406
6.920000E-8	0.001328
6.925000E-8	0.001430
6.930000E-8	0.001313
6.935000E-8	0.001547
6.940000E-8	0.001383
6.945000E-8	0.001398
6.950000E-8	0.001273
6.955000E-8	0.001461
6.960000E-8	0.001398
6.965000E-8	0.001500
6.970000E-8	0.001453
6.975000E-8	0.001625
6.980000E-8	0.001914
6.985000E-8	0.001969
6.990000E-8	0.002070
6.995000E-8	0.002039
7.000000E-8	0.002031
7.005000E-8	0.002039
7.010000E-8	0.001977
7.015000E-8	0.001758
7.020000E-8	0.001531
7.025000E-8	0.001352
7.030000E-8	0.001203
7.035000E-8	0.001281
7.040000E-8	0.001039
7.045000E-8	0.001141
7.050000E-8	0.001000
7.055000E-8	0.001148
7.060000E-8	0.001000
7.065000E-8	0.001086
7.070000E-8	0.001047
7.075000E-8	0.001187
7.080000E-8	0.001297
7.085000E-8	0.001266
7.090000E-8	0.001273
7.095000E-8	0.001375
7.100000E-8	0.001602
7.105000E-8	0.001781
7.110000E-8	0.001867
7.115000E-8	0.002094
7.120000E-8	0.002047
7.125000E-8	0.002312
7.130000E-8	0.002203
7.135000E-8	0.002336
7.140000E-8	0.002188
7.145000E-8	0.002148
7.150000E-8	0.001844
7.155000E-8	0.002047
7.160000E-8	0.001805
7.165000E-8	0.001641
7.170000E-8	0.001383
7.175000E-8	0.001406
7.180000E-8	0.001250
7.185000E-8	0.001203
7.190000E-8	0.001133
7.195000E-8	0.001203
7.200000E-8	0.000969
7.205000E-8	0.001078
7.210000E-8	0.000992
7.215000E-8	0.001063
7.220000E-8	0.001117
7.225000E-8	0.001164
7.230000E-8	0.001102
7.235000E-8	0.001383
7.240000E-8	0.001453
7.245000E-8	0.001508
7.250000E-8	0.001719
7.255000E-8	0.001734
7.260000E-8	0.001773
7.265000E-8	0.001992
7.270000E-8	0.002078
7.275000E-8	0.002031
7.280000E-8	0.001984
7.285000E-8	0.001891
7.290000E-8	0.001641
7.295000E-8	0.001625
7.300000E-8	0.001406
7.305000E-8	0.001367
7.310000E-8	0.001250
7.315000E-8	0.001258
7.320000E-8	0.000984
7.325000E-8	0.001078
7.330000E-8	0.001078
7.335000E-8	0.001000
7.340000E-8	0.001258
7.345000E-8	0.001422
7.350000E-8	0.001336
7.355000E-8	0.001328
7.360000E-8	0.001203
7.365000E-8	0.001242
7.370000E-8	0.001297
7.375000E-8	0.001367
7.380000E-8	0.001148
7.385000E-8	0.001477
7.390000E-8	0.001187
7.395000E-8	0.001500
7.400000E-8	0.001500
7.405000E-8	0.001617
7.410000E-8	0.001750
7.415000E-8	0.001563
7.420000E-8	0.001445
7.425000E-8	0.001531
7.430000E-8	0.001328
7.435000E-8	0.001281
7.440000E-8	0.001039
7.445000E-8	0.001023
7.450000E-8	0.000844
7.455000E-8	0.000695
7.460000E-8	0.000836
7.465000E-8	0.000781
7.470000E-8	0.000797
7.475000E-8	0.000875
7.480000E-8	0.001000
7.485000E-8	0.001234
7.490000E-8	0.001180
7.495000E-8	0.001555
7.500000E-8	0.001578
7.505000E-8	0.001742
7.510000E-8	0.002047
7.515000E-8	0.002203
7.520000E-8	0.002156
7.525000E-8	0.002211
7.530000E-8	0.002117
7.535000E-8	0.002125
7.540000E-8	0.001750
7.545000E-8	0.001813
7.550000E-8	0.001523
7.555000E-8	0.001406
7.560000E-8	0.001070
7.565000E-8	0.001047
7.570000E-8	0.000992
7.575000E-8	0.001102
7.580000E-8	0.000898
7.585000E-8	0.001109
7.590000E-8	0.001000
7.595000E-8	0.001109
7.600000E-8	0.001063
7.605000E-8	0.001391
7.610000E-8	0.001320
7.615000E-8	0.001477
7.620000E-8	0.001555
7.625000E-8	0.001742
7.630000E-8	0.001727
7.635000E-8	0.001781
7.640000E-8	0.001719
7.645000E-8	0.001813
7.650000E-8	0.001703
7.655000E-8	0.001805
7.660000E-8	0.001617
7.665000E-8	0.001703
7.670000E-8	0.001516
7.675000E-8	0.001539
7.680000E-8	0.001375
7.685000E-8	0.001430
7.690000E-8	0.001320
7.695000E-8	0.001109
7.700000E-8	0.000977
7.705000E-8	0.001070
7.710000E-8	0.000891
7.715000E-8	0.000766
7.720000E-8	0.000656
7.725000E-8	0.000859
7.730000E-8	0.000844
7.735000E-8	0.000859
7.740000E-8	0.000930
7.745000E-8	0.001125
7.750000E-8	0.001063
7.755000E-8	0.001227
7.760000E-8	0.001273
7.765000E-8	0.001602
7.770000E-8	0.001664
7.775000E-8	0.001805
7.780000E-8	0.001781
7.785000E-8	0.001852
7.790000E-8	0.001719
7.795000E-8	0.001852
7.800000E-8	0.001859
7.805000E-8	0.002016
7.810000E-8	0.001844
7.815000E-8	0.001844
7.820000E-8	0.001914
7.825000E-8	0.001922
7.830000E-8	0.001875
7.835000E-8	0.001750
7.840000E-8	0.001570
7.845000E-8	0.001742
7.850000E-8	0.001711
7.855000E-8	0.001852
7.860000E-8	0.001422
7.865000E-8	0.001445
7.870000E-8	0.001187
7.875000E-8	0.001000
7.880000E-8	0.000984
7.885000E-8	0.001109
7.890000E-8	0.001055
7.895000E-8	0.001352
7.900000E-8	0.001367
7.905000E-8	0.001758
7.910000E-8	0.001711
7.915000E-8	0.001828
7.920000E-8	0.001555
7.925000E-8	0.001687
7.930000E-8	0.001563
7.935000E-8	0.001563
7.940000E-8	0.001414
7.945000E-8	0.001234
7.950000E-8	0.001141
7.955000E-8	0.001180
7.960000E-8	0.000836
7.965000E-8	0.000922
7.970000E-8	0.000859
7.975000E-8	0.000805
7.980000E-8	0.000609
7.985000E-8	0.000797
7.990000E-8	0.000953
7.995000E-8	0.001063
8.000000E-8	0.001195
8.005000E-8	0.001125
8.010000E-8	0.001102
8.015000E-8	0.001297
8.020000E-8	0.001234
8.025000E-8	0.001109
8.030000E-8	0.001344
8.035000E-8	0.001383
8.040000E-8	0.001445
8.045000E-8	0.001453
8.050000E-8	0.001609
8.055000E-8	0.001844
8.060000E-8	0.001719
8.065000E-8	0.002000
8.070000E-8	0.001750
8.075000E-8	0.001695
8.080000E-8	0.001563
8.085000E-8	0.001547
8.090000E-8	0.001477
8.095000E-8	0.001461
8.100000E-8	0.001023
8.105000E-8	0.001156
8.110000E-8	0.000953
8.115000E-8	0.001039
8.120000E-8	0.001086
8.125000E-8	0.001305
8.130000E-8	0.001211
8.135000E-8	0.001313
8.140000E-8	0.001336
8.145000E-8	0.001461
8.150000E-8	0.001461
8.155000E-8	0.001492
8.160000E-8	0.001422
8.165000E-8	0.001680
8.170000E-8	0.001570
8.175000E-8	0.001648
8.180000E-8	0.001687
8.185000E-8	0.001773
8.190000E-8	0.001602
8.195000E-8	0.001828
8.200000E-8	0.001594
8.205000E-8	0.001516
8.210000E-8	0.001359
8.215000E-8	0.001445
8.220000E-8	0.001266
8.225000E-8	0.001328
8.230000E-8	0.001055
8.235000E-8	0.000977
8.240000E-8	0.000773
8.245000E-8	0.000859
8.250000E-8	0.000813
8.255000E-8	0.000898
8.260000E-8	0.000937
8.265000E-8	0.001273
8.270000E-8	0.001297
8.275000E-8	0.001586
8.280000E-8	0.001523
8.285000E-8	0.001820
8.290000E-8	0.001781
8.295000E-8	0.001891
8.300000E-8	0.001766
8.305000E-8	0.001727
8.310000E-8	0.001773
8.315000E-8	0.001914
8.320000E-8	0.001656
8.325000E-8	0.001750
8.330000E-8	0.001414
8.335000E-8	0.001375
8.340000E-8	0.001203
8.345000E-8	0.001391
8.350000E-8	0.001297
8.355000E-8	0.001281
8.360000E-8	0.001258
8.365000E-8	0.001484
8.370000E-8	0.001211
8.375000E-8	0.001320
8.380000E-8	0.001203
8.385000E-8	0.001242
8.390000E-8	0.001008
8.395000E-8	0.001039
8.400000E-8	0.000859
8.405000E-8	0.000984
8.410000E-8	0.000977
8.415000E-8	0.001148
8.420000E-8	0.001070
8.425000E-8	0.001242
8.430000E-8	0.001258
8.435000E-8	0.001445
8.440000E-8	0.001437
8.445000E-8	0.001531
8.450000E-8	0.001500
8.455000E-8	0.001859
8.460000E-8	0.001969
8.465000E-8	0.001937
8.470000E-8	0.001883
8.475000E-8	0.001797
8.480000E-8	0.001813
8.485000E-8	0.001703
8.490000E-8	0.001508
8.495000E-8	0.001414
8.500000E-8	0.001219
8.505000E-8	0.001242
8.510000E-8	0.001078
8.515000E-8	0.000867
8.520000E-8	0.000727
8.525000E-8	0.000750
8.530000E-8	0.000633
8.535000E-8	0.000883
8.540000E-8	0.000945
8.545000E-8	0.001336
8.550000E-8	0.001430
8.555000E-8	0.001508
8.560000E-8	0.001711
8.565000E-8	0.001859
8.570000E-8	0.001930
8.575000E-8	0.001836
8.580000E-8	0.001734
8.585000E-8	0.001750
8.590000E-8	0.001648
8.595000E-8	0.001617
8.600000E-8	0.001492
8.605000E-8	0.001266
8.610000E-8	0.001078
8.615000E-8	0.001023
8.620000E-8	0.000859
8.625000E-8	0.000891
8.630000E-8	0.000641
8.635000E-8	0.000836
8.640000E-8	0.000711
8.645000E-8	0.000891
8.650000E-8	0.000914
8.655000E-8	0.001180
8.660000E-8	0.001328
8.665000E-8	0.001531
8.670000E-8	0.001391
8.675000E-8	0.001523
8.680000E-8	0.001250
8.685000E-8	0.001500
8.690000E-8	0.001367
8.695000E-8	0.001602
8.700000E-8	0.001414
8.705000E-8	0.001586
8.710000E-8	0.001797
8.715000E-8	0.001984
8.720000E-8	0.001859
8.725000E-8	0.002008
8.730000E-8	0.001789
8.735000E-8	0.001742
8.740000E-8	0.001656
8.745000E-8	0.001656
8.750000E-8	0.001484
8.755000E-8	0.001633
8.760000E-8	0.001367
8.765000E-8	0.001383
8.770000E-8	0.001195
8.775000E-8	0.001086
8.780000E-8	0.001086
8.785000E-8	0.001172
8.790000E-8	0.001211
8.795000E-8	0.001484
8.800000E-8	0.001617
8.805000E-8	0.001875
8.810000E-8	0.001844
8.815000E-8	0.001711
8.820000E-8	0.001539
8.825000E-8	0.001656
8.830000E-8	0.001625
8.835000E-8	0.001711
8.840000E-8	0.001570
8.845000E-8	0.001797
8.850000E-8	0.001578
8.855000E-8	0.001469
8.860000E-8	0.001406
8.865000E-8	0.001445
8.870000E-8	0.001508
8.875000E-8	0.001531
8.880000E-8	0.001570
8.885000E-8	0.001484
8.890000E-8	0.001687
8.895000E-8	0.001555
8.900000E-8	0.001523
8.905000E-8	0.001602
8.910000E-8	0.001523
8.915000E-8	0.001563
8.920000E-8	0.001383
8.925000E-8	0.001430
8.930000E-8	0.001484
8.935000E-8	0.001352
8.940000E-8	0.001344
8.945000E-8	0.001328
8.950000E-8	0.001281
8.955000E-8	0.001391
8.960000E-8	0.001406
8.965000E-8	0.001648
8.970000E-8	0.001437
8.975000E-8	0.001422
8.980000E-8	0.001563
8.985000E-8	0.001469
8.990000E-8	0.001242
8.995000E-8	0.001242
9.000000E-8	0.001203
9.005000E-8	0.001398
9.010000E-8	0.001203
9.015000E-8	0.001219
9.020000E-8	0.001320
9.025000E-8	0.001367
9.030000E-8	0.001445
9.035000E-8	0.001508
9.040000E-8	0.001367
9.045000E-8	0.001625
9.050000E-8	0.001445
9.055000E-8	0.001289
9.060000E-8	0.001227
9.065000E-8	0.001469
9.070000E-8	0.001289
9.075000E-8	0.001352
9.080000E-8	0.001266
9.085000E-8	0.001555
9.090000E-8	0.001547
9.095000E-8	0.001570
9.100000E-8	0.001727
9.105000E-8	0.001656
9.110000E-8	0.001477
9.115000E-8	0.001578
9.120000E-8	0.001422
9.125000E-8	0.001594
9.130000E-8	0.001367
9.135000E-8	0.001203
9.140000E-8	0.001070
9.145000E-8	0.001023
9.150000E-8	0.001234
9.155000E-8	0.001227
9.160000E-8	0.001281
9.165000E-8	0.001180
9.170000E-8	0.001203
9.175000E-8	0.001484
9.180000E-8	0.001320
9.185000E-8	0.001406
9.190000E-8	0.001531
9.195000E-8	0.001586
9.200000E-8	0.001398
9.205000E-8	0.001531
9.210000E-8	0.001555
9.215000E-8	0.001484
9.220000E-8	0.001508
9.225000E-8	0.001539
9.230000E-8	0.001508
9.235000E-8	0.001461
9.240000E-8	0.001687
9.245000E-8	0.001656
9.250000E-8	0.001500
9.255000E-8	0.001563
9.260000E-8	0.001242
9.265000E-8	0.001344
9.270000E-8	0.001320
9.275000E-8	0.001195
9.280000E-8	0.001195
9.285000E-8	0.001078
9.290000E-8	0.001117
9.295000E-8	0.001187
9.300000E-8	0.001109
9.305000E-8	0.001328
9.310000E-8	0.001305
9.315000E-8	0.001414
9.320000E-8	0.001375
9.325000E-8	0.001586
9.330000E-8	0.001586
9.335000E-8	0.001625
9.340000E-8	0.001461
9.345000E-8	0.001492
9.350000E-8	0.001594
9.355000E-8	0.001602
9.360000E-8	0.001773
9.365000E-8	0.001891
9.370000E-8	0.001758
9.375000E-8	0.001820
9.380000E-8	0.001930
9.385000E-8	0.002094
9.390000E-8	0.001805
9.395000E-8	0.001836
9.400000E-8	0.001719
9.405000E-8	0.001695
9.410000E-8	0.001328
9.415000E-8	0.001211
9.420000E-8	0.001047
9.425000E-8	0.001141
9.430000E-8	0.000891
9.435000E-8	0.000930
9.440000E-8	0.000883
9.445000E-8	0.001148
9.450000E-8	0.001273
9.455000E-8	0.001453
9.460000E-8	0.001437
9.465000E-8	0.001531
9.470000E-8	0.001516
9.475000E-8	0.001734
9.480000E-8	0.001672
9.485000E-8	0.001656
9.490000E-8	0.001578
9.495000E-8	0.001555
9.500000E-8	0.001406
9.505000E-8	0.001461
9.510000E-8	0.001383
9.515000E-8	0.001578
9.520000E-8	0.001313
9.525000E-8	0.001453
9.530000E-8	0.001500
9.535000E-8	0.001453
9.540000E-8	0.001328
9.545000E-8	0.001281
9.550000E-8	0.001070
9.555000E-8	0.001406
9.560000E-8	0.001156
9.565000E-8	0.001437
9.570000E-8	0.001391
9.575000E-8	0.001648
9.580000E-8	0.001531
9.585000E-8	0.001617
9.590000E-8	0.001594
9.595000E-8	0.001617
9.600000E-8	0.001719
9.605000E-8	0.001844
9.610000E-8	0.001711
9.615000E-8	0.001758
9.620000E-8	0.001805
9.625000E-8	0.001781
9.630000E-8	0.001695
9.635000E-8	0.001734
9.640000E-8	0.001492
9.645000E-8	0.001617
9.650000E-8	0.001172
9.655000E-8	0.001234
9.660000E-8	0.001289
9.665000E-8	0.001398
9.670000E-8	0.001297
9.675000E-8	0.001328
9.680000E-8	0.001406
9.685000E-8	0.001445
9.690000E-8	0.001633
9.695000E-8	0.001594
9.700000E-8	0.001391
9.705000E-8	0.001477
9.710000E-8	0.001430
9.715000E-8	0.001508
9.720000E-8	0.001445
9.725000E-8	0.001516
9.730000E-8	0.001656
9.735000E-8	0.001430
9.740000E-8	0.001570
9.745000E-8	0.001563
9.750000E-8	0.001539
9.755000E-8	0.001383
9.760000E-8	0.001484
9.765000E-8	0.001477
9.770000E-8	0.001430
9.775000E-8	0.001484
9.780000E-8	0.001305
9.785000E-8	0.001234
9.790000E-8	0.001141
9.795000E-8	0.001148
9.800000E-8	0.000891
9.805000E-8	0.001133
9.810000E-8	0.001000
9.815000E-8	0.001023
9.820000E-8	0.001016
9.825000E-8	0.001125
9.830000E-8	0.000945
9.835000E-8	0.001063
9.840000E-8	0.001195
9.845000E-8	0.001227
9.850000E-8	0.001359
9.855000E-8	0.001563
9.860000E-8	0.001492
9.865000E-8	0.001656
9.870000E-8	0.001648
9.875000E-8	0.001711
9.880000E-8	0.001703
9.885000E-8	0.001664
9.890000E-8	0.001609
9.895000E-8	0.001742
9.900000E-8	0.001727
9.905000E-8	0.001820
9.910000E-8	0.001828
9.915000E-8	0.001813
9.920000E-8	0.001414
9.925000E-8	0.001430
9.930000E-8	0.001273
9.935000E-8	0.001258
9.940000E-8	0.001227
9.945000E-8	0.001273
9.950000E-8	0.001180
9.955000E-8	0.001148
9.960000E-8	0.001102
9.965000E-8	0.001195
9.970000E-8	0.001258
9.975000E-8	0.001477
9.980000E-8	0.001500
9.985000E-8	0.001695
9.990000E-8	0.001586
9.995000E-8	0.001617
