LabVIEW Measurement	
Writer_Version	2
Reader_Version	2
Separator	Tab
Decimal_Separator	.
Multi_Headings	No
X_Columns	Multi
Time_Pref	Relative
Operator	TG lab
Date	2015/03/06
Time	18:13:10.6549835205078125
***End_of_Header***	
	
Channels	1	
Samples	2000	
Date	2015/03/06	
Time	18:13:10.6549835205078125	
X_Dimension	Time	
X0	0.0000000000000000E+0	
Delta_X	5.000000E-11	
***End_of_Header***		
X_Value	Untitled	Comment
0.000000	0.003047
5.000000E-11	0.002950
1.000000E-10	0.002922
1.500000E-10	0.002991
2.000000E-10	0.003106
2.500000E-10	0.003053
3.000000E-10	0.003116
3.500000E-10	0.003144
4.000000E-10	0.003197
4.500000E-10	0.003134
5.000000E-10	0.003097
5.500000E-10	0.003159
6.000000E-10	0.003097
6.500000E-10	0.003072
7.000000E-10	0.003003
7.500000E-10	0.002950
8.000000E-10	0.002894
8.500000E-10	0.002806
9.000000E-10	0.002694
9.500000E-10	0.002822
1.000000E-9	0.002719
1.050000E-9	0.002816
1.100000E-9	0.002847
1.150000E-9	0.002966
1.200000E-9	0.002975
1.250000E-9	0.002953
1.300000E-9	0.002813
1.350000E-9	0.002934
1.400000E-9	0.002800
1.450000E-9	0.002669
1.500000E-9	0.002737
1.550000E-9	0.002563
1.600000E-9	0.002400
1.650000E-9	0.002434
1.700000E-9	0.002450
1.750000E-9	0.002444
1.800000E-9	0.002531
1.850000E-9	0.002619
1.900000E-9	0.002706
1.950000E-9	0.002772
2.000000E-9	0.002750
2.050000E-9	0.002703
2.100000E-9	0.002578
2.150000E-9	0.002609
2.200000E-9	0.002594
2.250000E-9	0.002506
2.300000E-9	0.002500
2.350000E-9	0.002394
2.400000E-9	0.002463
2.450000E-9	0.002531
2.500000E-9	0.002466
2.550000E-9	0.002494
2.600000E-9	0.002444
2.650000E-9	0.002469
2.700000E-9	0.002378
2.750000E-9	0.002400
2.800000E-9	0.002447
2.850000E-9	0.002394
2.900000E-9	0.002366
2.950000E-9	0.002425
3.000000E-9	0.002338
3.050000E-9	0.002272
3.100000E-9	0.002253
3.150000E-9	0.002322
3.200000E-9	0.002269
3.250000E-9	0.002256
3.300000E-9	0.002266
3.350000E-9	0.002091
3.400000E-9	0.002116
3.450000E-9	0.002213
3.500000E-9	0.002144
3.550000E-9	0.002025
3.600000E-9	0.002019
3.650000E-9	0.002116
3.700000E-9	0.002022
3.750000E-9	0.002122
3.800000E-9	0.002103
3.850000E-9	0.002213
3.900000E-9	0.002219
3.950000E-9	0.002316
4.000000E-9	0.002444
4.050000E-9	0.002631
4.100000E-9	0.002822
4.150000E-9	0.002953
4.200000E-9	0.003028
4.250000E-9	0.003263
4.300000E-9	0.003328
4.350000E-9	0.003663
4.400000E-9	0.003863
4.450000E-9	0.004063
4.500000E-9	0.004278
4.550000E-9	0.004550
4.600000E-9	0.004772
4.650000E-9	0.004956
4.700000E-9	0.004897
4.750000E-9	0.004794
4.800000E-9	0.004153
4.850000E-9	0.003316
4.900000E-9	0.001950
4.950000E-9	9.062500E-5
5.000000E-9	-0.002303
5.050000E-9	-0.005175
5.100000E-9	-0.008581
5.150000E-9	-0.012166
5.200000E-9	-0.016075
5.250000E-9	-0.020025
5.300000E-9	-0.023866
5.350000E-9	-0.027422
5.400000E-9	-0.030553
5.450000E-9	-0.033347
5.500000E-9	-0.035522
5.550000E-9	-0.037072
5.600000E-9	-0.038150
5.650000E-9	-0.038503
5.700000E-9	-0.038350
5.750000E-9	-0.037681
5.800000E-9	-0.036566
5.850000E-9	-0.035069
5.900000E-9	-0.033166
5.950000E-9	-0.031031
6.000000E-9	-0.028863
6.050000E-9	-0.026588
6.100000E-9	-0.024553
6.150000E-9	-0.022669
6.200000E-9	-0.021147
6.250000E-9	-0.020066
6.300000E-9	-0.019506
6.350000E-9	-0.019213
6.400000E-9	-0.019350
6.450000E-9	-0.019675
6.500000E-9	-0.020394
6.550000E-9	-0.021069
6.600000E-9	-0.021916
6.650000E-9	-0.022622
6.700000E-9	-0.023384
6.750000E-9	-0.023966
6.800000E-9	-0.024431
6.850000E-9	-0.024713
6.900000E-9	-0.024975
6.950000E-9	-0.024872
7.000000E-9	-0.024694
7.050000E-9	-0.024200
7.100000E-9	-0.023428
7.150000E-9	-0.022375
7.200000E-9	-0.020991
7.250000E-9	-0.019622
7.300000E-9	-0.018109
7.350000E-9	-0.016366
7.400000E-9	-0.014834
7.450000E-9	-0.013378
7.500000E-9	-0.012078
7.550000E-9	-0.011059
7.600000E-9	-0.010425
7.650000E-9	-0.010034
7.700000E-9	-0.009997
7.750000E-9	-0.010256
7.800000E-9	-0.010700
7.850000E-9	-0.011269
7.900000E-9	-0.012028
7.950000E-9	-0.012791
8.000000E-9	-0.013572
8.050000E-9	-0.014334
8.100000E-9	-0.015009
8.150000E-9	-0.015691
8.200000E-9	-0.016072
8.250000E-9	-0.016128
8.300000E-9	-0.016037
8.350000E-9	-0.015681
8.400000E-9	-0.015069
8.450000E-9	-0.014141
8.500000E-9	-0.013194
8.550000E-9	-0.011928
8.600000E-9	-0.010725
8.650000E-9	-0.009447
8.700000E-9	-0.008175
8.750000E-9	-0.007131
8.800000E-9	-0.006106
8.850000E-9	-0.005428
8.900000E-9	-0.004778
8.950000E-9	-0.004447
9.000000E-9	-0.004500
9.050000E-9	-0.004613
9.100000E-9	-0.004981
9.150000E-9	-0.005553
9.200000E-9	-0.006250
9.250000E-9	-0.006988
9.300000E-9	-0.007819
9.350000E-9	-0.008712
9.400000E-9	-0.009338
9.450000E-9	-0.010131
9.500000E-9	-0.010513
9.550000E-9	-0.010922
9.600000E-9	-0.011019
9.650000E-9	-0.010803
9.700000E-9	-0.010478
9.750000E-9	-0.009869
9.800000E-9	-0.009213
9.850000E-9	-0.008416
9.900000E-9	-0.007513
9.950000E-9	-0.006381
1.000000E-8	-0.005372
1.005000E-8	-0.004356
1.010000E-8	-0.003369
1.015000E-8	-0.002553
1.020000E-8	-0.001953
1.025000E-8	-0.001422
1.030000E-8	-0.001191
1.035000E-8	-0.001116
1.040000E-8	-0.001481
1.045000E-8	-0.001884
1.050000E-8	-0.002363
1.055000E-8	-0.003128
1.060000E-8	-0.003825
1.065000E-8	-0.004619
1.070000E-8	-0.005366
1.075000E-8	-0.006006
1.080000E-8	-0.006669
1.085000E-8	-0.007034
1.090000E-8	-0.007278
1.095000E-8	-0.007409
1.100000E-8	-0.007325
1.105000E-8	-0.006950
1.110000E-8	-0.006463
1.115000E-8	-0.005750
1.120000E-8	-0.005031
1.125000E-8	-0.004047
1.130000E-8	-0.003116
1.135000E-8	-0.001997
1.140000E-8	-0.001103
1.145000E-8	-0.000256
1.150000E-8	0.000412
1.155000E-8	0.000913
1.160000E-8	0.001200
1.165000E-8	0.001341
1.170000E-8	0.001238
1.175000E-8	0.000938
1.180000E-8	0.000400
1.185000E-8	-0.000463
1.190000E-8	-0.001316
1.195000E-8	-0.002091
1.200000E-8	-0.003119
1.205000E-8	-0.003813
1.210000E-8	-0.004506
1.215000E-8	-0.005022
1.220000E-8	-0.005384
1.225000E-8	-0.005578
1.230000E-8	-0.005537
1.235000E-8	-0.005316
1.240000E-8	-0.004994
1.245000E-8	-0.004459
1.250000E-8	-0.003834
1.255000E-8	-0.002988
1.260000E-8	-0.002153
1.265000E-8	-0.001281
1.270000E-8	-0.000241
1.275000E-8	0.000672
1.280000E-8	0.001500
1.285000E-8	0.002206
1.290000E-8	0.002669
1.295000E-8	0.002994
1.300000E-8	0.003053
1.305000E-8	0.002934
1.310000E-8	0.002600
1.315000E-8	0.001903
1.320000E-8	0.001050
1.325000E-8	0.000169
1.330000E-8	-0.000772
1.335000E-8	-0.001797
1.340000E-8	-0.002684
1.345000E-8	-0.003306
1.350000E-8	-0.003766
1.355000E-8	-0.004056
1.360000E-8	-0.004281
1.365000E-8	-0.004094
1.370000E-8	-0.003831
1.375000E-8	-0.003322
1.380000E-8	-0.002662
1.385000E-8	-0.001941
1.390000E-8	-0.001028
1.395000E-8	-4.062500E-5
1.400000E-8	0.000734
1.405000E-8	0.001687
1.410000E-8	0.002437
1.415000E-8	0.003191
1.420000E-8	0.003656
1.425000E-8	0.004141
1.430000E-8	0.004131
1.435000E-8	0.004094
1.440000E-8	0.003744
1.445000E-8	0.003188
1.450000E-8	0.002391
1.455000E-8	0.001550
1.460000E-8	0.000609
1.465000E-8	-0.000287
1.470000E-8	-0.001359
1.475000E-8	-0.002184
1.480000E-8	-0.002959
1.485000E-8	-0.003472
1.490000E-8	-0.003806
1.495000E-8	-0.003731
1.500000E-8	-0.003578
1.505000E-8	-0.003059
1.510000E-8	-0.002491
1.515000E-8	-0.001556
1.520000E-8	-0.000519
1.525000E-8	0.000591
1.530000E-8	0.001678
1.535000E-8	0.002703
1.540000E-8	0.003519
1.545000E-8	0.004438
1.550000E-8	0.004972
1.555000E-8	0.005347
1.560000E-8	0.005409
1.565000E-8	0.005225
1.570000E-8	0.004866
1.575000E-8	0.004250
1.580000E-8	0.003481
1.585000E-8	0.002609
1.590000E-8	0.001538
1.595000E-8	0.000628
1.600000E-8	-0.000297
1.605000E-8	-0.001169
1.610000E-8	-0.001997
1.615000E-8	-0.002469
1.620000E-8	-0.002775
1.625000E-8	-0.002747
1.630000E-8	-0.002547
1.635000E-8	-0.002000
1.640000E-8	-0.001397
1.645000E-8	-0.000625
1.650000E-8	0.000325
1.655000E-8	0.001350
1.660000E-8	0.002397
1.665000E-8	0.003456
1.670000E-8	0.004262
1.675000E-8	0.004903
1.680000E-8	0.005472
1.685000E-8	0.005687
1.690000E-8	0.005759
1.695000E-8	0.005600
1.700000E-8	0.005306
1.705000E-8	0.004753
1.710000E-8	0.004003
1.715000E-8	0.003122
1.720000E-8	0.002159
1.725000E-8	0.001238
1.730000E-8	0.000247
1.735000E-8	-0.000566
1.740000E-8	-0.001388
1.745000E-8	-0.001897
1.750000E-8	-0.002288
1.755000E-8	-0.002319
1.760000E-8	-0.002178
1.765000E-8	-0.001769
1.770000E-8	-0.001119
1.775000E-8	-0.000375
1.780000E-8	0.000497
1.785000E-8	0.001428
1.790000E-8	0.002434
1.795000E-8	0.003338
1.800000E-8	0.004112
1.805000E-8	0.004628
1.810000E-8	0.005156
1.815000E-8	0.005609
1.820000E-8	0.005728
1.825000E-8	0.005694
1.830000E-8	0.005359
1.835000E-8	0.005016
1.840000E-8	0.004363
1.845000E-8	0.003713
1.850000E-8	0.002838
1.855000E-8	0.001853
1.860000E-8	0.001041
1.865000E-8	0.000266
1.870000E-8	-0.000500
1.875000E-8	-0.001056
1.880000E-8	-0.001463
1.885000E-8	-0.001544
1.890000E-8	-0.001450
1.895000E-8	-0.001094
1.900000E-8	-0.000700
1.905000E-8	-7.187500E-5
1.910000E-8	0.000716
1.915000E-8	0.001694
1.920000E-8	0.002419
1.925000E-8	0.003353
1.930000E-8	0.004147
1.935000E-8	0.004869
1.940000E-8	0.005350
1.945000E-8	0.005694
1.950000E-8	0.005956
1.955000E-8	0.005975
1.960000E-8	0.005825
1.965000E-8	0.005387
1.970000E-8	0.004859
1.975000E-8	0.004288
1.980000E-8	0.003625
1.985000E-8	0.002869
1.990000E-8	0.002031
1.995000E-8	0.001388
2.000000E-8	0.000612
2.005000E-8	3.750000E-5
2.010000E-8	-0.000388
2.015000E-8	-0.000644
2.020000E-8	-0.000691
2.025000E-8	-0.000528
2.030000E-8	-0.000372
2.035000E-8	0.000159
2.040000E-8	0.000881
2.045000E-8	0.001559
2.050000E-8	0.002303
2.055000E-8	0.002988
2.060000E-8	0.003725
2.065000E-8	0.004338
2.070000E-8	0.004928
2.075000E-8	0.005319
2.080000E-8	0.005428
2.085000E-8	0.005531
2.090000E-8	0.005397
2.095000E-8	0.005178
2.100000E-8	0.004741
2.105000E-8	0.004278
2.110000E-8	0.003606
2.115000E-8	0.003094
2.120000E-8	0.002406
2.125000E-8	0.001663
2.130000E-8	0.001056
2.135000E-8	0.000506
2.140000E-8	-4.375000E-5
2.145000E-8	-0.000237
2.150000E-8	-0.000509
2.155000E-8	-0.000400
2.160000E-8	-0.000259
2.165000E-8	0.000156
2.170000E-8	0.000547
2.175000E-8	0.001228
2.180000E-8	0.001781
2.185000E-8	0.002609
2.190000E-8	0.003319
2.195000E-8	0.004097
2.200000E-8	0.004675
2.205000E-8	0.005175
2.210000E-8	0.005506
2.215000E-8	0.005781
2.220000E-8	0.005763
2.225000E-8	0.005641
2.230000E-8	0.005334
2.235000E-8	0.004978
2.240000E-8	0.004316
2.245000E-8	0.003550
2.250000E-8	0.002828
2.255000E-8	0.001988
2.260000E-8	0.001206
2.265000E-8	0.000531
2.270000E-8	5.000000E-5
2.275000E-8	-0.000269
2.280000E-8	-0.000453
2.285000E-8	-0.000522
2.290000E-8	-0.000400
2.295000E-8	-5.937500E-5
2.300000E-8	0.000350
2.305000E-8	0.001091
2.310000E-8	0.001788
2.315000E-8	0.002631
2.320000E-8	0.003278
2.325000E-8	0.004069
2.330000E-8	0.004766
2.335000E-8	0.005319
2.340000E-8	0.005675
2.345000E-8	0.005934
2.350000E-8	0.005891
2.355000E-8	0.005763
2.360000E-8	0.005459
2.365000E-8	0.005038
2.370000E-8	0.004509
2.375000E-8	0.003834
2.380000E-8	0.003097
2.385000E-8	0.002519
2.390000E-8	0.001641
2.395000E-8	0.000991
2.400000E-8	0.000403
2.405000E-8	-3.750000E-5
2.410000E-8	-0.000416
2.415000E-8	-0.000484
2.420000E-8	-0.000506
2.425000E-8	-0.000275
2.430000E-8	6.250000E-6
2.435000E-8	0.000603
2.440000E-8	0.001172
2.445000E-8	0.001937
2.450000E-8	0.002622
2.455000E-8	0.003522
2.460000E-8	0.004053
2.465000E-8	0.004569
2.470000E-8	0.005031
2.475000E-8	0.005416
2.480000E-8	0.005591
2.485000E-8	0.005522
2.490000E-8	0.005441
2.495000E-8	0.005206
2.500000E-8	0.004703
2.505000E-8	0.004209
2.510000E-8	0.003622
2.515000E-8	0.002941
2.520000E-8	0.002200
2.525000E-8	0.001581
2.530000E-8	0.001044
2.535000E-8	0.000638
2.540000E-8	0.000209
2.545000E-8	-9.375000E-6
2.550000E-8	3.125000E-6
2.555000E-8	0.000119
2.560000E-8	0.000378
2.565000E-8	0.000934
2.570000E-8	0.001494
2.575000E-8	0.002134
2.580000E-8	0.002919
2.585000E-8	0.003597
2.590000E-8	0.004203
2.595000E-8	0.004847
2.600000E-8	0.005112
2.605000E-8	0.005466
2.610000E-8	0.005516
2.615000E-8	0.005509
2.620000E-8	0.005400
2.625000E-8	0.005100
2.630000E-8	0.004600
2.635000E-8	0.004106
2.640000E-8	0.003509
2.645000E-8	0.002884
2.650000E-8	0.002341
2.655000E-8	0.001900
2.660000E-8	0.001384
2.665000E-8	0.000944
2.670000E-8	0.000616
2.675000E-8	0.000419
2.680000E-8	0.000350
2.685000E-8	0.000444
2.690000E-8	0.000716
2.695000E-8	0.001025
2.700000E-8	0.001403
2.705000E-8	0.002038
2.710000E-8	0.002569
2.715000E-8	0.003319
2.720000E-8	0.003784
2.725000E-8	0.004497
2.730000E-8	0.005000
2.735000E-8	0.005422
2.740000E-8	0.005606
2.745000E-8	0.005656
2.750000E-8	0.005491
2.755000E-8	0.005250
2.760000E-8	0.004913
2.765000E-8	0.004431
2.770000E-8	0.003984
2.775000E-8	0.003425
2.780000E-8	0.002784
2.785000E-8	0.002172
2.790000E-8	0.001687
2.795000E-8	0.001300
2.800000E-8	0.000878
2.805000E-8	0.000734
2.810000E-8	0.000566
2.815000E-8	0.000572
2.820000E-8	0.000834
2.825000E-8	0.001053
2.830000E-8	0.001506
2.835000E-8	0.001991
2.840000E-8	0.002578
2.845000E-8	0.003281
2.850000E-8	0.003809
2.855000E-8	0.004422
2.860000E-8	0.004975
2.865000E-8	0.005197
2.870000E-8	0.005344
2.875000E-8	0.005400
2.880000E-8	0.005300
2.885000E-8	0.005216
2.890000E-8	0.004728
2.895000E-8	0.004291
2.900000E-8	0.003731
2.905000E-8	0.003256
2.910000E-8	0.002700
2.915000E-8	0.002153
2.920000E-8	0.001784
2.925000E-8	0.001406
2.930000E-8	0.001069
2.935000E-8	0.000972
2.940000E-8	0.000878
2.945000E-8	0.000947
2.950000E-8	0.000956
2.955000E-8	0.001294
2.960000E-8	0.001603
2.965000E-8	0.001944
2.970000E-8	0.002388
2.975000E-8	0.002994
2.980000E-8	0.003597
2.985000E-8	0.004097
2.990000E-8	0.004466
2.995000E-8	0.004788
3.000000E-8	0.004956
3.005000E-8	0.005047
3.010000E-8	0.005041
3.015000E-8	0.004925
3.020000E-8	0.004591
3.025000E-8	0.004231
3.030000E-8	0.003863
3.035000E-8	0.003422
3.040000E-8	0.002875
3.045000E-8	0.002472
3.050000E-8	0.001959
3.055000E-8	0.001653
3.060000E-8	0.001347
3.065000E-8	0.001172
3.070000E-8	0.001081
3.075000E-8	0.001091
3.080000E-8	0.001184
3.085000E-8	0.001403
3.090000E-8	0.001694
3.095000E-8	0.001994
3.100000E-8	0.002222
3.105000E-8	0.002553
3.110000E-8	0.002978
3.115000E-8	0.003425
3.120000E-8	0.003838
3.125000E-8	0.004278
3.130000E-8	0.004513
3.135000E-8	0.004825
3.140000E-8	0.005000
3.145000E-8	0.004988
3.150000E-8	0.004844
3.155000E-8	0.004747
3.160000E-8	0.004366
3.165000E-8	0.003994
3.170000E-8	0.003503
3.175000E-8	0.003028
3.180000E-8	0.002481
3.185000E-8	0.002019
3.190000E-8	0.001612
3.195000E-8	0.001253
3.200000E-8	0.000994
3.205000E-8	0.000794
3.210000E-8	0.000753
3.215000E-8	0.000853
3.220000E-8	0.001031
3.225000E-8	0.001338
3.230000E-8	0.001672
3.235000E-8	0.002128
3.240000E-8	0.002597
3.245000E-8	0.002959
3.250000E-8	0.003344
3.255000E-8	0.003894
3.260000E-8	0.004188
3.265000E-8	0.004275
3.270000E-8	0.004506
3.275000E-8	0.004716
3.280000E-8	0.004581
3.285000E-8	0.004484
3.290000E-8	0.004303
3.295000E-8	0.003972
3.300000E-8	0.003566
3.305000E-8	0.003266
3.310000E-8	0.002731
3.315000E-8	0.002328
3.320000E-8	0.001897
3.325000E-8	0.001466
3.330000E-8	0.001112
3.335000E-8	0.000963
3.340000E-8	0.000888
3.345000E-8	0.000881
3.350000E-8	0.000963
3.355000E-8	0.001222
3.360000E-8	0.001456
3.365000E-8	0.001916
3.370000E-8	0.002356
3.375000E-8	0.002900
3.380000E-8	0.003372
3.385000E-8	0.003791
3.390000E-8	0.004222
3.395000E-8	0.004537
3.400000E-8	0.004672
3.405000E-8	0.004803
3.410000E-8	0.004831
3.415000E-8	0.004709
3.420000E-8	0.004447
3.425000E-8	0.004181
3.430000E-8	0.003834
3.435000E-8	0.003491
3.440000E-8	0.002900
3.445000E-8	0.002556
3.450000E-8	0.002097
3.455000E-8	0.001744
3.460000E-8	0.001434
3.465000E-8	0.001375
3.470000E-8	0.001244
3.475000E-8	0.001306
3.480000E-8	0.001281
3.485000E-8	0.001431
3.490000E-8	0.001666
3.495000E-8	0.001981
3.500000E-8	0.002319
3.505000E-8	0.002719
3.510000E-8	0.003231
3.515000E-8	0.003541
3.520000E-8	0.003828
3.525000E-8	0.004184
3.530000E-8	0.004375
3.535000E-8	0.004491
3.540000E-8	0.004566
3.545000E-8	0.004537
3.550000E-8	0.004484
3.555000E-8	0.004259
3.560000E-8	0.004050
3.565000E-8	0.003631
3.570000E-8	0.003306
3.575000E-8	0.002969
3.580000E-8	0.002578
3.585000E-8	0.002134
3.590000E-8	0.001775
3.595000E-8	0.001669
3.600000E-8	0.001463
3.605000E-8	0.001475
3.610000E-8	0.001638
3.615000E-8	0.001666
3.620000E-8	0.001975
3.625000E-8	0.002172
3.630000E-8	0.002456
3.635000E-8	0.002875
3.640000E-8	0.003213
3.645000E-8	0.003444
3.650000E-8	0.003756
3.655000E-8	0.004134
3.660000E-8	0.004250
3.665000E-8	0.004272
3.670000E-8	0.004325
3.675000E-8	0.004303
3.680000E-8	0.004144
3.685000E-8	0.003981
3.690000E-8	0.003741
3.695000E-8	0.003438
3.700000E-8	0.003066
3.705000E-8	0.002744
3.710000E-8	0.002456
3.715000E-8	0.001944
3.720000E-8	0.001666
3.725000E-8	0.001525
3.730000E-8	0.001334
3.735000E-8	0.001313
3.740000E-8	0.001331
3.745000E-8	0.001494
3.750000E-8	0.001644
3.755000E-8	0.001978
3.760000E-8	0.002359
3.765000E-8	0.002813
3.770000E-8	0.003231
3.775000E-8	0.003659
3.780000E-8	0.004069
3.785000E-8	0.004413
3.790000E-8	0.004647
3.795000E-8	0.004803
3.800000E-8	0.004875
3.805000E-8	0.004756
3.810000E-8	0.004516
3.815000E-8	0.004319
3.820000E-8	0.003925
3.825000E-8	0.003675
3.830000E-8	0.003269
3.835000E-8	0.002894
3.840000E-8	0.002541
3.845000E-8	0.002291
3.850000E-8	0.002144
3.855000E-8	0.002022
3.860000E-8	0.001809
3.865000E-8	0.001831
3.870000E-8	0.001772
3.875000E-8	0.001800
3.880000E-8	0.001953
3.885000E-8	0.002194
3.890000E-8	0.002409
3.895000E-8	0.002763
3.900000E-8	0.003047
3.905000E-8	0.003344
3.910000E-8	0.003684
3.915000E-8	0.004041
3.920000E-8	0.004191
3.925000E-8	0.004413
3.930000E-8	0.004425
3.935000E-8	0.004466
3.940000E-8	0.004391
3.945000E-8	0.004250
3.950000E-8	0.004081
3.955000E-8	0.003775
3.960000E-8	0.003484
3.965000E-8	0.003194
3.970000E-8	0.002909
3.975000E-8	0.002713
3.980000E-8	0.002491
3.985000E-8	0.002309
3.990000E-8	0.002050
3.995000E-8	0.001934
4.000000E-8	0.001881
4.005000E-8	0.002028
4.010000E-8	0.002087
4.015000E-8	0.002225
4.020000E-8	0.002369
4.025000E-8	0.002481
4.030000E-8	0.002891
4.035000E-8	0.003172
4.040000E-8	0.003316
4.045000E-8	0.003497
4.050000E-8	0.003722
4.055000E-8	0.003903
4.060000E-8	0.004044
4.065000E-8	0.004166
4.070000E-8	0.004063
4.075000E-8	0.004119
4.080000E-8	0.003878
4.085000E-8	0.003634
4.090000E-8	0.003331
4.095000E-8	0.003106
4.100000E-8	0.002850
4.105000E-8	0.002638
4.110000E-8	0.002353
4.115000E-8	0.002166
4.120000E-8	0.002113
4.125000E-8	0.002072
4.130000E-8	0.001991
4.135000E-8	0.002103
4.140000E-8	0.002063
4.145000E-8	0.002100
4.150000E-8	0.002263
4.155000E-8	0.002466
4.160000E-8	0.002538
4.165000E-8	0.002859
4.170000E-8	0.003022
4.175000E-8	0.003297
4.180000E-8	0.003438
4.185000E-8	0.003475
4.190000E-8	0.003641
4.195000E-8	0.003881
4.200000E-8	0.003997
4.205000E-8	0.003878
4.210000E-8	0.003809
4.215000E-8	0.003622
4.220000E-8	0.003381
4.225000E-8	0.003178
4.230000E-8	0.002916
4.235000E-8	0.002534
4.240000E-8	0.002406
4.245000E-8	0.002263
4.250000E-8	0.001963
4.255000E-8	0.001853
4.260000E-8	0.001847
4.265000E-8	0.001778
4.270000E-8	0.001822
4.275000E-8	0.001997
4.280000E-8	0.001972
4.285000E-8	0.002141
4.290000E-8	0.002288
4.295000E-8	0.002556
4.300000E-8	0.002797
4.305000E-8	0.003078
4.310000E-8	0.003363
4.315000E-8	0.003550
4.320000E-8	0.003725
4.325000E-8	0.003750
4.330000E-8	0.003772
4.335000E-8	0.003847
4.340000E-8	0.003763
4.345000E-8	0.003625
4.350000E-8	0.003353
4.355000E-8	0.003147
4.360000E-8	0.002838
4.365000E-8	0.002613
4.370000E-8	0.002344
4.375000E-8	0.002209
4.380000E-8	0.002072
4.385000E-8	0.001972
4.390000E-8	0.001841
4.395000E-8	0.001816
4.400000E-8	0.001941
4.405000E-8	0.002116
4.410000E-8	0.002244
4.415000E-8	0.002400
4.420000E-8	0.002634
4.425000E-8	0.002834
4.430000E-8	0.003066
4.435000E-8	0.003250
4.440000E-8	0.003425
4.445000E-8	0.003709
4.450000E-8	0.003697
4.455000E-8	0.003831
4.460000E-8	0.003794
4.465000E-8	0.003878
4.470000E-8	0.003741
4.475000E-8	0.003484
4.480000E-8	0.003303
4.485000E-8	0.003188
4.490000E-8	0.002966
4.495000E-8	0.002831
4.500000E-8	0.002587
4.505000E-8	0.002356
4.510000E-8	0.002119
4.515000E-8	0.001947
4.520000E-8	0.001841
4.525000E-8	0.001684
4.530000E-8	0.001678
4.535000E-8	0.001731
4.540000E-8	0.001803
4.545000E-8	0.002016
4.550000E-8	0.002313
4.555000E-8	0.002491
4.560000E-8	0.002869
4.565000E-8	0.003228
4.570000E-8	0.003334
4.575000E-8	0.003678
4.580000E-8	0.003878
4.585000E-8	0.004112
4.590000E-8	0.004131
4.595000E-8	0.004147
4.600000E-8	0.004103
4.605000E-8	0.004103
4.610000E-8	0.003875
4.615000E-8	0.003691
4.620000E-8	0.003472
4.625000E-8	0.003250
4.630000E-8	0.002991
4.635000E-8	0.002722
4.640000E-8	0.002475
4.645000E-8	0.002309
4.650000E-8	0.002184
4.655000E-8	0.002159
4.660000E-8	0.002256
4.665000E-8	0.002397
4.670000E-8	0.002569
4.675000E-8	0.002894
4.680000E-8	0.003122
4.685000E-8	0.003281
4.690000E-8	0.003334
4.695000E-8	0.003613
4.700000E-8	0.003725
4.705000E-8	0.003881
4.710000E-8	0.003897
4.715000E-8	0.004006
4.720000E-8	0.003909
4.725000E-8	0.004006
4.730000E-8	0.003809
4.735000E-8	0.003709
4.740000E-8	0.003575
4.745000E-8	0.003316
4.750000E-8	0.003103
4.755000E-8	0.002956
4.760000E-8	0.002647
4.765000E-8	0.002384
4.770000E-8	0.002247
4.775000E-8	0.002234
4.780000E-8	0.002153
4.785000E-8	0.002134
4.790000E-8	0.002237
4.795000E-8	0.002353
4.800000E-8	0.002450
4.805000E-8	0.002581
4.810000E-8	0.002703
4.815000E-8	0.002866
4.820000E-8	0.003016
4.825000E-8	0.003169
4.830000E-8	0.003331
4.835000E-8	0.003478
4.840000E-8	0.003625
4.845000E-8	0.003691
4.850000E-8	0.003706
4.855000E-8	0.003841
4.860000E-8	0.003934
4.865000E-8	0.003903
4.870000E-8	0.003797
4.875000E-8	0.003738
4.880000E-8	0.003587
4.885000E-8	0.003372
4.890000E-8	0.003213
4.895000E-8	0.003106
4.900000E-8	0.002875
4.905000E-8	0.002634
4.910000E-8	0.002338
4.915000E-8	0.002366
4.920000E-8	0.002344
4.925000E-8	0.002406
4.930000E-8	0.002366
4.935000E-8	0.002606
4.940000E-8	0.002831
4.945000E-8	0.003063
4.950000E-8	0.003269
4.955000E-8	0.003472
4.960000E-8	0.003694
4.965000E-8	0.003916
4.970000E-8	0.003975
4.975000E-8	0.004063
4.980000E-8	0.004094
4.985000E-8	0.004150
4.990000E-8	0.004103
4.995000E-8	0.003953
5.000000E-8	0.003784
5.005000E-8	0.003647
5.010000E-8	0.003309
5.015000E-8	0.003019
5.020000E-8	0.002809
5.025000E-8	0.002625
5.030000E-8	0.002541
5.035000E-8	0.002441
5.040000E-8	0.002272
5.045000E-8	0.002281
5.050000E-8	0.002266
5.055000E-8	0.002244
5.060000E-8	0.002263
5.065000E-8	0.002469
5.070000E-8	0.002591
5.075000E-8	0.002656
5.080000E-8	0.002816
5.085000E-8	0.003094
5.090000E-8	0.003166
5.095000E-8	0.003428
5.100000E-8	0.003475
5.105000E-8	0.003616
5.110000E-8	0.003594
5.115000E-8	0.003697
5.120000E-8	0.003700
5.125000E-8	0.003616
5.130000E-8	0.003528
5.135000E-8	0.003403
5.140000E-8	0.003188
5.145000E-8	0.003091
5.150000E-8	0.002931
5.155000E-8	0.002725
5.160000E-8	0.002613
5.165000E-8	0.002450
5.170000E-8	0.002363
5.175000E-8	0.002394
5.180000E-8	0.002228
5.185000E-8	0.002263
5.190000E-8	0.002316
5.195000E-8	0.002481
5.200000E-8	0.002494
5.205000E-8	0.002656
5.210000E-8	0.002853
5.215000E-8	0.003028
5.220000E-8	0.003150
5.225000E-8	0.003356
5.230000E-8	0.003491
5.235000E-8	0.003747
5.240000E-8	0.003866
5.245000E-8	0.003797
5.250000E-8	0.003663
5.255000E-8	0.003616
5.260000E-8	0.003484
5.265000E-8	0.003194
5.270000E-8	0.002925
5.275000E-8	0.002888
5.280000E-8	0.002713
5.285000E-8	0.002650
5.290000E-8	0.002528
5.295000E-8	0.002425
5.300000E-8	0.002313
5.305000E-8	0.002291
5.310000E-8	0.002291
5.315000E-8	0.002313
5.320000E-8	0.002256
5.325000E-8	0.002397
5.330000E-8	0.002516
5.335000E-8	0.002647
5.340000E-8	0.002719
5.345000E-8	0.003031
5.350000E-8	0.003150
5.355000E-8	0.003259
5.360000E-8	0.003413
5.365000E-8	0.003522
5.370000E-8	0.003559
5.375000E-8	0.003616
5.380000E-8	0.003581
5.385000E-8	0.003531
5.390000E-8	0.003328
5.395000E-8	0.003291
5.400000E-8	0.003066
5.405000E-8	0.002822
5.410000E-8	0.002644
5.415000E-8	0.002503
5.420000E-8	0.002428
5.425000E-8	0.002369
5.430000E-8	0.002259
5.435000E-8	0.002288
5.440000E-8	0.002222
5.445000E-8	0.002234
5.450000E-8	0.002247
5.455000E-8	0.002334
5.460000E-8	0.002409
5.465000E-8	0.002597
5.470000E-8	0.002675
5.475000E-8	0.002950
5.480000E-8	0.003156
5.485000E-8	0.003253
5.490000E-8	0.003322
5.495000E-8	0.003516
5.500000E-8	0.003488
5.505000E-8	0.003684
5.510000E-8	0.003609
5.515000E-8	0.003634
5.520000E-8	0.003606
5.525000E-8	0.003566
5.530000E-8	0.003472
5.535000E-8	0.003356
5.540000E-8	0.003147
5.545000E-8	0.003047
5.550000E-8	0.002919
5.555000E-8	0.002769
5.560000E-8	0.002606
5.565000E-8	0.002425
5.570000E-8	0.002416
5.575000E-8	0.002313
5.580000E-8	0.002331
5.585000E-8	0.002316
5.590000E-8	0.002366
5.595000E-8	0.002481
5.600000E-8	0.002509
5.605000E-8	0.002691
5.610000E-8	0.002866
5.615000E-8	0.003078
5.620000E-8	0.003403
5.625000E-8	0.003647
5.630000E-8	0.003650
5.635000E-8	0.003706
5.640000E-8	0.003684
5.645000E-8	0.003628
5.650000E-8	0.003447
5.655000E-8	0.003281
5.660000E-8	0.003131
5.665000E-8	0.002991
5.670000E-8	0.003034
5.675000E-8	0.002875
5.680000E-8	0.002631
5.685000E-8	0.002541
5.690000E-8	0.002425
5.695000E-8	0.002531
5.700000E-8	0.002434
5.705000E-8	0.002484
5.710000E-8	0.002444
5.715000E-8	0.002478
5.720000E-8	0.002631
5.725000E-8	0.002847
5.730000E-8	0.002875
5.735000E-8	0.003022
5.740000E-8	0.003128
5.745000E-8	0.003378
5.750000E-8	0.003575
5.755000E-8	0.003741
5.760000E-8	0.003706
5.765000E-8	0.003713
5.770000E-8	0.003684
5.775000E-8	0.003803
5.780000E-8	0.003613
5.785000E-8	0.003575
5.790000E-8	0.003434
5.795000E-8	0.003359
5.800000E-8	0.003166
5.805000E-8	0.003003
5.810000E-8	0.002728
5.815000E-8	0.002619
5.820000E-8	0.002522
5.825000E-8	0.002366
5.830000E-8	0.002384
5.835000E-8	0.002459
5.840000E-8	0.002388
5.845000E-8	0.002491
5.850000E-8	0.002578
5.855000E-8	0.002584
5.860000E-8	0.002688
5.865000E-8	0.002831
5.870000E-8	0.002813
5.875000E-8	0.003019
5.880000E-8	0.003138
5.885000E-8	0.003253
5.890000E-8	0.003284
5.895000E-8	0.003353
5.900000E-8	0.003378
5.905000E-8	0.003441
5.910000E-8	0.003512
5.915000E-8	0.003500
5.920000E-8	0.003369
5.925000E-8	0.003328
5.930000E-8	0.003259
5.935000E-8	0.003225
5.940000E-8	0.003000
5.945000E-8	0.002834
5.950000E-8	0.002691
5.955000E-8	0.002491
5.960000E-8	0.002400
5.965000E-8	0.002328
5.970000E-8	0.002263
5.975000E-8	0.002331
5.980000E-8	0.002300
5.985000E-8	0.002494
5.990000E-8	0.002531
5.995000E-8	0.002634
6.000000E-8	0.002828
6.005000E-8	0.002931
6.010000E-8	0.003138
6.015000E-8	0.003247
6.020000E-8	0.003388
6.025000E-8	0.003559
6.030000E-8	0.003734
6.035000E-8	0.003822
6.040000E-8	0.003841
6.045000E-8	0.003734
6.050000E-8	0.003606
6.055000E-8	0.003413
6.060000E-8	0.003166
6.065000E-8	0.002969
6.070000E-8	0.002778
6.075000E-8	0.002737
6.080000E-8	0.002578
6.085000E-8	0.002478
6.090000E-8	0.002466
6.095000E-8	0.002409
6.100000E-8	0.002466
6.105000E-8	0.002634
6.110000E-8	0.002597
6.115000E-8	0.002756
6.120000E-8	0.002791
6.125000E-8	0.002844
6.130000E-8	0.002872
6.135000E-8	0.003059
6.140000E-8	0.003091
6.145000E-8	0.003247
6.150000E-8	0.003347
6.155000E-8	0.003384
6.160000E-8	0.003400
6.165000E-8	0.003394
6.170000E-8	0.003372
6.175000E-8	0.003363
6.180000E-8	0.003319
6.185000E-8	0.003284
6.190000E-8	0.003128
6.195000E-8	0.002978
6.200000E-8	0.002828
6.205000E-8	0.002638
6.210000E-8	0.002459
6.215000E-8	0.002259
6.220000E-8	0.002181
6.225000E-8	0.002034
6.230000E-8	0.001969
6.235000E-8	0.002072
6.240000E-8	0.002225
6.245000E-8	0.002297
6.250000E-8	0.002463
6.255000E-8	0.002606
6.260000E-8	0.002669
6.265000E-8	0.002822
6.270000E-8	0.003094
6.275000E-8	0.003313
6.280000E-8	0.003384
6.285000E-8	0.003578
6.290000E-8	0.003553
6.295000E-8	0.003694
6.300000E-8	0.003591
6.305000E-8	0.003566
6.310000E-8	0.003559
6.315000E-8	0.003506
6.320000E-8	0.003300
6.325000E-8	0.003109
6.330000E-8	0.002866
6.335000E-8	0.002703
6.340000E-8	0.002563
6.345000E-8	0.002531
6.350000E-8	0.002309
6.355000E-8	0.002222
6.360000E-8	0.002150
6.365000E-8	0.002234
6.370000E-8	0.002309
6.375000E-8	0.002388
6.380000E-8	0.002516
6.385000E-8	0.002706
6.390000E-8	0.002981
6.395000E-8	0.003313
6.400000E-8	0.003413
6.405000E-8	0.003606
6.410000E-8	0.003697
6.415000E-8	0.003813
6.420000E-8	0.003859
6.425000E-8	0.003909
6.430000E-8	0.003756
6.435000E-8	0.003653
6.440000E-8	0.003641
6.445000E-8	0.003472
6.450000E-8	0.003378
6.455000E-8	0.003266
6.460000E-8	0.003006
6.465000E-8	0.002928
6.470000E-8	0.002831
6.475000E-8	0.002763
6.480000E-8	0.002659
6.485000E-8	0.002616
6.490000E-8	0.002544
6.495000E-8	0.002563
6.500000E-8	0.002497
6.505000E-8	0.002653
6.510000E-8	0.002550
6.515000E-8	0.002662
6.520000E-8	0.002747
6.525000E-8	0.002922
6.530000E-8	0.002994
6.535000E-8	0.003122
6.540000E-8	0.003213
6.545000E-8	0.003331
6.550000E-8	0.003359
6.555000E-8	0.003553
6.560000E-8	0.003431
6.565000E-8	0.003328
6.570000E-8	0.003344
6.575000E-8	0.003231
6.580000E-8	0.003063
6.585000E-8	0.002963
6.590000E-8	0.002869
6.595000E-8	0.002809
6.600000E-8	0.002734
6.605000E-8	0.002706
6.610000E-8	0.002750
6.615000E-8	0.002719
6.620000E-8	0.002688
6.625000E-8	0.002869
6.630000E-8	0.002953
6.635000E-8	0.003022
6.640000E-8	0.003072
6.645000E-8	0.003162
6.650000E-8	0.003131
6.655000E-8	0.003162
6.660000E-8	0.003200
6.665000E-8	0.003259
6.670000E-8	0.003375
6.675000E-8	0.003413
6.680000E-8	0.003391
6.685000E-8	0.003450
6.690000E-8	0.003391
6.695000E-8	0.003522
6.700000E-8	0.003313
6.705000E-8	0.003253
6.710000E-8	0.003184
6.715000E-8	0.003044
6.720000E-8	0.002947
6.725000E-8	0.002928
6.730000E-8	0.002703
6.735000E-8	0.002522
6.740000E-8	0.002469
6.745000E-8	0.002512
6.750000E-8	0.002422
6.755000E-8	0.002306
6.760000E-8	0.002334
6.765000E-8	0.002328
6.770000E-8	0.002359
6.775000E-8	0.002469
6.780000E-8	0.002669
6.785000E-8	0.002766
6.790000E-8	0.002850
6.795000E-8	0.003131
6.800000E-8	0.003200
6.805000E-8	0.003381
6.810000E-8	0.003431
6.815000E-8	0.003409
6.820000E-8	0.003356
6.825000E-8	0.003197
6.830000E-8	0.003050
6.835000E-8	0.002972
6.840000E-8	0.002794
6.845000E-8	0.002816
6.850000E-8	0.002616
6.855000E-8	0.002538
6.860000E-8	0.002613
6.865000E-8	0.002681
6.870000E-8	0.002697
6.875000E-8	0.002697
6.880000E-8	0.002706
6.885000E-8	0.002734
6.890000E-8	0.002744
6.895000E-8	0.002719
6.900000E-8	0.002744
6.905000E-8	0.002772
6.910000E-8	0.002819
6.915000E-8	0.002919
6.920000E-8	0.002916
6.925000E-8	0.002991
6.930000E-8	0.003006
6.935000E-8	0.003156
6.940000E-8	0.003116
6.945000E-8	0.003166
6.950000E-8	0.003116
6.955000E-8	0.003159
6.960000E-8	0.003200
6.965000E-8	0.003138
6.970000E-8	0.003025
6.975000E-8	0.002975
6.980000E-8	0.002778
6.985000E-8	0.002669
6.990000E-8	0.002541
6.995000E-8	0.002466
7.000000E-8	0.002294
7.005000E-8	0.002316
7.010000E-8	0.002344
7.015000E-8	0.002378
7.020000E-8	0.002416
7.025000E-8	0.002578
7.030000E-8	0.002719
7.035000E-8	0.002875
7.040000E-8	0.002966
7.045000E-8	0.003191
7.050000E-8	0.003234
7.055000E-8	0.003294
7.060000E-8	0.003334
7.065000E-8	0.003347
7.070000E-8	0.003353
7.075000E-8	0.003322
7.080000E-8	0.003250
7.085000E-8	0.003309
7.090000E-8	0.003200
7.095000E-8	0.003169
7.100000E-8	0.003081
7.105000E-8	0.003072
7.110000E-8	0.003056
7.115000E-8	0.002938
7.120000E-8	0.003019
7.125000E-8	0.002847
7.130000E-8	0.002841
7.135000E-8	0.002809
7.140000E-8	0.002788
7.145000E-8	0.002659
7.150000E-8	0.002528
7.155000E-8	0.002638
7.160000E-8	0.002684
7.165000E-8	0.002713
7.170000E-8	0.002722
7.175000E-8	0.002728
7.180000E-8	0.002869
7.185000E-8	0.002950
7.190000E-8	0.003075
7.195000E-8	0.003325
7.200000E-8	0.003313
7.205000E-8	0.003519
7.210000E-8	0.003581
7.215000E-8	0.003753
7.220000E-8	0.003775
7.225000E-8	0.003688
7.230000E-8	0.003597
7.235000E-8	0.003616
7.240000E-8	0.003497
7.245000E-8	0.003266
7.250000E-8	0.003162
7.255000E-8	0.002906
7.260000E-8	0.002844
7.265000E-8	0.002656
7.270000E-8	0.002547
7.275000E-8	0.002453
7.280000E-8	0.002478
7.285000E-8	0.002503
7.290000E-8	0.002541
7.295000E-8	0.002666
7.300000E-8	0.002525
7.305000E-8	0.002697
7.310000E-8	0.002844
7.315000E-8	0.002922
7.320000E-8	0.002909
7.325000E-8	0.002959
7.330000E-8	0.003034
7.335000E-8	0.003125
7.340000E-8	0.003141
7.345000E-8	0.003206
7.350000E-8	0.003209
7.355000E-8	0.003191
7.360000E-8	0.003169
7.365000E-8	0.003113
7.370000E-8	0.003000
7.375000E-8	0.002906
7.380000E-8	0.002713
7.385000E-8	0.002681
7.390000E-8	0.002569
7.395000E-8	0.002538
7.400000E-8	0.002303
7.405000E-8	0.002331
7.410000E-8	0.002291
7.415000E-8	0.002403
7.420000E-8	0.002506
7.425000E-8	0.002553
7.430000E-8	0.002669
7.435000E-8	0.002788
7.440000E-8	0.002897
7.445000E-8	0.003100
7.450000E-8	0.003078
7.455000E-8	0.003222
7.460000E-8	0.003256
7.465000E-8	0.003300
7.470000E-8	0.003231
7.475000E-8	0.003244
7.480000E-8	0.003238
7.485000E-8	0.003138
7.490000E-8	0.002997
7.495000E-8	0.003103
7.500000E-8	0.002900
7.505000E-8	0.002928
7.510000E-8	0.002884
7.515000E-8	0.002944
7.520000E-8	0.002863
7.525000E-8	0.002925
7.530000E-8	0.002947
7.535000E-8	0.002988
7.540000E-8	0.002931
7.545000E-8	0.002913
7.550000E-8	0.002797
7.555000E-8	0.002863
7.560000E-8	0.002863
7.565000E-8	0.002850
7.570000E-8	0.002863
7.575000E-8	0.002931
7.580000E-8	0.002984
7.585000E-8	0.003087
7.590000E-8	0.003144
7.595000E-8	0.003222
7.600000E-8	0.003247
7.605000E-8	0.003184
7.610000E-8	0.003100
7.615000E-8	0.003272
7.620000E-8	0.003166
7.625000E-8	0.003138
7.630000E-8	0.002956
7.635000E-8	0.002881
7.640000E-8	0.002906
7.645000E-8	0.002934
7.650000E-8	0.002853
7.655000E-8	0.002819
7.660000E-8	0.002719
7.665000E-8	0.002606
7.670000E-8	0.002516
7.675000E-8	0.002491
7.680000E-8	0.002434
7.685000E-8	0.002400
7.690000E-8	0.002397
7.695000E-8	0.002556
7.700000E-8	0.002775
7.705000E-8	0.002906
7.710000E-8	0.002988
7.715000E-8	0.003241
7.720000E-8	0.003338
7.725000E-8	0.003431
7.730000E-8	0.003463
7.735000E-8	0.003434
7.740000E-8	0.003469
7.745000E-8	0.003416
7.750000E-8	0.003328
7.755000E-8	0.003441
7.760000E-8	0.003375
7.765000E-8	0.003281
7.770000E-8	0.003228
7.775000E-8	0.003219
7.780000E-8	0.003178
7.785000E-8	0.003097
7.790000E-8	0.003094
7.795000E-8	0.003194
7.800000E-8	0.003012
7.805000E-8	0.003113
7.810000E-8	0.003047
7.815000E-8	0.003103
7.820000E-8	0.003041
7.825000E-8	0.003119
7.830000E-8	0.003113
7.835000E-8	0.003162
7.840000E-8	0.003100
7.845000E-8	0.003087
7.850000E-8	0.003109
7.855000E-8	0.003166
7.860000E-8	0.003181
7.865000E-8	0.003216
7.870000E-8	0.003234
7.875000E-8	0.003444
7.880000E-8	0.003203
7.885000E-8	0.003175
7.890000E-8	0.003147
7.895000E-8	0.003072
7.900000E-8	0.003025
7.905000E-8	0.003009
7.910000E-8	0.002844
7.915000E-8	0.002913
7.920000E-8	0.002900
7.925000E-8	0.003019
7.930000E-8	0.003063
7.935000E-8	0.003075
7.940000E-8	0.003041
7.945000E-8	0.003025
7.950000E-8	0.003109
7.955000E-8	0.003094
7.960000E-8	0.003016
7.965000E-8	0.002909
7.970000E-8	0.002778
7.975000E-8	0.002866
7.980000E-8	0.002803
7.985000E-8	0.002894
7.990000E-8	0.002922
7.995000E-8	0.002922
8.000000E-8	0.002831
8.005000E-8	0.002947
8.010000E-8	0.002853
8.015000E-8	0.002872
8.020000E-8	0.002878
8.025000E-8	0.003006
8.030000E-8	0.002869
8.035000E-8	0.002863
8.040000E-8	0.002884
8.045000E-8	0.002866
8.050000E-8	0.002906
8.055000E-8	0.002950
8.060000E-8	0.002991
8.065000E-8	0.003003
8.070000E-8	0.003069
8.075000E-8	0.003175
8.080000E-8	0.003247
8.085000E-8	0.003228
8.090000E-8	0.003084
8.095000E-8	0.003256
8.100000E-8	0.003150
8.105000E-8	0.003250
8.110000E-8	0.003144
8.115000E-8	0.003234
8.120000E-8	0.003128
8.125000E-8	0.003162
8.130000E-8	0.003241
8.135000E-8	0.003234
8.140000E-8	0.003200
8.145000E-8	0.003206
8.150000E-8	0.003194
8.155000E-8	0.003184
8.160000E-8	0.003050
8.165000E-8	0.003034
8.170000E-8	0.002816
8.175000E-8	0.002719
8.180000E-8	0.002672
8.185000E-8	0.002538
8.190000E-8	0.002497
8.195000E-8	0.002669
8.200000E-8	0.002650
8.205000E-8	0.002797
8.210000E-8	0.002794
8.215000E-8	0.003031
8.220000E-8	0.002981
8.225000E-8	0.003053
8.230000E-8	0.003106
8.235000E-8	0.003131
8.240000E-8	0.003191
8.245000E-8	0.003297
8.250000E-8	0.003263
8.255000E-8	0.003341
8.260000E-8	0.003416
8.265000E-8	0.003456
8.270000E-8	0.003297
8.275000E-8	0.003459
8.280000E-8	0.003338
8.285000E-8	0.003259
8.290000E-8	0.003053
8.295000E-8	0.002869
8.300000E-8	0.002778
8.305000E-8	0.002744
8.310000E-8	0.002631
8.315000E-8	0.002556
8.320000E-8	0.002603
8.325000E-8	0.002803
8.330000E-8	0.002791
8.335000E-8	0.003044
8.340000E-8	0.002969
8.345000E-8	0.003144
8.350000E-8	0.003256
8.355000E-8	0.003247
8.360000E-8	0.003328
8.365000E-8	0.003344
8.370000E-8	0.003203
8.375000E-8	0.003159
8.380000E-8	0.003188
8.385000E-8	0.003031
8.390000E-8	0.002931
8.395000E-8	0.002991
8.400000E-8	0.002922
8.405000E-8	0.002906
8.410000E-8	0.002916
8.415000E-8	0.002931
8.420000E-8	0.002925
8.425000E-8	0.002984
8.430000E-8	0.003031
8.435000E-8	0.002991
8.440000E-8	0.002963
8.445000E-8	0.002969
8.450000E-8	0.002913
8.455000E-8	0.002931
8.460000E-8	0.002884
8.465000E-8	0.002866
8.470000E-8	0.002841
8.475000E-8	0.002850
8.480000E-8	0.002944
8.485000E-8	0.003103
8.490000E-8	0.003116
8.495000E-8	0.003284
8.500000E-8	0.003288
8.505000E-8	0.003319
8.510000E-8	0.003384
8.515000E-8	0.003472
8.520000E-8	0.003453
8.525000E-8	0.003284
8.530000E-8	0.003091
8.535000E-8	0.003131
8.540000E-8	0.003116
8.545000E-8	0.003031
8.550000E-8	0.003116
8.555000E-8	0.003028
8.560000E-8	0.002975
8.565000E-8	0.003059
8.570000E-8	0.003009
8.575000E-8	0.003056
8.580000E-8	0.003003
8.585000E-8	0.003141
8.590000E-8	0.003150
8.595000E-8	0.003119
8.600000E-8	0.003044
8.605000E-8	0.003003
8.610000E-8	0.002925
8.615000E-8	0.002963
8.620000E-8	0.002975
8.625000E-8	0.003012
8.630000E-8	0.003109
8.635000E-8	0.003191
8.640000E-8	0.003222
8.645000E-8	0.003194
8.650000E-8	0.003219
8.655000E-8	0.003266
8.660000E-8	0.003300
8.665000E-8	0.003275
8.670000E-8	0.003269
8.675000E-8	0.003206
8.680000E-8	0.003156
8.685000E-8	0.003181
8.690000E-8	0.003153
8.695000E-8	0.003066
8.700000E-8	0.002984
8.705000E-8	0.003028
8.710000E-8	0.003028
8.715000E-8	0.003050
8.720000E-8	0.002984
8.725000E-8	0.003019
8.730000E-8	0.002969
8.735000E-8	0.002984
8.740000E-8	0.003000
8.745000E-8	0.003022
8.750000E-8	0.002981
8.755000E-8	0.003009
8.760000E-8	0.003091
8.765000E-8	0.003191
8.770000E-8	0.003231
8.775000E-8	0.003391
8.780000E-8	0.003369
8.785000E-8	0.003512
8.790000E-8	0.003434
8.795000E-8	0.003372
8.800000E-8	0.003172
8.805000E-8	0.003188
8.810000E-8	0.003034
8.815000E-8	0.002869
8.820000E-8	0.002816
8.825000E-8	0.002731
8.830000E-8	0.002669
8.835000E-8	0.002703
8.840000E-8	0.002578
8.845000E-8	0.002609
8.850000E-8	0.002722
8.855000E-8	0.002763
8.860000E-8	0.002728
8.865000E-8	0.002847
8.870000E-8	0.002913
8.875000E-8	0.002934
8.880000E-8	0.002863
8.885000E-8	0.003131
8.890000E-8	0.003103
8.895000E-8	0.003125
8.900000E-8	0.003162
8.905000E-8	0.003116
8.910000E-8	0.002997
8.915000E-8	0.003097
8.920000E-8	0.003028
8.925000E-8	0.003019
8.930000E-8	0.002978
8.935000E-8	0.002953
8.940000E-8	0.002866
8.945000E-8	0.002894
8.950000E-8	0.002863
8.955000E-8	0.002988
8.960000E-8	0.002969
8.965000E-8	0.002928
8.970000E-8	0.002891
8.975000E-8	0.002994
8.980000E-8	0.003072
8.985000E-8	0.003019
8.990000E-8	0.002931
8.995000E-8	0.003022
9.000000E-8	0.003044
9.005000E-8	0.002997
9.010000E-8	0.003006
9.015000E-8	0.002919
9.020000E-8	0.002947
9.025000E-8	0.003069
9.030000E-8	0.003056
9.035000E-8	0.003075
9.040000E-8	0.003087
9.045000E-8	0.003288
9.050000E-8	0.003247
9.055000E-8	0.003350
9.060000E-8	0.003359
9.065000E-8	0.003388
9.070000E-8	0.003278
9.075000E-8	0.003353
9.080000E-8	0.003269
9.085000E-8	0.003153
9.090000E-8	0.003109
9.095000E-8	0.003078
9.100000E-8	0.002984
9.105000E-8	0.002928
9.110000E-8	0.002869
9.115000E-8	0.002881
9.120000E-8	0.002850
9.125000E-8	0.002900
9.130000E-8	0.002916
9.135000E-8	0.003044
9.140000E-8	0.003128
9.145000E-8	0.003034
9.150000E-8	0.003119
9.155000E-8	0.003075
9.160000E-8	0.002928
9.165000E-8	0.003050
9.170000E-8	0.003028
9.175000E-8	0.002978
9.180000E-8	0.002941
9.185000E-8	0.002981
9.190000E-8	0.003106
9.195000E-8	0.003194
9.200000E-8	0.003178
9.205000E-8	0.003194
9.210000E-8	0.003066
9.215000E-8	0.003034
9.220000E-8	0.002931
9.225000E-8	0.002903
9.230000E-8	0.002825
9.235000E-8	0.002753
9.240000E-8	0.002731
9.245000E-8	0.002766
9.250000E-8	0.002722
9.255000E-8	0.002894
9.260000E-8	0.002881
9.265000E-8	0.002944
9.270000E-8	0.003028
9.275000E-8	0.003050
9.280000E-8	0.003078
9.285000E-8	0.003206
9.290000E-8	0.003116
9.295000E-8	0.003200
9.300000E-8	0.003275
9.305000E-8	0.003313
9.310000E-8	0.003309
9.315000E-8	0.003409
9.320000E-8	0.003472
9.325000E-8	0.003525
9.330000E-8	0.003481
9.335000E-8	0.003447
9.340000E-8	0.003303
9.345000E-8	0.003216
9.350000E-8	0.003063
9.355000E-8	0.003056
9.360000E-8	0.003066
9.365000E-8	0.003087
9.370000E-8	0.003041
9.375000E-8	0.003016
9.380000E-8	0.002884
9.385000E-8	0.002931
9.390000E-8	0.002981
9.395000E-8	0.003128
9.400000E-8	0.003059
9.405000E-8	0.003069
9.410000E-8	0.003019
9.415000E-8	0.003087
9.420000E-8	0.003016
9.425000E-8	0.003131
9.430000E-8	0.003197
9.435000E-8	0.003288
9.440000E-8	0.003263
9.445000E-8	0.003391
9.450000E-8	0.003284
9.455000E-8	0.003400
9.460000E-8	0.003363
9.465000E-8	0.003288
9.470000E-8	0.003228
9.475000E-8	0.003072
9.480000E-8	0.002953
9.485000E-8	0.003000
9.490000E-8	0.002975
9.495000E-8	0.002872
9.500000E-8	0.002772
9.505000E-8	0.002884
9.510000E-8	0.002906
9.515000E-8	0.002875
9.520000E-8	0.002934
9.525000E-8	0.002972
9.530000E-8	0.002925
9.535000E-8	0.003087
9.540000E-8	0.003031
9.545000E-8	0.003069
9.550000E-8	0.003047
9.555000E-8	0.003172
9.560000E-8	0.003159
9.565000E-8	0.003125
9.570000E-8	0.003094
9.575000E-8	0.003087
9.580000E-8	0.003116
9.585000E-8	0.003241
9.590000E-8	0.003313
9.595000E-8	0.003294
9.600000E-8	0.003269
9.605000E-8	0.003388
9.610000E-8	0.003378
9.615000E-8	0.003250
9.620000E-8	0.003144
9.625000E-8	0.003031
9.630000E-8	0.003009
9.635000E-8	0.003006
9.640000E-8	0.002925
9.645000E-8	0.002944
9.650000E-8	0.002909
9.655000E-8	0.002934
9.660000E-8	0.003109
9.665000E-8	0.003038
9.670000E-8	0.003063
9.675000E-8	0.003203
9.680000E-8	0.003306
9.685000E-8	0.003300
9.690000E-8	0.003166
9.695000E-8	0.003219
9.700000E-8	0.003209
9.705000E-8	0.003200
9.710000E-8	0.003119
9.715000E-8	0.003106
9.720000E-8	0.003050
9.725000E-8	0.002950
9.730000E-8	0.002884
9.735000E-8	0.002922
9.740000E-8	0.002828
9.745000E-8	0.002984
9.750000E-8	0.002944
9.755000E-8	0.003025
9.760000E-8	0.002984
9.765000E-8	0.003147
9.770000E-8	0.003034
9.775000E-8	0.003012
9.780000E-8	0.002925
9.785000E-8	0.002994
9.790000E-8	0.003034
9.795000E-8	0.003044
9.800000E-8	0.002913
9.805000E-8	0.003019
9.810000E-8	0.003119
9.815000E-8	0.003175
9.820000E-8	0.003213
9.825000E-8	0.003300
9.830000E-8	0.003300
9.835000E-8	0.003459
9.840000E-8	0.003328
9.845000E-8	0.003250
9.850000E-8	0.003144
9.855000E-8	0.003234
9.860000E-8	0.003175
9.865000E-8	0.003103
9.870000E-8	0.003034
9.875000E-8	0.003056
9.880000E-8	0.002956
9.885000E-8	0.002900
9.890000E-8	0.002916
9.895000E-8	0.002872
9.900000E-8	0.002881
9.905000E-8	0.002963
9.910000E-8	0.003066
9.915000E-8	0.003038
9.920000E-8	0.002938
9.925000E-8	0.002963
9.930000E-8	0.002972
9.935000E-8	0.003119
9.940000E-8	0.003103
9.945000E-8	0.003113
9.950000E-8	0.003191
9.955000E-8	0.003216
9.960000E-8	0.003206
9.965000E-8	0.003209
9.970000E-8	0.003234
9.975000E-8	0.003303
9.980000E-8	0.003247
9.985000E-8	0.003209
9.990000E-8	0.003222
9.995000E-8	0.003266
