LabVIEW Measurement	
Writer_Version	2
Reader_Version	2
Separator	Tab
Decimal_Separator	.
Multi_Headings	No
X_Columns	Multi
Time_Pref	Relative
Operator	TG lab
Date	2015/03/06
Time	18:21:48.6606121063232421875
***End_of_Header***	
	
Channels	1	
Samples	2000	
Date	2015/03/06	
Time	18:21:48.6606121063232421875	
X_Dimension	Time	
X0	0.0000000000000000E+0	
Delta_X	5.000000E-11	
***End_of_Header***		
X_Value	Untitled	Comment
0.000000	0.002694
5.000000E-11	0.002650
1.000000E-10	0.002484
1.500000E-10	0.002638
2.000000E-10	0.002597
2.500000E-10	0.002547
3.000000E-10	0.002525
3.500000E-10	0.002528
4.000000E-10	0.002425
4.500000E-10	0.002506
5.000000E-10	0.002506
5.500000E-10	0.002647
6.000000E-10	0.002556
6.500000E-10	0.002600
7.000000E-10	0.002653
7.500000E-10	0.002719
8.000000E-10	0.002734
8.500000E-10	0.002737
9.000000E-10	0.002706
9.500000E-10	0.002694
1.000000E-9	0.002622
1.050000E-9	0.002600
1.100000E-9	0.002531
1.150000E-9	0.002350
1.200000E-9	0.002266
1.250000E-9	0.002200
1.300000E-9	0.002219
1.350000E-9	0.002188
1.400000E-9	0.002144
1.450000E-9	0.002291
1.500000E-9	0.002241
1.550000E-9	0.002313
1.600000E-9	0.002250
1.650000E-9	0.002394
1.700000E-9	0.002384
1.750000E-9	0.002319
1.800000E-9	0.002272
1.850000E-9	0.002203
1.900000E-9	0.002150
1.950000E-9	0.002081
2.000000E-9	0.002047
2.050000E-9	0.001994
2.100000E-9	0.001963
2.150000E-9	0.002091
2.200000E-9	0.002097
2.250000E-9	0.002153
2.300000E-9	0.002122
2.350000E-9	0.002244
2.400000E-9	0.002306
2.450000E-9	0.002197
2.500000E-9	0.002256
2.550000E-9	0.002359
2.600000E-9	0.002244
2.650000E-9	0.002209
2.700000E-9	0.002147
2.750000E-9	0.002116
2.800000E-9	0.002125
2.850000E-9	0.002134
2.900000E-9	0.002034
2.950000E-9	0.001991
3.000000E-9	0.002138
3.050000E-9	0.001991
3.100000E-9	0.001975
3.150000E-9	0.001963
3.200000E-9	0.002006
3.250000E-9	0.001934
3.300000E-9	0.001803
3.350000E-9	0.001622
3.400000E-9	0.001531
3.450000E-9	0.001516
3.500000E-9	0.001344
3.550000E-9	0.001347
3.600000E-9	0.001316
3.650000E-9	0.001484
3.700000E-9	0.001500
3.750000E-9	0.001647
3.800000E-9	0.001722
3.850000E-9	0.001813
3.900000E-9	0.001931
3.950000E-9	0.002003
4.000000E-9	0.002006
4.050000E-9	0.002072
4.100000E-9	0.002016
4.150000E-9	0.002116
4.200000E-9	0.002063
4.250000E-9	0.002209
4.300000E-9	0.002213
4.350000E-9	0.002234
4.400000E-9	0.002228
4.450000E-9	0.002237
4.500000E-9	0.002188
4.550000E-9	0.002391
4.600000E-9	0.002309
4.650000E-9	0.002350
4.700000E-9	0.001963
4.750000E-9	0.001344
4.800000E-9	0.000378
4.850000E-9	-0.001150
4.900000E-9	-0.003106
4.950000E-9	-0.005488
5.000000E-9	-0.008381
5.050000E-9	-0.011747
5.100000E-9	-0.015506
5.150000E-9	-0.019316
5.200000E-9	-0.023266
5.250000E-9	-0.026950
5.300000E-9	-0.030397
5.350000E-9	-0.033541
5.400000E-9	-0.036359
5.450000E-9	-0.038769
5.500000E-9	-0.040444
5.550000E-9	-0.041753
5.600000E-9	-0.042578
5.650000E-9	-0.042975
5.700000E-9	-0.042794
5.750000E-9	-0.041878
5.800000E-9	-0.040841
5.850000E-9	-0.039222
5.900000E-9	-0.037206
5.950000E-9	-0.034981
6.000000E-9	-0.032488
6.050000E-9	-0.030131
6.100000E-9	-0.027853
6.150000E-9	-0.025819
6.200000E-9	-0.024216
6.250000E-9	-0.023038
6.300000E-9	-0.022391
6.350000E-9	-0.022106
6.400000E-9	-0.022313
6.450000E-9	-0.022797
6.500000E-9	-0.023528
6.550000E-9	-0.024281
6.600000E-9	-0.025178
6.650000E-9	-0.026041
6.700000E-9	-0.026906
6.750000E-9	-0.027525
6.800000E-9	-0.027953
6.850000E-9	-0.028425
6.900000E-9	-0.028591
6.950000E-9	-0.028384
7.000000E-9	-0.028153
7.050000E-9	-0.027478
7.100000E-9	-0.026484
7.150000E-9	-0.025178
7.200000E-9	-0.023691
7.250000E-9	-0.022009
7.300000E-9	-0.020316
7.350000E-9	-0.018519
7.400000E-9	-0.016847
7.450000E-9	-0.015313
7.500000E-9	-0.013978
7.550000E-9	-0.013088
7.600000E-9	-0.012488
7.650000E-9	-0.012178
7.700000E-9	-0.012119
7.750000E-9	-0.012213
7.800000E-9	-0.012828
7.850000E-9	-0.013381
7.900000E-9	-0.014281
7.950000E-9	-0.015122
8.000000E-9	-0.016084
8.050000E-9	-0.016872
8.100000E-9	-0.017525
8.150000E-9	-0.017931
8.200000E-9	-0.018378
8.250000E-9	-0.018359
8.300000E-9	-0.018203
8.350000E-9	-0.017641
8.400000E-9	-0.016941
8.450000E-9	-0.015925
8.500000E-9	-0.014800
8.550000E-9	-0.013513
8.600000E-9	-0.012222
8.650000E-9	-0.010819
8.700000E-9	-0.009650
8.750000E-9	-0.008453
8.800000E-9	-0.007628
8.850000E-9	-0.006713
8.900000E-9	-0.006066
8.950000E-9	-0.005809
9.000000E-9	-0.005738
9.050000E-9	-0.005903
9.100000E-9	-0.006344
9.150000E-9	-0.006913
9.200000E-9	-0.007788
9.250000E-9	-0.008584
9.300000E-9	-0.009434
9.350000E-9	-0.010272
9.400000E-9	-0.011069
9.450000E-9	-0.011687
9.500000E-9	-0.012319
9.550000E-9	-0.012491
9.600000E-9	-0.012522
9.650000E-9	-0.012250
9.700000E-9	-0.012013
9.750000E-9	-0.011325
9.800000E-9	-0.010600
9.850000E-9	-0.009581
9.900000E-9	-0.008584
9.950000E-9	-0.007275
1.000000E-8	-0.006191
1.005000E-8	-0.005172
1.010000E-8	-0.004247
1.015000E-8	-0.003334
1.020000E-8	-0.002709
1.025000E-8	-0.002281
1.030000E-8	-0.002016
1.035000E-8	-0.002138
1.040000E-8	-0.002397
1.045000E-8	-0.002766
1.050000E-8	-0.003587
1.055000E-8	-0.004213
1.060000E-8	-0.005125
1.065000E-8	-0.005847
1.070000E-8	-0.006775
1.075000E-8	-0.007509
1.080000E-8	-0.008231
1.085000E-8	-0.008700
1.090000E-8	-0.008991
1.095000E-8	-0.008881
1.100000E-8	-0.008728
1.105000E-8	-0.008491
1.110000E-8	-0.007884
1.115000E-8	-0.007128
1.120000E-8	-0.006253
1.125000E-8	-0.005159
1.130000E-8	-0.004163
1.135000E-8	-0.003119
1.140000E-8	-0.002203
1.145000E-8	-0.001316
1.150000E-8	-0.000606
1.155000E-8	-8.437500E-5
1.160000E-8	0.000213
1.165000E-8	0.000306
1.170000E-8	0.000278
1.175000E-8	-4.062500E-5
1.180000E-8	-0.000569
1.185000E-8	-0.001291
1.190000E-8	-0.002050
1.195000E-8	-0.002928
1.200000E-8	-0.003922
1.205000E-8	-0.004656
1.210000E-8	-0.005469
1.215000E-8	-0.006134
1.220000E-8	-0.006588
1.225000E-8	-0.006788
1.230000E-8	-0.006831
1.235000E-8	-0.006609
1.240000E-8	-0.006222
1.245000E-8	-0.005625
1.250000E-8	-0.004738
1.255000E-8	-0.003819
1.260000E-8	-0.002722
1.265000E-8	-0.001800
1.270000E-8	-0.000834
1.275000E-8	0.000159
1.280000E-8	0.000950
1.285000E-8	0.001638
1.290000E-8	0.002109
1.295000E-8	0.002341
1.300000E-8	0.002322
1.305000E-8	0.002188
1.310000E-8	0.001669
1.315000E-8	0.001050
1.320000E-8	0.000344
1.325000E-8	-0.000469
1.330000E-8	-0.001466
1.335000E-8	-0.002366
1.340000E-8	-0.003250
1.345000E-8	-0.004009
1.350000E-8	-0.004463
1.355000E-8	-0.004913
1.360000E-8	-0.005181
1.365000E-8	-0.005100
1.370000E-8	-0.004913
1.375000E-8	-0.004334
1.380000E-8	-0.003594
1.385000E-8	-0.002725
1.390000E-8	-0.001813
1.395000E-8	-0.000734
1.400000E-8	0.000281
1.405000E-8	0.001187
1.410000E-8	0.002066
1.415000E-8	0.002913
1.420000E-8	0.003441
1.425000E-8	0.003919
1.430000E-8	0.004109
1.435000E-8	0.004056
1.440000E-8	0.003613
1.445000E-8	0.003000
1.450000E-8	0.002209
1.455000E-8	0.001241
1.460000E-8	0.000147
1.465000E-8	-0.000863
1.470000E-8	-0.001863
1.475000E-8	-0.002884
1.480000E-8	-0.003706
1.485000E-8	-0.004291
1.490000E-8	-0.004537
1.495000E-8	-0.004622
1.500000E-8	-0.004484
1.505000E-8	-0.004028
1.510000E-8	-0.003344
1.515000E-8	-0.002441
1.520000E-8	-0.001356
1.525000E-8	-0.000253
1.530000E-8	0.000894
1.535000E-8	0.002122
1.540000E-8	0.003012
1.545000E-8	0.003784
1.550000E-8	0.004434
1.555000E-8	0.004806
1.560000E-8	0.004856
1.565000E-8	0.004706
1.570000E-8	0.004356
1.575000E-8	0.003934
1.580000E-8	0.003253
1.585000E-8	0.002319
1.590000E-8	0.001375
1.595000E-8	0.000375
1.600000E-8	-0.000713
1.605000E-8	-0.001634
1.610000E-8	-0.002528
1.615000E-8	-0.003031
1.620000E-8	-0.003541
1.625000E-8	-0.003691
1.630000E-8	-0.003334
1.635000E-8	-0.002884
1.640000E-8	-0.002247
1.645000E-8	-0.001359
1.650000E-8	-0.000313
1.655000E-8	0.000844
1.660000E-8	0.001909
1.665000E-8	0.003009
1.670000E-8	0.003897
1.675000E-8	0.004603
1.680000E-8	0.005188
1.685000E-8	0.005662
1.690000E-8	0.005747
1.695000E-8	0.005684
1.700000E-8	0.005197
1.705000E-8	0.004631
1.710000E-8	0.003872
1.715000E-8	0.003087
1.720000E-8	0.001937
1.725000E-8	0.000866
1.730000E-8	-9.687500E-5
1.735000E-8	-0.000934
1.740000E-8	-0.001697
1.745000E-8	-0.002309
1.750000E-8	-0.002844
1.755000E-8	-0.002997
1.760000E-8	-0.002978
1.765000E-8	-0.002728
1.770000E-8	-0.002306
1.775000E-8	-0.001534
1.780000E-8	-0.000488
1.785000E-8	0.000453
1.790000E-8	0.001478
1.795000E-8	0.002472
1.800000E-8	0.003334
1.805000E-8	0.004169
1.810000E-8	0.004713
1.815000E-8	0.005134
1.820000E-8	0.005319
1.825000E-8	0.005259
1.830000E-8	0.004953
1.835000E-8	0.004369
1.840000E-8	0.003716
1.845000E-8	0.002953
1.850000E-8	0.002084
1.855000E-8	0.001031
1.860000E-8	0.000119
1.865000E-8	-0.000713
1.870000E-8	-0.001525
1.875000E-8	-0.002050
1.880000E-8	-0.002428
1.885000E-8	-0.002634
1.890000E-8	-0.002494
1.895000E-8	-0.002072
1.900000E-8	-0.001544
1.905000E-8	-0.000797
1.910000E-8	-2.187500E-5
1.915000E-8	0.000953
1.920000E-8	0.001838
1.925000E-8	0.002750
1.930000E-8	0.003609
1.935000E-8	0.004400
1.940000E-8	0.004916
1.945000E-8	0.005366
1.950000E-8	0.005478
1.955000E-8	0.005400
1.960000E-8	0.005275
1.965000E-8	0.004828
1.970000E-8	0.004278
1.975000E-8	0.003600
1.980000E-8	0.002750
1.985000E-8	0.001956
1.990000E-8	0.001200
1.995000E-8	0.000412
2.000000E-8	-0.000203
2.005000E-8	-0.000722
2.010000E-8	-0.001094
2.015000E-8	-0.001344
2.020000E-8	-0.001391
2.025000E-8	-0.001175
2.030000E-8	-0.000853
2.035000E-8	-0.000338
2.040000E-8	0.000269
2.045000E-8	0.001034
2.050000E-8	0.001738
2.055000E-8	0.002587
2.060000E-8	0.003453
2.065000E-8	0.004200
2.070000E-8	0.004869
2.075000E-8	0.005313
2.080000E-8	0.005500
2.085000E-8	0.005553
2.090000E-8	0.005288
2.095000E-8	0.005016
2.100000E-8	0.004534
2.105000E-8	0.003941
2.110000E-8	0.003247
2.115000E-8	0.002550
2.120000E-8	0.001797
2.125000E-8	0.000984
2.130000E-8	0.000316
2.135000E-8	-0.000225
2.140000E-8	-0.000713
2.145000E-8	-0.000994
2.150000E-8	-0.001159
2.155000E-8	-0.001012
2.160000E-8	-0.000700
2.165000E-8	-0.000275
2.170000E-8	0.000181
2.175000E-8	0.001019
2.180000E-8	0.001672
2.185000E-8	0.002600
2.190000E-8	0.003366
2.195000E-8	0.004081
2.200000E-8	0.004659
2.205000E-8	0.005078
2.210000E-8	0.005441
2.215000E-8	0.005609
2.220000E-8	0.005691
2.225000E-8	0.005503
2.230000E-8	0.005166
2.235000E-8	0.004597
2.240000E-8	0.004116
2.245000E-8	0.003341
2.250000E-8	0.002563
2.255000E-8	0.001719
2.260000E-8	0.001088
2.265000E-8	0.000319
2.270000E-8	-0.000203
2.275000E-8	-0.000516
2.280000E-8	-0.000809
2.285000E-8	-0.000734
2.290000E-8	-0.000597
2.295000E-8	-0.000144
2.300000E-8	0.000216
2.305000E-8	0.000978
2.310000E-8	0.001572
2.315000E-8	0.002512
2.320000E-8	0.003434
2.325000E-8	0.004213
2.330000E-8	0.004803
2.335000E-8	0.005291
2.340000E-8	0.005847
2.345000E-8	0.006112
2.350000E-8	0.006122
2.355000E-8	0.006034
2.360000E-8	0.005613
2.365000E-8	0.005016
2.370000E-8	0.004425
2.375000E-8	0.003609
2.380000E-8	0.002681
2.385000E-8	0.001838
2.390000E-8	0.001047
2.395000E-8	0.000269
2.400000E-8	-0.000350
2.405000E-8	-0.000728
2.410000E-8	-0.000953
2.415000E-8	-0.000963
2.420000E-8	-0.000875
2.425000E-8	-0.000619
2.430000E-8	-0.000156
2.435000E-8	0.000519
2.440000E-8	0.001131
2.445000E-8	0.002000
2.450000E-8	0.002688
2.455000E-8	0.003491
2.460000E-8	0.004194
2.465000E-8	0.004738
2.470000E-8	0.005297
2.475000E-8	0.005563
2.480000E-8	0.005631
2.485000E-8	0.005566
2.490000E-8	0.005363
2.495000E-8	0.004981
2.500000E-8	0.004316
2.505000E-8	0.003644
2.510000E-8	0.002906
2.515000E-8	0.002175
2.520000E-8	0.001194
2.525000E-8	0.000447
2.530000E-8	-1.875000E-5
2.535000E-8	-0.000463
2.540000E-8	-0.000759
2.545000E-8	-0.000713
2.550000E-8	-0.000534
2.555000E-8	-0.000269
2.560000E-8	0.000134
2.565000E-8	0.000772
2.570000E-8	0.001394
2.575000E-8	0.002253
2.580000E-8	0.002925
2.585000E-8	0.003688
2.590000E-8	0.004253
2.595000E-8	0.004934
2.600000E-8	0.005316
2.605000E-8	0.005691
2.610000E-8	0.005928
2.615000E-8	0.005747
2.620000E-8	0.005603
2.625000E-8	0.005297
2.630000E-8	0.004675
2.635000E-8	0.003988
2.640000E-8	0.003188
2.645000E-8	0.002228
2.650000E-8	0.001325
2.655000E-8	0.000563
2.660000E-8	-0.000209
2.665000E-8	-0.000713
2.670000E-8	-0.001156
2.675000E-8	-0.001175
2.680000E-8	-0.001034
2.685000E-8	-0.000625
2.690000E-8	-0.000113
2.695000E-8	0.000444
2.700000E-8	0.001222
2.705000E-8	0.002166
2.710000E-8	0.002931
2.715000E-8	0.003641
2.720000E-8	0.004338
2.725000E-8	0.005013
2.730000E-8	0.005328
2.735000E-8	0.005622
2.740000E-8	0.005662
2.745000E-8	0.005463
2.750000E-8	0.005147
2.755000E-8	0.004838
2.760000E-8	0.004197
2.765000E-8	0.003778
2.770000E-8	0.002978
2.775000E-8	0.002275
2.780000E-8	0.001566
2.785000E-8	0.000984
2.790000E-8	0.000478
2.795000E-8	2.187500E-5
2.800000E-8	-0.000206
2.805000E-8	-0.000300
2.810000E-8	-0.000266
2.815000E-8	-0.000122
2.820000E-8	0.000319
2.825000E-8	0.000894
2.830000E-8	0.001375
2.835000E-8	0.001981
2.840000E-8	0.002594
2.845000E-8	0.003284
2.850000E-8	0.003925
2.855000E-8	0.004422
2.860000E-8	0.004775
2.865000E-8	0.005025
2.870000E-8	0.005122
2.875000E-8	0.005081
2.880000E-8	0.004947
2.885000E-8	0.004531
2.890000E-8	0.004075
2.895000E-8	0.003613
2.900000E-8	0.003056
2.905000E-8	0.002497
2.910000E-8	0.001978
2.915000E-8	0.001413
2.920000E-8	0.000878
2.925000E-8	0.000591
2.930000E-8	0.000397
2.935000E-8	0.000216
2.940000E-8	5.312500E-5
2.945000E-8	0.000225
2.950000E-8	0.000594
2.955000E-8	0.000934
2.960000E-8	0.001356
2.965000E-8	0.001872
2.970000E-8	0.002447
2.975000E-8	0.003188
2.980000E-8	0.003719
2.985000E-8	0.004225
2.990000E-8	0.004684
2.995000E-8	0.005109
3.000000E-8	0.005250
3.005000E-8	0.005350
3.010000E-8	0.005116
3.015000E-8	0.004913
3.020000E-8	0.004413
3.025000E-8	0.003888
3.030000E-8	0.003334
3.035000E-8	0.002622
3.040000E-8	0.002038
3.045000E-8	0.001428
3.050000E-8	0.000825
3.055000E-8	0.000528
3.060000E-8	0.000237
3.065000E-8	0.000194
3.070000E-8	0.000194
3.075000E-8	0.000388
3.080000E-8	0.000647
3.085000E-8	0.001000
3.090000E-8	0.001294
3.095000E-8	0.001822
3.100000E-8	0.002366
3.105000E-8	0.002978
3.110000E-8	0.003525
3.115000E-8	0.004009
3.120000E-8	0.004222
3.125000E-8	0.004581
3.130000E-8	0.004869
3.135000E-8	0.005031
3.140000E-8	0.004947
3.145000E-8	0.004825
3.150000E-8	0.004591
3.155000E-8	0.004237
3.160000E-8	0.003669
3.165000E-8	0.003241
3.170000E-8	0.002825
3.175000E-8	0.002131
3.180000E-8	0.001588
3.185000E-8	0.001159
3.190000E-8	0.000719
3.195000E-8	0.000469
3.200000E-8	0.000322
3.205000E-8	0.000406
3.210000E-8	0.000569
3.215000E-8	0.000863
3.220000E-8	0.001194
3.225000E-8	0.001622
3.230000E-8	0.002175
3.235000E-8	0.002666
3.240000E-8	0.003216
3.245000E-8	0.003659
3.250000E-8	0.004009
3.255000E-8	0.004403
3.260000E-8	0.004719
3.265000E-8	0.004797
3.270000E-8	0.004816
3.275000E-8	0.004669
3.280000E-8	0.004347
3.285000E-8	0.004069
3.290000E-8	0.003609
3.295000E-8	0.003100
3.300000E-8	0.002481
3.305000E-8	0.002025
3.310000E-8	0.001450
3.315000E-8	0.001044
3.320000E-8	0.000666
3.325000E-8	0.000363
3.330000E-8	0.000134
3.335000E-8	0.000256
3.340000E-8	0.000316
3.345000E-8	0.000631
3.350000E-8	0.000959
3.355000E-8	0.001437
3.360000E-8	0.001866
3.365000E-8	0.002534
3.370000E-8	0.003031
3.375000E-8	0.003528
3.380000E-8	0.003981
3.385000E-8	0.004431
3.390000E-8	0.004794
3.395000E-8	0.004984
3.400000E-8	0.005013
3.405000E-8	0.004903
3.410000E-8	0.004713
3.415000E-8	0.004300
3.420000E-8	0.003869
3.425000E-8	0.003366
3.430000E-8	0.002753
3.435000E-8	0.002141
3.440000E-8	0.001666
3.445000E-8	0.001206
3.450000E-8	0.000688
3.455000E-8	0.000409
3.460000E-8	0.000150
3.465000E-8	9.687500E-5
3.470000E-8	0.000169
3.475000E-8	0.000403
3.480000E-8	0.000659
3.485000E-8	0.001181
3.490000E-8	0.001650
3.495000E-8	0.002169
3.500000E-8	0.002841
3.505000E-8	0.003441
3.510000E-8	0.003900
3.515000E-8	0.004363
3.520000E-8	0.004772
3.525000E-8	0.004938
3.530000E-8	0.004875
3.535000E-8	0.004947
3.540000E-8	0.004547
3.545000E-8	0.004144
3.550000E-8	0.003700
3.555000E-8	0.003288
3.560000E-8	0.002716
3.565000E-8	0.002081
3.570000E-8	0.001716
3.575000E-8	0.001306
3.580000E-8	0.000944
3.585000E-8	0.000794
3.590000E-8	0.000513
3.595000E-8	0.000453
3.600000E-8	0.000519
3.605000E-8	0.000775
3.610000E-8	0.000969
3.615000E-8	0.001306
3.620000E-8	0.001713
3.625000E-8	0.002219
3.630000E-8	0.002719
3.635000E-8	0.003356
3.640000E-8	0.003819
3.645000E-8	0.004166
3.650000E-8	0.004522
3.655000E-8	0.004741
3.660000E-8	0.004875
3.665000E-8	0.004844
3.670000E-8	0.004684
3.675000E-8	0.004453
3.680000E-8	0.004009
3.685000E-8	0.003531
3.690000E-8	0.003003
3.695000E-8	0.002459
3.700000E-8	0.001856
3.705000E-8	0.001550
3.710000E-8	0.001172
3.715000E-8	0.000884
3.720000E-8	0.000566
3.725000E-8	0.000612
3.730000E-8	0.000647
3.735000E-8	0.000828
3.740000E-8	0.001163
3.745000E-8	0.001591
3.750000E-8	0.002116
3.755000E-8	0.002713
3.760000E-8	0.003181
3.765000E-8	0.003594
3.770000E-8	0.004144
3.775000E-8	0.004559
3.780000E-8	0.004853
3.785000E-8	0.005038
3.790000E-8	0.005116
3.795000E-8	0.005094
3.800000E-8	0.004881
3.805000E-8	0.004591
3.810000E-8	0.004122
3.815000E-8	0.003769
3.820000E-8	0.003206
3.825000E-8	0.002672
3.830000E-8	0.002244
3.835000E-8	0.001841
3.840000E-8	0.001338
3.845000E-8	0.001063
3.850000E-8	0.000853
3.855000E-8	0.000953
3.860000E-8	0.000938
3.865000E-8	0.001075
3.870000E-8	0.001266
3.875000E-8	0.001600
3.880000E-8	0.001775
3.885000E-8	0.002172
3.890000E-8	0.002675
3.895000E-8	0.003097
3.900000E-8	0.003447
3.905000E-8	0.003788
3.910000E-8	0.004147
3.915000E-8	0.004409
3.920000E-8	0.004566
3.925000E-8	0.004594
3.930000E-8	0.004463
3.935000E-8	0.004275
3.940000E-8	0.003925
3.945000E-8	0.003622
3.950000E-8	0.003038
3.955000E-8	0.002509
3.960000E-8	0.001978
3.965000E-8	0.001656
3.970000E-8	0.001391
3.975000E-8	0.001194
3.980000E-8	0.001016
3.985000E-8	0.000897
3.990000E-8	0.000931
3.995000E-8	0.001144
4.000000E-8	0.001275
4.005000E-8	0.001594
4.010000E-8	0.001806
4.015000E-8	0.002197
4.020000E-8	0.002553
4.025000E-8	0.002928
4.030000E-8	0.003284
4.035000E-8	0.003756
4.040000E-8	0.003950
4.045000E-8	0.004150
4.050000E-8	0.004250
4.055000E-8	0.004531
4.060000E-8	0.004472
4.065000E-8	0.004378
4.070000E-8	0.004175
4.075000E-8	0.004094
4.080000E-8	0.003544
4.085000E-8	0.003225
4.090000E-8	0.002759
4.095000E-8	0.002353
4.100000E-8	0.002022
4.105000E-8	0.001653
4.110000E-8	0.001359
4.115000E-8	0.001297
4.120000E-8	0.001309
4.125000E-8	0.001347
4.130000E-8	0.001431
4.135000E-8	0.001784
4.140000E-8	0.002150
4.145000E-8	0.002509
4.150000E-8	0.002737
4.155000E-8	0.003050
4.160000E-8	0.003334
4.165000E-8	0.003584
4.170000E-8	0.003853
4.175000E-8	0.004084
4.180000E-8	0.004163
4.185000E-8	0.004319
4.190000E-8	0.004347
4.195000E-8	0.004272
4.200000E-8	0.004041
4.205000E-8	0.003772
4.210000E-8	0.003488
4.215000E-8	0.003184
4.220000E-8	0.002622
4.225000E-8	0.002253
4.230000E-8	0.001759
4.235000E-8	0.001381
4.240000E-8	0.001213
4.245000E-8	0.001000
4.250000E-8	0.000813
4.255000E-8	0.000906
4.260000E-8	0.001038
4.265000E-8	0.001134
4.270000E-8	0.001391
4.275000E-8	0.001788
4.280000E-8	0.002153
4.285000E-8	0.002559
4.290000E-8	0.002847
4.295000E-8	0.003247
4.300000E-8	0.003544
4.305000E-8	0.003947
4.310000E-8	0.004144
4.315000E-8	0.004206
4.320000E-8	0.004406
4.325000E-8	0.004297
4.330000E-8	0.004141
4.335000E-8	0.004038
4.340000E-8	0.003656
4.345000E-8	0.003266
4.350000E-8	0.002922
4.355000E-8	0.002509
4.360000E-8	0.002044
4.365000E-8	0.001588
4.370000E-8	0.001206
4.375000E-8	0.001012
4.380000E-8	0.000891
4.385000E-8	0.000947
4.390000E-8	0.000956
4.395000E-8	0.001291
4.400000E-8	0.001563
4.405000E-8	0.001891
4.410000E-8	0.002409
4.415000E-8	0.002831
4.420000E-8	0.003372
4.425000E-8	0.003766
4.430000E-8	0.004019
4.435000E-8	0.004228
4.440000E-8	0.004369
4.445000E-8	0.004359
4.450000E-8	0.004353
4.455000E-8	0.004138
4.460000E-8	0.003944
4.465000E-8	0.003725
4.470000E-8	0.003531
4.475000E-8	0.003219
4.480000E-8	0.002809
4.485000E-8	0.002425
4.490000E-8	0.002069
4.495000E-8	0.001884
4.500000E-8	0.001544
4.505000E-8	0.001413
4.510000E-8	0.001216
4.515000E-8	0.001253
4.520000E-8	0.001275
4.525000E-8	0.001494
4.530000E-8	0.001581
4.535000E-8	0.001856
4.540000E-8	0.002078
4.545000E-8	0.002475
4.550000E-8	0.002878
4.555000E-8	0.003225
4.560000E-8	0.003481
4.565000E-8	0.003763
4.570000E-8	0.003897
4.575000E-8	0.004066
4.580000E-8	0.004016
4.585000E-8	0.003969
4.590000E-8	0.003863
4.595000E-8	0.003816
4.600000E-8	0.003650
4.605000E-8	0.003322
4.610000E-8	0.002900
4.615000E-8	0.002569
4.620000E-8	0.002116
4.625000E-8	0.001803
4.630000E-8	0.001500
4.635000E-8	0.001231
4.640000E-8	0.001088
4.645000E-8	0.001069
4.650000E-8	0.001178
4.655000E-8	0.001366
4.660000E-8	0.001813
4.665000E-8	0.002066
4.670000E-8	0.002481
4.675000E-8	0.002791
4.680000E-8	0.003003
4.685000E-8	0.003444
4.690000E-8	0.003706
4.695000E-8	0.003847
4.700000E-8	0.003850
4.705000E-8	0.004069
4.710000E-8	0.003991
4.715000E-8	0.003994
4.720000E-8	0.003788
4.725000E-8	0.003666
4.730000E-8	0.003334
4.735000E-8	0.003156
4.740000E-8	0.002856
4.745000E-8	0.002341
4.750000E-8	0.002113
4.755000E-8	0.001819
4.760000E-8	0.001484
4.765000E-8	0.001284
4.770000E-8	0.001263
4.775000E-8	0.001256
4.780000E-8	0.001419
4.785000E-8	0.001544
4.790000E-8	0.001759
4.795000E-8	0.002022
4.800000E-8	0.002303
4.805000E-8	0.002666
4.810000E-8	0.002822
4.815000E-8	0.003103
4.820000E-8	0.003247
4.825000E-8	0.003509
4.830000E-8	0.003572
4.835000E-8	0.003722
4.840000E-8	0.003750
4.845000E-8	0.003678
4.850000E-8	0.003581
4.855000E-8	0.003512
4.860000E-8	0.003259
4.865000E-8	0.002969
4.870000E-8	0.002606
4.875000E-8	0.002350
4.880000E-8	0.002125
4.885000E-8	0.001931
4.890000E-8	0.001700
4.895000E-8	0.001625
4.900000E-8	0.001569
4.905000E-8	0.001606
4.910000E-8	0.001541
4.915000E-8	0.001775
4.920000E-8	0.001825
4.925000E-8	0.001975
4.930000E-8	0.002044
4.935000E-8	0.002272
4.940000E-8	0.002437
4.945000E-8	0.002881
4.950000E-8	0.003181
4.955000E-8	0.003422
4.960000E-8	0.003647
4.965000E-8	0.003997
4.970000E-8	0.004034
4.975000E-8	0.004047
4.980000E-8	0.003959
4.985000E-8	0.003897
4.990000E-8	0.003594
4.995000E-8	0.003497
5.000000E-8	0.003213
5.005000E-8	0.002944
5.010000E-8	0.002600
5.015000E-8	0.002338
5.020000E-8	0.002103
5.025000E-8	0.001884
5.030000E-8	0.001691
5.035000E-8	0.001584
5.040000E-8	0.001519
5.045000E-8	0.001600
5.050000E-8	0.001509
5.055000E-8	0.001713
5.060000E-8	0.001984
5.065000E-8	0.002241
5.070000E-8	0.002463
5.075000E-8	0.002831
5.080000E-8	0.003103
5.085000E-8	0.003381
5.090000E-8	0.003572
5.095000E-8	0.003753
5.100000E-8	0.003819
5.105000E-8	0.003866
5.110000E-8	0.003797
5.115000E-8	0.003575
5.120000E-8	0.003356
5.125000E-8	0.003156
5.130000E-8	0.002913
5.135000E-8	0.002819
5.140000E-8	0.002413
5.145000E-8	0.002003
5.150000E-8	0.001850
5.155000E-8	0.001628
5.160000E-8	0.001519
5.165000E-8	0.001375
5.170000E-8	0.001338
5.175000E-8	0.001338
5.180000E-8	0.001366
5.185000E-8	0.001691
5.190000E-8	0.001766
5.195000E-8	0.002072
5.200000E-8	0.002341
5.205000E-8	0.002638
5.210000E-8	0.002997
5.215000E-8	0.003363
5.220000E-8	0.003563
5.225000E-8	0.003784
5.230000E-8	0.003866
5.235000E-8	0.003962
5.240000E-8	0.003816
5.245000E-8	0.003691
5.250000E-8	0.003488
5.255000E-8	0.003328
5.260000E-8	0.002959
5.265000E-8	0.002859
5.270000E-8	0.002503
5.275000E-8	0.002175
5.280000E-8	0.001919
5.285000E-8	0.001719
5.290000E-8	0.001509
5.295000E-8	0.001419
5.300000E-8	0.001400
5.305000E-8	0.001331
5.310000E-8	0.001356
5.315000E-8	0.001528
5.320000E-8	0.001769
5.325000E-8	0.002081
5.330000E-8	0.002300
5.335000E-8	0.002684
5.340000E-8	0.002872
5.345000E-8	0.003119
5.350000E-8	0.003378
5.355000E-8	0.003669
5.360000E-8	0.003653
5.365000E-8	0.003691
5.370000E-8	0.003613
5.375000E-8	0.003541
5.380000E-8	0.003359
5.385000E-8	0.003297
5.390000E-8	0.003084
5.395000E-8	0.002850
5.400000E-8	0.002509
5.405000E-8	0.002231
5.410000E-8	0.001941
5.415000E-8	0.001847
5.420000E-8	0.001741
5.425000E-8	0.001581
5.430000E-8	0.001591
5.435000E-8	0.001597
5.440000E-8	0.001669
5.445000E-8	0.001691
5.450000E-8	0.001828
5.455000E-8	0.002000
5.460000E-8	0.002144
5.465000E-8	0.002456
5.470000E-8	0.002697
5.475000E-8	0.003078
5.480000E-8	0.003216
5.485000E-8	0.003434
5.490000E-8	0.003519
5.495000E-8	0.003681
5.500000E-8	0.003581
5.505000E-8	0.003544
5.510000E-8	0.003450
5.515000E-8	0.003328
5.520000E-8	0.003097
5.525000E-8	0.002947
5.530000E-8	0.002587
5.535000E-8	0.002381
5.540000E-8	0.002172
5.545000E-8	0.001966
5.550000E-8	0.001753
5.555000E-8	0.001472
5.560000E-8	0.001338
5.565000E-8	0.001325
5.570000E-8	0.001441
5.575000E-8	0.001481
5.580000E-8	0.001625
5.585000E-8	0.001884
5.590000E-8	0.002047
5.595000E-8	0.002397
5.600000E-8	0.002722
5.605000E-8	0.002984
5.610000E-8	0.003250
5.615000E-8	0.003431
5.620000E-8	0.003500
5.625000E-8	0.003538
5.630000E-8	0.003619
5.635000E-8	0.003622
5.640000E-8	0.003347
5.645000E-8	0.003188
5.650000E-8	0.003003
5.655000E-8	0.002697
5.660000E-8	0.002341
5.665000E-8	0.002056
5.670000E-8	0.001828
5.675000E-8	0.001634
5.680000E-8	0.001469
5.685000E-8	0.001472
5.690000E-8	0.001431
5.695000E-8	0.001563
5.700000E-8	0.001509
5.705000E-8	0.001741
5.710000E-8	0.001975
5.715000E-8	0.002231
5.720000E-8	0.002463
5.725000E-8	0.002734
5.730000E-8	0.002872
5.735000E-8	0.003081
5.740000E-8	0.003266
5.745000E-8	0.003431
5.750000E-8	0.003716
5.755000E-8	0.003681
5.760000E-8	0.003663
5.765000E-8	0.003519
5.770000E-8	0.003416
5.775000E-8	0.003359
5.780000E-8	0.003188
5.785000E-8	0.003016
5.790000E-8	0.002788
5.795000E-8	0.002619
5.800000E-8	0.002525
5.805000E-8	0.002441
5.810000E-8	0.002344
5.815000E-8	0.002306
5.820000E-8	0.002153
5.825000E-8	0.002072
5.830000E-8	0.002100
5.835000E-8	0.002119
5.840000E-8	0.002197
5.845000E-8	0.002375
5.850000E-8	0.002475
5.855000E-8	0.002694
5.860000E-8	0.002791
5.865000E-8	0.003041
5.870000E-8	0.003047
5.875000E-8	0.003247
5.880000E-8	0.003341
5.885000E-8	0.003575
5.890000E-8	0.003675
5.895000E-8	0.003697
5.900000E-8	0.003638
5.905000E-8	0.003622
5.910000E-8	0.003381
5.915000E-8	0.003294
5.920000E-8	0.003063
5.925000E-8	0.002863
5.930000E-8	0.002519
5.935000E-8	0.002384
5.940000E-8	0.002094
5.945000E-8	0.001994
5.950000E-8	0.001806
5.955000E-8	0.001863
5.960000E-8	0.001828
5.965000E-8	0.002050
5.970000E-8	0.002156
5.975000E-8	0.002544
5.980000E-8	0.002778
5.985000E-8	0.002906
5.990000E-8	0.003059
5.995000E-8	0.003219
6.000000E-8	0.003284
6.005000E-8	0.003456
6.010000E-8	0.003456
6.015000E-8	0.003619
6.020000E-8	0.003563
6.025000E-8	0.003613
6.030000E-8	0.003631
6.035000E-8	0.003572
6.040000E-8	0.003413
6.045000E-8	0.003381
6.050000E-8	0.003150
6.055000E-8	0.003028
6.060000E-8	0.002822
6.065000E-8	0.002638
6.070000E-8	0.002444
6.075000E-8	0.002334
6.080000E-8	0.002172
6.085000E-8	0.002134
6.090000E-8	0.002034
6.095000E-8	0.001997
6.100000E-8	0.002075
6.105000E-8	0.002159
6.110000E-8	0.002416
6.115000E-8	0.002697
6.120000E-8	0.002769
6.125000E-8	0.003006
6.130000E-8	0.003172
6.135000E-8	0.003350
6.140000E-8	0.003463
6.145000E-8	0.003675
6.150000E-8	0.003722
6.155000E-8	0.003719
6.160000E-8	0.003675
6.165000E-8	0.003497
6.170000E-8	0.003388
6.175000E-8	0.003322
6.180000E-8	0.003063
6.185000E-8	0.002853
6.190000E-8	0.002731
6.195000E-8	0.002547
6.200000E-8	0.002331
6.205000E-8	0.002159
6.210000E-8	0.001994
6.215000E-8	0.001928
6.220000E-8	0.001963
6.225000E-8	0.001978
6.230000E-8	0.001906
6.235000E-8	0.001947
6.240000E-8	0.002047
6.245000E-8	0.002409
6.250000E-8	0.002575
6.255000E-8	0.002850
6.260000E-8	0.003069
6.265000E-8	0.003228
6.270000E-8	0.003409
6.275000E-8	0.003628
6.280000E-8	0.003572
6.285000E-8	0.003697
6.290000E-8	0.003569
6.295000E-8	0.003541
6.300000E-8	0.003356
6.305000E-8	0.003147
6.310000E-8	0.002916
6.315000E-8	0.002691
6.320000E-8	0.002400
6.325000E-8	0.002344
6.330000E-8	0.002234
6.335000E-8	0.002188
6.340000E-8	0.002059
6.345000E-8	0.001956
6.350000E-8	0.001947
6.355000E-8	0.002106
6.360000E-8	0.002147
6.365000E-8	0.002237
6.370000E-8	0.002378
6.375000E-8	0.002675
6.380000E-8	0.002928
6.385000E-8	0.003034
6.390000E-8	0.003162
6.395000E-8	0.003341
6.400000E-8	0.003441
6.405000E-8	0.003600
6.410000E-8	0.003656
6.415000E-8	0.003581
6.420000E-8	0.003528
6.425000E-8	0.003384
6.430000E-8	0.003172
6.435000E-8	0.003009
6.440000E-8	0.002741
6.445000E-8	0.002634
6.450000E-8	0.002381
6.455000E-8	0.002216
6.460000E-8	0.002100
6.465000E-8	0.002047
6.470000E-8	0.001922
6.475000E-8	0.001984
6.480000E-8	0.002031
6.485000E-8	0.002125
6.490000E-8	0.002247
6.495000E-8	0.002303
6.500000E-8	0.002266
6.505000E-8	0.002441
6.510000E-8	0.002525
6.515000E-8	0.002784
6.520000E-8	0.002844
6.525000E-8	0.002875
6.530000E-8	0.002853
6.535000E-8	0.003044
6.540000E-8	0.003078
6.545000E-8	0.003181
6.550000E-8	0.003241
6.555000E-8	0.003181
6.560000E-8	0.003084
6.565000E-8	0.003038
6.570000E-8	0.002844
6.575000E-8	0.002716
6.580000E-8	0.002587
6.585000E-8	0.002534
6.590000E-8	0.002413
6.595000E-8	0.002369
6.600000E-8	0.002259
6.605000E-8	0.002294
6.610000E-8	0.002253
6.615000E-8	0.002325
6.620000E-8	0.002275
6.625000E-8	0.002397
6.630000E-8	0.002363
6.635000E-8	0.002478
6.640000E-8	0.002641
6.645000E-8	0.002863
6.650000E-8	0.002956
6.655000E-8	0.003106
6.660000E-8	0.003250
6.665000E-8	0.003428
6.670000E-8	0.003441
6.675000E-8	0.003541
6.680000E-8	0.003613
6.685000E-8	0.003709
6.690000E-8	0.003678
6.695000E-8	0.003603
6.700000E-8	0.003528
6.705000E-8	0.003428
6.710000E-8	0.003266
6.715000E-8	0.003066
6.720000E-8	0.002600
6.725000E-8	0.002359
6.730000E-8	0.002063
6.735000E-8	0.001903
6.740000E-8	0.001659
6.745000E-8	0.001559
6.750000E-8	0.001584
6.755000E-8	0.001694
6.760000E-8	0.001881
6.765000E-8	0.002056
6.770000E-8	0.002197
6.775000E-8	0.002528
6.780000E-8	0.002678
6.785000E-8	0.002797
6.790000E-8	0.002756
6.795000E-8	0.003016
6.800000E-8	0.002931
6.805000E-8	0.003009
6.810000E-8	0.003019
6.815000E-8	0.003059
6.820000E-8	0.002875
6.825000E-8	0.002741
6.830000E-8	0.002656
6.835000E-8	0.002591
6.840000E-8	0.002469
6.845000E-8	0.002419
6.850000E-8	0.002206
6.855000E-8	0.002144
6.860000E-8	0.001947
6.865000E-8	0.002103
6.870000E-8	0.002094
6.875000E-8	0.002169
6.880000E-8	0.002169
6.885000E-8	0.002319
6.890000E-8	0.002381
6.895000E-8	0.002566
6.900000E-8	0.002628
6.905000E-8	0.002694
6.910000E-8	0.002778
6.915000E-8	0.003019
6.920000E-8	0.003044
6.925000E-8	0.003275
6.930000E-8	0.003256
6.935000E-8	0.003381
6.940000E-8	0.003378
6.945000E-8	0.003328
6.950000E-8	0.003247
6.955000E-8	0.003025
6.960000E-8	0.002859
6.965000E-8	0.002803
6.970000E-8	0.002650
6.975000E-8	0.002413
6.980000E-8	0.002297
6.985000E-8	0.002209
6.990000E-8	0.002038
6.995000E-8	0.001997
7.000000E-8	0.001756
7.005000E-8	0.001753
7.010000E-8	0.001713
7.015000E-8	0.001791
7.020000E-8	0.001869
7.025000E-8	0.001903
7.030000E-8	0.002162
7.035000E-8	0.002381
7.040000E-8	0.002600
7.045000E-8	0.002900
7.050000E-8	0.003022
7.055000E-8	0.003213
7.060000E-8	0.003419
7.065000E-8	0.003488
7.070000E-8	0.003494
7.075000E-8	0.003497
7.080000E-8	0.003447
7.085000E-8	0.003269
7.090000E-8	0.003041
7.095000E-8	0.002913
7.100000E-8	0.002791
7.105000E-8	0.002653
7.110000E-8	0.002550
7.115000E-8	0.002459
7.120000E-8	0.002388
7.125000E-8	0.002319
7.130000E-8	0.002344
7.135000E-8	0.002450
7.140000E-8	0.002391
7.145000E-8	0.002494
7.150000E-8	0.002587
7.155000E-8	0.002709
7.160000E-8	0.002688
7.165000E-8	0.002675
7.170000E-8	0.002653
7.175000E-8	0.002763
7.180000E-8	0.002766
7.185000E-8	0.002916
7.190000E-8	0.002884
7.195000E-8	0.003016
7.200000E-8	0.003116
7.205000E-8	0.003166
7.210000E-8	0.003144
7.215000E-8	0.003128
7.220000E-8	0.003053
7.225000E-8	0.003144
7.230000E-8	0.002853
7.235000E-8	0.002816
7.240000E-8	0.002766
7.245000E-8	0.002594
7.250000E-8	0.002519
7.255000E-8	0.002363
7.260000E-8	0.002425
7.265000E-8	0.002384
7.270000E-8	0.002400
7.275000E-8	0.002500
7.280000E-8	0.002500
7.285000E-8	0.002606
7.290000E-8	0.002625
7.295000E-8	0.002725
7.300000E-8	0.002737
7.305000E-8	0.002672
7.310000E-8	0.002784
7.315000E-8	0.002831
7.320000E-8	0.002856
7.325000E-8	0.002875
7.330000E-8	0.002919
7.335000E-8	0.003087
7.340000E-8	0.003094
7.345000E-8	0.002978
7.350000E-8	0.002972
7.355000E-8	0.002994
7.360000E-8	0.002931
7.365000E-8	0.002694
7.370000E-8	0.002600
7.375000E-8	0.002525
7.380000E-8	0.002278
7.385000E-8	0.002178
7.390000E-8	0.002100
7.395000E-8	0.002078
7.400000E-8	0.002016
7.405000E-8	0.002125
7.410000E-8	0.002228
7.415000E-8	0.002444
7.420000E-8	0.002409
7.425000E-8	0.002478
7.430000E-8	0.002659
7.435000E-8	0.002797
7.440000E-8	0.002791
7.445000E-8	0.002822
7.450000E-8	0.002859
7.455000E-8	0.002963
7.460000E-8	0.002988
7.465000E-8	0.003019
7.470000E-8	0.002950
7.475000E-8	0.002900
7.480000E-8	0.002850
7.485000E-8	0.002772
7.490000E-8	0.002644
7.495000E-8	0.002491
7.500000E-8	0.002272
7.505000E-8	0.002216
7.510000E-8	0.002066
7.515000E-8	0.002125
7.520000E-8	0.002097
7.525000E-8	0.002213
7.530000E-8	0.002109
7.535000E-8	0.002153
7.540000E-8	0.002153
7.545000E-8	0.002372
7.550000E-8	0.002428
7.555000E-8	0.002512
7.560000E-8	0.002488
7.565000E-8	0.002544
7.570000E-8	0.002619
7.575000E-8	0.002944
7.580000E-8	0.003028
7.585000E-8	0.003125
7.590000E-8	0.003138
7.595000E-8	0.003162
7.600000E-8	0.003175
7.605000E-8	0.003169
7.610000E-8	0.002963
7.615000E-8	0.002909
7.620000E-8	0.002822
7.625000E-8	0.002662
7.630000E-8	0.002516
7.635000E-8	0.002472
7.640000E-8	0.002369
7.645000E-8	0.002316
7.650000E-8	0.002263
7.655000E-8	0.002281
7.660000E-8	0.002281
7.665000E-8	0.002334
7.670000E-8	0.002403
7.675000E-8	0.002444
7.680000E-8	0.002491
7.685000E-8	0.002503
7.690000E-8	0.002653
7.695000E-8	0.002778
7.700000E-8	0.002888
7.705000E-8	0.002984
7.710000E-8	0.002966
7.715000E-8	0.003034
7.720000E-8	0.003097
7.725000E-8	0.003247
7.730000E-8	0.003172
7.735000E-8	0.003050
7.740000E-8	0.002822
7.745000E-8	0.002622
7.750000E-8	0.002444
7.755000E-8	0.002378
7.760000E-8	0.002234
7.765000E-8	0.002072
7.770000E-8	0.002034
7.775000E-8	0.002116
7.780000E-8	0.002113
7.785000E-8	0.002244
7.790000E-8	0.002319
7.795000E-8	0.002506
7.800000E-8	0.002563
7.805000E-8	0.002662
7.810000E-8	0.002728
7.815000E-8	0.002772
7.820000E-8	0.002894
7.825000E-8	0.003034
7.830000E-8	0.003081
7.835000E-8	0.003228
7.840000E-8	0.003353
7.845000E-8	0.003531
7.850000E-8	0.003553
7.855000E-8	0.003622
7.860000E-8	0.003447
7.865000E-8	0.003441
7.870000E-8	0.003294
7.875000E-8	0.003116
7.880000E-8	0.002847
7.885000E-8	0.002662
7.890000E-8	0.002428
7.895000E-8	0.002281
7.900000E-8	0.002094
7.905000E-8	0.002094
7.910000E-8	0.002006
7.915000E-8	0.001956
7.920000E-8	0.002091
7.925000E-8	0.002100
7.930000E-8	0.002175
7.935000E-8	0.002331
7.940000E-8	0.002316
7.945000E-8	0.002331
7.950000E-8	0.002544
7.955000E-8	0.002587
7.960000E-8	0.002756
7.965000E-8	0.002781
7.970000E-8	0.002863
7.975000E-8	0.002931
7.980000E-8	0.002963
7.985000E-8	0.002984
7.990000E-8	0.003016
7.995000E-8	0.002969
8.000000E-8	0.003019
8.005000E-8	0.002922
8.010000E-8	0.002725
8.015000E-8	0.002722
8.020000E-8	0.002559
8.025000E-8	0.002519
8.030000E-8	0.002338
8.035000E-8	0.002247
8.040000E-8	0.002209
8.045000E-8	0.002047
8.050000E-8	0.002038
8.055000E-8	0.002041
8.060000E-8	0.002066
8.065000E-8	0.002078
8.070000E-8	0.002113
8.075000E-8	0.002294
8.080000E-8	0.002369
8.085000E-8	0.002528
8.090000E-8	0.002650
8.095000E-8	0.002866
8.100000E-8	0.002913
8.105000E-8	0.002975
8.110000E-8	0.003144
8.115000E-8	0.003300
8.120000E-8	0.003278
8.125000E-8	0.003238
8.130000E-8	0.003169
8.135000E-8	0.003141
8.140000E-8	0.002975
8.145000E-8	0.002919
8.150000E-8	0.002731
8.155000E-8	0.002587
8.160000E-8	0.002481
8.165000E-8	0.002394
8.170000E-8	0.002281
8.175000E-8	0.002344
8.180000E-8	0.002322
8.185000E-8	0.002416
8.190000E-8	0.002344
8.195000E-8	0.002525
8.200000E-8	0.002494
8.205000E-8	0.002484
8.210000E-8	0.002575
8.215000E-8	0.002619
8.220000E-8	0.002628
8.225000E-8	0.002816
8.230000E-8	0.002791
8.235000E-8	0.002803
8.240000E-8	0.002850
8.245000E-8	0.002903
8.250000E-8	0.002903
8.255000E-8	0.002916
8.260000E-8	0.002966
8.265000E-8	0.003059
8.270000E-8	0.002975
8.275000E-8	0.002822
8.280000E-8	0.002800
8.285000E-8	0.002872
8.290000E-8	0.002734
8.295000E-8	0.002619
8.300000E-8	0.002544
8.305000E-8	0.002347
8.310000E-8	0.002300
8.315000E-8	0.002344
8.320000E-8	0.002247
8.325000E-8	0.002325
8.330000E-8	0.002472
8.335000E-8	0.002597
8.340000E-8	0.002734
8.345000E-8	0.002931
8.350000E-8	0.002972
8.355000E-8	0.003053
8.360000E-8	0.003100
8.365000E-8	0.003053
8.370000E-8	0.002981
8.375000E-8	0.002966
8.380000E-8	0.002847
8.385000E-8	0.002734
8.390000E-8	0.002725
8.395000E-8	0.002709
8.400000E-8	0.002650
8.405000E-8	0.002653
8.410000E-8	0.002675
8.415000E-8	0.002516
8.420000E-8	0.002522
8.425000E-8	0.002491
8.430000E-8	0.002544
8.435000E-8	0.002587
8.440000E-8	0.002503
8.445000E-8	0.002550
8.450000E-8	0.002422
8.455000E-8	0.002422
8.460000E-8	0.002291
8.465000E-8	0.002322
8.470000E-8	0.002347
8.475000E-8	0.002475
8.480000E-8	0.002494
8.485000E-8	0.002619
8.490000E-8	0.002709
8.495000E-8	0.002872
8.500000E-8	0.002903
8.505000E-8	0.002859
8.510000E-8	0.002847
8.515000E-8	0.002928
8.520000E-8	0.002744
8.525000E-8	0.002856
8.530000E-8	0.002662
8.535000E-8	0.002669
8.540000E-8	0.002644
8.545000E-8	0.002544
8.550000E-8	0.002491
8.555000E-8	0.002469
8.560000E-8	0.002503
8.565000E-8	0.002522
8.570000E-8	0.002578
8.575000E-8	0.002694
8.580000E-8	0.002547
8.585000E-8	0.002675
8.590000E-8	0.002625
8.595000E-8	0.002678
8.600000E-8	0.002703
8.605000E-8	0.002666
8.610000E-8	0.002638
8.615000E-8	0.002875
8.620000E-8	0.002769
8.625000E-8	0.002778
8.630000E-8	0.002844
8.635000E-8	0.002756
8.640000E-8	0.002772
8.645000E-8	0.002853
8.650000E-8	0.002844
8.655000E-8	0.002756
8.660000E-8	0.002697
8.665000E-8	0.002838
8.670000E-8	0.002731
8.675000E-8	0.002647
8.680000E-8	0.002509
8.685000E-8	0.002469
8.690000E-8	0.002419
8.695000E-8	0.002397
8.700000E-8	0.002313
8.705000E-8	0.002228
8.710000E-8	0.002241
8.715000E-8	0.002341
8.720000E-8	0.002341
8.725000E-8	0.002259
8.730000E-8	0.002291
8.735000E-8	0.002466
8.740000E-8	0.002584
8.745000E-8	0.002644
8.750000E-8	0.002684
8.755000E-8	0.002800
8.760000E-8	0.002756
8.765000E-8	0.002813
8.770000E-8	0.002788
8.775000E-8	0.002728
8.780000E-8	0.002756
8.785000E-8	0.002775
8.790000E-8	0.002838
8.795000E-8	0.002781
8.800000E-8	0.002747
8.805000E-8	0.002634
8.810000E-8	0.002509
8.815000E-8	0.002622
8.820000E-8	0.002494
8.825000E-8	0.002569
8.830000E-8	0.002491
8.835000E-8	0.002434
8.840000E-8	0.002328
8.845000E-8	0.002356
8.850000E-8	0.002456
8.855000E-8	0.002525
8.860000E-8	0.002409
8.865000E-8	0.002416
8.870000E-8	0.002419
8.875000E-8	0.002469
8.880000E-8	0.002559
8.885000E-8	0.002747
8.890000E-8	0.002863
8.895000E-8	0.003119
8.900000E-8	0.003231
8.905000E-8	0.003234
8.910000E-8	0.003256
8.915000E-8	0.003275
8.920000E-8	0.003247
8.925000E-8	0.003153
8.930000E-8	0.002997
8.935000E-8	0.002881
8.940000E-8	0.002728
8.945000E-8	0.002594
8.950000E-8	0.002553
8.955000E-8	0.002481
8.960000E-8	0.002434
8.965000E-8	0.002416
8.970000E-8	0.002544
8.975000E-8	0.002622
8.980000E-8	0.002634
8.985000E-8	0.002850
8.990000E-8	0.002888
8.995000E-8	0.003119
9.000000E-8	0.003081
9.005000E-8	0.003169
9.010000E-8	0.003238
9.015000E-8	0.003347
9.020000E-8	0.003391
9.025000E-8	0.003425
9.030000E-8	0.003294
9.035000E-8	0.003266
9.040000E-8	0.003216
9.045000E-8	0.003181
9.050000E-8	0.003000
9.055000E-8	0.002963
9.060000E-8	0.002853
9.065000E-8	0.002878
9.070000E-8	0.002803
9.075000E-8	0.002797
9.080000E-8	0.002616
9.085000E-8	0.002622
9.090000E-8	0.002644
9.095000E-8	0.002672
9.100000E-8	0.002672
9.105000E-8	0.002694
9.110000E-8	0.002575
9.115000E-8	0.002672
9.120000E-8	0.002541
9.125000E-8	0.002556
9.130000E-8	0.002528
9.135000E-8	0.002572
9.140000E-8	0.002684
9.145000E-8	0.002841
9.150000E-8	0.003031
9.155000E-8	0.003188
9.160000E-8	0.003169
9.165000E-8	0.003331
9.170000E-8	0.003284
9.175000E-8	0.003369
9.180000E-8	0.003294
9.185000E-8	0.003250
9.190000E-8	0.003078
9.195000E-8	0.002875
9.200000E-8	0.002703
9.205000E-8	0.002534
9.210000E-8	0.002472
9.215000E-8	0.002350
9.220000E-8	0.002347
9.225000E-8	0.002388
9.230000E-8	0.002453
9.235000E-8	0.002566
9.240000E-8	0.002563
9.245000E-8	0.002691
9.250000E-8	0.002709
9.255000E-8	0.002728
9.260000E-8	0.002675
9.265000E-8	0.002775
9.270000E-8	0.002769
9.275000E-8	0.002713
9.280000E-8	0.002669
9.285000E-8	0.002759
9.290000E-8	0.002697
9.295000E-8	0.002788
9.300000E-8	0.002784
9.305000E-8	0.002872
9.310000E-8	0.002766
9.315000E-8	0.002734
9.320000E-8	0.002659
9.325000E-8	0.002656
9.330000E-8	0.002597
9.335000E-8	0.002606
9.340000E-8	0.002587
9.345000E-8	0.002700
9.350000E-8	0.002641
9.355000E-8	0.002694
9.360000E-8	0.002616
9.365000E-8	0.002669
9.370000E-8	0.002681
9.375000E-8	0.002631
9.380000E-8	0.002684
9.385000E-8	0.002734
9.390000E-8	0.002650
9.395000E-8	0.002775
9.400000E-8	0.002959
9.405000E-8	0.002934
9.410000E-8	0.002984
9.415000E-8	0.003038
9.420000E-8	0.003081
9.425000E-8	0.003075
9.430000E-8	0.003084
9.435000E-8	0.003144
9.440000E-8	0.002947
9.445000E-8	0.002853
9.450000E-8	0.002838
9.455000E-8	0.002778
9.460000E-8	0.002675
9.465000E-8	0.002609
9.470000E-8	0.002497
9.475000E-8	0.002500
9.480000E-8	0.002369
9.485000E-8	0.002284
9.490000E-8	0.002353
9.495000E-8	0.002503
9.500000E-8	0.002491
9.505000E-8	0.002622
9.510000E-8	0.002656
9.515000E-8	0.002788
9.520000E-8	0.002822
9.525000E-8	0.002838
9.530000E-8	0.002897
9.535000E-8	0.002859
9.540000E-8	0.002734
9.545000E-8	0.002794
9.550000E-8	0.002684
9.555000E-8	0.002691
9.560000E-8	0.002656
9.565000E-8	0.002775
9.570000E-8	0.002759
9.575000E-8	0.002791
9.580000E-8	0.002784
9.585000E-8	0.002859
9.590000E-8	0.002913
9.595000E-8	0.002947
9.600000E-8	0.002806
9.605000E-8	0.002819
9.610000E-8	0.002866
9.615000E-8	0.002800
9.620000E-8	0.002716
9.625000E-8	0.002669
9.630000E-8	0.002634
9.635000E-8	0.002653
9.640000E-8	0.002544
9.645000E-8	0.002766
9.650000E-8	0.002669
9.655000E-8	0.002884
9.660000E-8	0.002900
9.665000E-8	0.002916
9.670000E-8	0.002975
9.675000E-8	0.003072
9.680000E-8	0.003003
9.685000E-8	0.002963
9.690000E-8	0.003009
9.695000E-8	0.003006
9.700000E-8	0.002819
9.705000E-8	0.002859
9.710000E-8	0.002828
9.715000E-8	0.002869
9.720000E-8	0.002694
9.725000E-8	0.002544
9.730000E-8	0.002578
9.735000E-8	0.002650
9.740000E-8	0.002587
9.745000E-8	0.002572
9.750000E-8	0.002488
9.755000E-8	0.002516
9.760000E-8	0.002516
9.765000E-8	0.002431
9.770000E-8	0.002422
9.775000E-8	0.002456
9.780000E-8	0.002444
9.785000E-8	0.002581
9.790000E-8	0.002644
9.795000E-8	0.002725
9.800000E-8	0.002759
9.805000E-8	0.002788
9.810000E-8	0.002978
9.815000E-8	0.002978
9.820000E-8	0.003125
9.825000E-8	0.003144
9.830000E-8	0.003128
9.835000E-8	0.003122
9.840000E-8	0.003162
9.845000E-8	0.003172
9.850000E-8	0.002981
9.855000E-8	0.003012
9.860000E-8	0.002856
9.865000E-8	0.002869
9.870000E-8	0.002750
9.875000E-8	0.002772
9.880000E-8	0.002628
9.885000E-8	0.002784
9.890000E-8	0.002772
9.895000E-8	0.002956
9.900000E-8	0.003038
9.905000E-8	0.003175
9.910000E-8	0.003172
9.915000E-8	0.003256
9.920000E-8	0.003269
9.925000E-8	0.003219
9.930000E-8	0.003081
9.935000E-8	0.003006
9.940000E-8	0.002825
9.945000E-8	0.002778
9.950000E-8	0.002863
9.955000E-8	0.002722
9.960000E-8	0.002816
9.965000E-8	0.002869
9.970000E-8	0.002863
9.975000E-8	0.002872
9.980000E-8	0.002775
9.985000E-8	0.002734
9.990000E-8	0.002703
9.995000E-8	0.002603
