LabVIEW Measurement	
Writer_Version	2
Reader_Version	2
Separator	Tab
Decimal_Separator	.
Multi_Headings	No
X_Columns	Multi
Time_Pref	Relative
Operator	TG lab
Date	2015/03/06
Time	16:10:41.2356209754943847656
***End_of_Header***	
	
Channels	1	
Samples	2000	
Date	1903/12/31	
Time	19:00:00	
X_Dimension	Time	
X0	0.0000000000000000E+0	
Delta_X	5.000000E-11	
***End_of_Header***		
X_Value	Untitled	Comment
0.000000	0.002119
5.000000E-11	0.002253
1.000000E-10	0.002134
1.500000E-10	0.002150
2.000000E-10	0.002109
2.500000E-10	0.002200
3.000000E-10	0.002200
3.500000E-10	0.002131
4.000000E-10	0.002156
4.500000E-10	0.002162
5.000000E-10	0.002078
5.500000E-10	0.002025
6.000000E-10	0.002113
6.500000E-10	0.002138
7.000000E-10	0.002072
7.500000E-10	0.001997
8.000000E-10	0.001931
8.500000E-10	0.001991
9.000000E-10	0.002050
9.500000E-10	0.002125
1.000000E-9	0.002128
1.050000E-9	0.002106
1.100000E-9	0.002128
1.150000E-9	0.002281
1.200000E-9	0.002197
1.250000E-9	0.002256
1.300000E-9	0.002103
1.350000E-9	0.001975
1.400000E-9	0.002053
1.450000E-9	0.002056
1.500000E-9	0.001972
1.550000E-9	0.001981
1.600000E-9	0.001922
1.650000E-9	0.002053
1.700000E-9	0.002019
1.750000E-9	0.002100
1.800000E-9	0.002059
1.850000E-9	0.001972
1.900000E-9	0.002047
1.950000E-9	0.002087
2.000000E-9	0.002144
2.050000E-9	0.002144
2.100000E-9	0.002063
2.150000E-9	0.002041
2.200000E-9	0.001984
2.250000E-9	0.002022
2.300000E-9	0.001928
2.350000E-9	0.001922
2.400000E-9	0.002012
2.450000E-9	0.001991
2.500000E-9	0.001931
2.550000E-9	0.002138
2.600000E-9	0.002141
2.650000E-9	0.002231
2.700000E-9	0.002250
2.750000E-9	0.002197
2.800000E-9	0.002194
2.850000E-9	0.002291
2.900000E-9	0.002300
2.950000E-9	0.002294
3.000000E-9	0.002259
3.050000E-9	0.002278
3.100000E-9	0.002200
3.150000E-9	0.002300
3.200000E-9	0.002266
3.250000E-9	0.002178
3.300000E-9	0.002184
3.350000E-9	0.002216
3.400000E-9	0.002194
3.450000E-9	0.002266
3.500000E-9	0.002294
3.550000E-9	0.002400
3.600000E-9	0.002372
3.650000E-9	0.002416
3.700000E-9	0.002541
3.750000E-9	0.002569
3.800000E-9	0.002484
3.850000E-9	0.002587
3.900000E-9	0.002459
3.950000E-9	0.002375
4.000000E-9	0.002334
4.050000E-9	0.002247
4.100000E-9	0.002341
4.150000E-9	0.002316
4.200000E-9	0.002384
4.250000E-9	0.002413
4.300000E-9	0.002375
4.350000E-9	0.002416
4.400000E-9	0.002466
4.450000E-9	0.002591
4.500000E-9	0.002634
4.550000E-9	0.002516
4.600000E-9	0.002500
4.650000E-9	0.002597
4.700000E-9	0.002516
4.750000E-9	0.002569
4.800000E-9	0.002563
4.850000E-9	0.002522
4.900000E-9	0.002547
4.950000E-9	0.002606
5.000000E-9	0.002628
5.050000E-9	0.002706
5.100000E-9	0.002731
5.150000E-9	0.002725
5.200000E-9	0.002763
5.250000E-9	0.002769
5.300000E-9	0.002694
5.350000E-9	0.002781
5.400000E-9	0.002809
5.450000E-9	0.002794
5.500000E-9	0.002925
5.550000E-9	0.003056
5.600000E-9	0.002997
5.650000E-9	0.003119
5.700000E-9	0.003144
5.750000E-9	0.002953
5.800000E-9	0.003012
5.850000E-9	0.003031
5.900000E-9	0.002969
5.950000E-9	0.002806
6.000000E-9	0.002784
6.050000E-9	0.002794
6.100000E-9	0.002778
6.150000E-9	0.002734
6.200000E-9	0.002731
6.250000E-9	0.002653
6.300000E-9	0.002769
6.350000E-9	0.002797
6.400000E-9	0.002972
6.450000E-9	0.002991
6.500000E-9	0.003122
6.550000E-9	0.003238
6.600000E-9	0.003434
6.650000E-9	0.003494
6.700000E-9	0.003566
6.750000E-9	0.003587
6.800000E-9	0.003606
6.850000E-9	0.003753
6.900000E-9	0.003897
6.950000E-9	0.004028
7.000000E-9	0.004159
7.050000E-9	0.004281
7.100000E-9	0.004544
7.150000E-9	0.004881
7.200000E-9	0.005331
7.250000E-9	0.005903
7.300000E-9	0.006488
7.350000E-9	0.007181
7.400000E-9	0.008056
7.450000E-9	0.009009
7.500000E-9	0.010213
7.550000E-9	0.011478
7.600000E-9	0.012863
7.650000E-9	0.014397
7.700000E-9	0.015825
7.750000E-9	0.017175
7.800000E-9	0.018569
7.850000E-9	0.019769
7.900000E-9	0.020791
7.950000E-9	0.021897
8.000000E-9	0.022897
8.050000E-9	0.023947
8.100000E-9	0.025016
8.150000E-9	0.026269
8.200000E-9	0.027525
8.250000E-9	0.028778
8.300000E-9	0.029913
8.350000E-9	0.030878
8.400000E-9	0.031747
8.450000E-9	0.032212
8.500000E-9	0.032284
8.550000E-9	0.032069
8.600000E-9	0.031194
8.650000E-9	0.029966
8.700000E-9	0.028347
8.750000E-9	0.026588
8.800000E-9	0.024594
8.850000E-9	0.022806
8.900000E-9	0.020988
8.950000E-9	0.019541
9.000000E-9	0.018450
9.050000E-9	0.017644
9.100000E-9	0.017319
9.150000E-9	0.017431
9.200000E-9	0.017697
9.250000E-9	0.018244
9.300000E-9	0.018853
9.350000E-9	0.019428
9.400000E-9	0.019797
9.450000E-9	0.020106
9.500000E-9	0.019969
9.550000E-9	0.019575
9.600000E-9	0.018866
9.650000E-9	0.017769
9.700000E-9	0.016566
9.750000E-9	0.015334
9.800000E-9	0.013828
9.850000E-9	0.012534
9.900000E-9	0.011334
9.950000E-9	0.010522
1.000000E-8	0.009919
1.005000E-8	0.009553
1.010000E-8	0.009591
1.015000E-8	0.009825
1.020000E-8	0.010300
1.025000E-8	0.010975
1.030000E-8	0.011641
1.035000E-8	0.012328
1.040000E-8	0.012769
1.045000E-8	0.013128
1.050000E-8	0.013125
1.055000E-8	0.012863
1.060000E-8	0.012447
1.065000E-8	0.011638
1.070000E-8	0.010681
1.075000E-8	0.009750
1.080000E-8	0.008816
1.085000E-8	0.007966
1.090000E-8	0.007184
1.095000E-8	0.006728
1.100000E-8	0.006384
1.105000E-8	0.006431
1.110000E-8	0.006628
1.115000E-8	0.007075
1.120000E-8	0.007569
1.125000E-8	0.008297
1.130000E-8	0.008988
1.135000E-8	0.009547
1.140000E-8	0.009969
1.145000E-8	0.010056
1.150000E-8	0.009953
1.155000E-8	0.009719
1.160000E-8	0.009197
1.165000E-8	0.008534
1.170000E-8	0.007678
1.175000E-8	0.006738
1.180000E-8	0.005809
1.185000E-8	0.004975
1.190000E-8	0.004334
1.195000E-8	0.004053
1.200000E-8	0.003803
1.205000E-8	0.004000
1.210000E-8	0.004191
1.215000E-8	0.004681
1.220000E-8	0.005112
1.225000E-8	0.005803
1.230000E-8	0.006372
1.235000E-8	0.006903
1.240000E-8	0.007259
1.245000E-8	0.007541
1.250000E-8	0.007503
1.255000E-8	0.007338
1.260000E-8	0.006891
1.265000E-8	0.006369
1.270000E-8	0.005709
1.275000E-8	0.005078
1.280000E-8	0.004284
1.285000E-8	0.003531
1.290000E-8	0.003059
1.295000E-8	0.002716
1.300000E-8	0.002613
1.305000E-8	0.002831
1.310000E-8	0.003059
1.315000E-8	0.003606
1.320000E-8	0.004222
1.325000E-8	0.005013
1.330000E-8	0.005575
1.335000E-8	0.006175
1.340000E-8	0.006531
1.345000E-8	0.006653
1.350000E-8	0.006600
1.355000E-8	0.006391
1.360000E-8	0.005791
1.365000E-8	0.004975
1.370000E-8	0.004056
1.375000E-8	0.003400
1.380000E-8	0.002528
1.385000E-8	0.002034
1.390000E-8	0.001547
1.395000E-8	0.001350
1.400000E-8	0.001322
1.405000E-8	0.001584
1.410000E-8	0.002188
1.415000E-8	0.002834
1.420000E-8	0.003425
1.425000E-8	0.004150
1.430000E-8	0.004809
1.435000E-8	0.005356
1.440000E-8	0.005700
1.445000E-8	0.005819
1.450000E-8	0.005650
1.455000E-8	0.005322
1.460000E-8	0.004706
1.465000E-8	0.004103
1.470000E-8	0.003263
1.475000E-8	0.002494
1.480000E-8	0.001803
1.485000E-8	0.001206
1.490000E-8	0.000753
1.495000E-8	0.000653
1.500000E-8	0.000700
1.505000E-8	0.001209
1.510000E-8	0.001822
1.515000E-8	0.002478
1.520000E-8	0.003288
1.525000E-8	0.004084
1.530000E-8	0.004697
1.535000E-8	0.005141
1.540000E-8	0.005363
1.545000E-8	0.005231
1.550000E-8	0.004950
1.555000E-8	0.004444
1.560000E-8	0.003719
1.565000E-8	0.002969
1.570000E-8	0.002172
1.575000E-8	0.001388
1.580000E-8	0.000772
1.585000E-8	0.000372
1.590000E-8	0.000144
1.595000E-8	0.000216
1.600000E-8	0.000497
1.605000E-8	0.001284
1.610000E-8	0.002050
1.615000E-8	0.002875
1.620000E-8	0.003659
1.625000E-8	0.004381
1.630000E-8	0.004872
1.635000E-8	0.005225
1.640000E-8	0.005456
1.645000E-8	0.005269
1.650000E-8	0.004772
1.655000E-8	0.004084
1.660000E-8	0.003231
1.665000E-8	0.002450
1.670000E-8	0.001569
1.675000E-8	0.000906
1.680000E-8	0.000481
1.685000E-8	0.000194
1.690000E-8	0.000150
1.695000E-8	0.000584
1.700000E-8	0.000991
1.705000E-8	0.001687
1.710000E-8	0.002628
1.715000E-8	0.003400
1.720000E-8	0.004138
1.725000E-8	0.004691
1.730000E-8	0.005147
1.735000E-8	0.005263
1.740000E-8	0.005081
1.745000E-8	0.004706
1.750000E-8	0.004163
1.755000E-8	0.003459
1.760000E-8	0.002672
1.765000E-8	0.001875
1.770000E-8	0.001175
1.775000E-8	0.000506
1.780000E-8	0.000109
1.785000E-8	4.687500E-5
1.790000E-8	0.000269
1.795000E-8	0.000628
1.800000E-8	0.001178
1.805000E-8	0.001934
1.810000E-8	0.002606
1.815000E-8	0.003334
1.820000E-8	0.003919
1.825000E-8	0.004319
1.830000E-8	0.004409
1.835000E-8	0.004425
1.840000E-8	0.004163
1.845000E-8	0.003775
1.850000E-8	0.003178
1.855000E-8	0.002525
1.860000E-8	0.001647
1.865000E-8	0.001072
1.870000E-8	0.000553
1.875000E-8	0.000219
1.880000E-8	9.375000E-6
1.885000E-8	2.500000E-5
1.890000E-8	0.000237
1.895000E-8	0.000716
1.900000E-8	0.001316
1.905000E-8	0.001997
1.910000E-8	0.002547
1.915000E-8	0.003181
1.920000E-8	0.003719
1.925000E-8	0.004041
1.930000E-8	0.004266
1.935000E-8	0.004216
1.940000E-8	0.004069
1.945000E-8	0.003669
1.950000E-8	0.003147
1.955000E-8	0.002509
1.960000E-8	0.001966
1.965000E-8	0.001378
1.970000E-8	0.001009
1.975000E-8	0.000841
1.980000E-8	0.000734
1.985000E-8	0.000747
1.990000E-8	0.001063
1.995000E-8	0.001475
2.000000E-8	0.002047
2.005000E-8	0.002716
2.010000E-8	0.003244
2.015000E-8	0.003756
2.020000E-8	0.004116
2.025000E-8	0.004313
2.030000E-8	0.004378
2.035000E-8	0.004150
2.040000E-8	0.003641
2.045000E-8	0.003200
2.050000E-8	0.002437
2.055000E-8	0.001884
2.060000E-8	0.001163
2.065000E-8	0.000678
2.070000E-8	0.000225
2.075000E-8	9.375000E-6
2.080000E-8	9.062500E-5
2.085000E-8	0.000338
2.090000E-8	0.000528
2.095000E-8	0.001088
2.100000E-8	0.001841
2.105000E-8	0.002506
2.110000E-8	0.003147
2.115000E-8	0.003709
2.120000E-8	0.004078
2.125000E-8	0.004206
2.130000E-8	0.004206
2.135000E-8	0.004134
2.140000E-8	0.003628
2.145000E-8	0.003122
2.150000E-8	0.002403
2.155000E-8	0.001916
2.160000E-8	0.001234
2.165000E-8	0.000794
2.170000E-8	0.000403
2.175000E-8	0.000300
2.180000E-8	0.000313
2.185000E-8	0.000494
2.190000E-8	0.000891
2.195000E-8	0.001422
2.200000E-8	0.002081
2.205000E-8	0.002850
2.210000E-8	0.003438
2.215000E-8	0.004116
2.220000E-8	0.004503
2.225000E-8	0.004641
2.230000E-8	0.004534
2.235000E-8	0.004288
2.240000E-8	0.003856
2.245000E-8	0.003297
2.250000E-8	0.002584
2.255000E-8	0.001766
2.260000E-8	0.001138
2.265000E-8	0.000653
2.270000E-8	0.000309
2.275000E-8	0.000209
2.280000E-8	0.000378
2.285000E-8	0.000806
2.290000E-8	0.001366
2.295000E-8	0.002081
2.300000E-8	0.002650
2.305000E-8	0.003278
2.310000E-8	0.003875
2.315000E-8	0.004319
2.320000E-8	0.004416
2.325000E-8	0.004447
2.330000E-8	0.004181
2.335000E-8	0.003872
2.340000E-8	0.003184
2.345000E-8	0.002644
2.350000E-8	0.001866
2.355000E-8	0.001156
2.360000E-8	0.000631
2.365000E-8	0.000309
2.370000E-8	8.750000E-5
2.375000E-8	0.000263
2.380000E-8	0.000403
2.385000E-8	0.000800
2.390000E-8	0.001447
2.395000E-8	0.002047
2.400000E-8	0.002713
2.405000E-8	0.003231
2.410000E-8	0.003741
2.415000E-8	0.003988
2.420000E-8	0.003997
2.425000E-8	0.003766
2.430000E-8	0.003538
2.435000E-8	0.003125
2.440000E-8	0.002459
2.445000E-8	0.001937
2.450000E-8	0.001331
2.455000E-8	0.000831
2.460000E-8	0.000469
2.465000E-8	0.000481
2.470000E-8	0.000381
2.475000E-8	0.000641
2.480000E-8	0.001038
2.485000E-8	0.001466
2.490000E-8	0.002072
2.495000E-8	0.002641
2.500000E-8	0.003141
2.505000E-8	0.003519
2.510000E-8	0.003850
2.515000E-8	0.003994
2.520000E-8	0.003806
2.525000E-8	0.003550
2.530000E-8	0.003000
2.535000E-8	0.002475
2.540000E-8	0.001859
2.545000E-8	0.001322
2.550000E-8	0.000891
2.555000E-8	0.000475
2.560000E-8	0.000325
2.565000E-8	0.000303
2.570000E-8	0.000472
2.575000E-8	0.000878
2.580000E-8	0.001331
2.585000E-8	0.001794
2.590000E-8	0.002259
2.595000E-8	0.002913
2.600000E-8	0.003359
2.605000E-8	0.003625
2.610000E-8	0.003803
2.615000E-8	0.003834
2.620000E-8	0.003647
2.625000E-8	0.003284
2.630000E-8	0.002841
2.635000E-8	0.002384
2.640000E-8	0.001672
2.645000E-8	0.001138
2.650000E-8	0.000650
2.655000E-8	0.000363
2.660000E-8	0.000228
2.665000E-8	0.000234
2.670000E-8	0.000434
2.675000E-8	0.000766
2.680000E-8	0.001259
2.685000E-8	0.001803
2.690000E-8	0.002309
2.695000E-8	0.002866
2.700000E-8	0.003184
2.705000E-8	0.003450
2.710000E-8	0.003428
2.715000E-8	0.003472
2.720000E-8	0.003247
2.725000E-8	0.002922
2.730000E-8	0.002481
2.735000E-8	0.001984
2.740000E-8	0.001509
2.745000E-8	0.001084
2.750000E-8	0.000788
2.755000E-8	0.000606
2.760000E-8	0.000572
2.765000E-8	0.000616
2.770000E-8	0.000794
2.775000E-8	0.001259
2.780000E-8	0.001697
2.785000E-8	0.002113
2.790000E-8	0.002631
2.795000E-8	0.003031
2.800000E-8	0.003369
2.805000E-8	0.003756
2.810000E-8	0.003947
2.815000E-8	0.003778
2.820000E-8	0.003609
2.825000E-8	0.003319
2.830000E-8	0.002784
2.835000E-8	0.002213
2.840000E-8	0.001694
2.845000E-8	0.001291
2.850000E-8	0.000859
2.855000E-8	0.000494
2.860000E-8	0.000350
2.865000E-8	0.000481
2.870000E-8	0.000631
2.875000E-8	0.001022
2.880000E-8	0.001609
2.885000E-8	0.002128
2.890000E-8	0.002653
2.895000E-8	0.003119
2.900000E-8	0.003525
2.905000E-8	0.003791
2.910000E-8	0.003722
2.915000E-8	0.003569
2.920000E-8	0.003181
2.925000E-8	0.002775
2.930000E-8	0.002234
2.935000E-8	0.001731
2.940000E-8	0.001278
2.945000E-8	0.000794
2.950000E-8	0.000556
2.955000E-8	0.000438
2.960000E-8	0.000500
2.965000E-8	0.000612
2.970000E-8	0.001019
2.975000E-8	0.001453
2.980000E-8	0.001888
2.985000E-8	0.002519
2.990000E-8	0.002813
2.995000E-8	0.003109
3.000000E-8	0.003381
3.005000E-8	0.003497
3.010000E-8	0.003434
3.015000E-8	0.003141
3.020000E-8	0.002744
3.025000E-8	0.002413
3.030000E-8	0.001775
3.035000E-8	0.001369
3.040000E-8	0.001066
3.045000E-8	0.000956
3.050000E-8	0.000728
3.055000E-8	0.000784
3.060000E-8	0.000966
3.065000E-8	0.001238
3.070000E-8	0.001575
3.075000E-8	0.002050
3.080000E-8	0.002553
3.085000E-8	0.003050
3.090000E-8	0.003391
3.095000E-8	0.003553
3.100000E-8	0.003644
3.105000E-8	0.003628
3.110000E-8	0.003338
3.115000E-8	0.002972
3.120000E-8	0.002447
3.125000E-8	0.001988
3.130000E-8	0.001503
3.135000E-8	0.001144
3.140000E-8	0.000813
3.145000E-8	0.000737
3.150000E-8	0.000675
3.155000E-8	0.000822
3.160000E-8	0.001081
3.165000E-8	0.001569
3.170000E-8	0.001975
3.175000E-8	0.002437
3.180000E-8	0.002931
3.185000E-8	0.003313
3.190000E-8	0.003469
3.195000E-8	0.003587
3.200000E-8	0.003450
3.205000E-8	0.003316
3.210000E-8	0.002916
3.215000E-8	0.002559
3.220000E-8	0.002206
3.225000E-8	0.001763
3.230000E-8	0.001303
3.235000E-8	0.001047
3.240000E-8	0.000781
3.245000E-8	0.000800
3.250000E-8	0.000975
3.255000E-8	0.001012
3.260000E-8	0.001166
3.265000E-8	0.001481
3.270000E-8	0.001863
3.275000E-8	0.002269
3.280000E-8	0.002544
3.285000E-8	0.002875
3.290000E-8	0.003113
3.295000E-8	0.003209
3.300000E-8	0.003144
3.305000E-8	0.003069
3.310000E-8	0.002828
3.315000E-8	0.002381
3.320000E-8	0.001972
3.325000E-8	0.001584
3.330000E-8	0.001338
3.335000E-8	0.001109
3.340000E-8	0.000938
3.345000E-8	0.000972
3.350000E-8	0.000969
3.355000E-8	0.001187
3.360000E-8	0.001509
3.365000E-8	0.001866
3.370000E-8	0.002269
3.375000E-8	0.002700
3.380000E-8	0.002978
3.385000E-8	0.003169
3.390000E-8	0.003191
3.395000E-8	0.003247
3.400000E-8	0.003047
3.405000E-8	0.002809
3.410000E-8	0.002506
3.415000E-8	0.002197
3.420000E-8	0.001869
3.425000E-8	0.001578
3.430000E-8	0.001303
3.435000E-8	0.001144
3.440000E-8	0.001153
3.445000E-8	0.001234
3.450000E-8	0.001359
3.455000E-8	0.001534
3.460000E-8	0.001825
3.465000E-8	0.002216
3.470000E-8	0.002628
3.475000E-8	0.002925
3.480000E-8	0.003084
3.485000E-8	0.003209
3.490000E-8	0.003294
3.495000E-8	0.003169
3.500000E-8	0.003022
3.505000E-8	0.002788
3.510000E-8	0.002459
3.515000E-8	0.002172
3.520000E-8	0.001731
3.525000E-8	0.001447
3.530000E-8	0.001334
3.535000E-8	0.001206
3.540000E-8	0.000981
3.545000E-8	0.001041
3.550000E-8	0.001159
3.555000E-8	0.001416
3.560000E-8	0.001694
3.565000E-8	0.002116
3.570000E-8	0.002488
3.575000E-8	0.002809
3.580000E-8	0.003094
3.585000E-8	0.003278
3.590000E-8	0.003284
3.595000E-8	0.003209
3.600000E-8	0.003069
3.605000E-8	0.002900
3.610000E-8	0.002522
3.615000E-8	0.002084
3.620000E-8	0.001706
3.625000E-8	0.001400
3.630000E-8	0.001138
3.635000E-8	0.000966
3.640000E-8	0.000950
3.645000E-8	0.000994
3.650000E-8	0.001147
3.655000E-8	0.001431
3.660000E-8	0.001800
3.665000E-8	0.002188
3.670000E-8	0.002506
3.675000E-8	0.002863
3.680000E-8	0.003038
3.685000E-8	0.003169
3.690000E-8	0.002997
3.695000E-8	0.003019
3.700000E-8	0.002700
3.705000E-8	0.002456
3.710000E-8	0.002162
3.715000E-8	0.001816
3.720000E-8	0.001591
3.725000E-8	0.001475
3.730000E-8	0.001319
3.735000E-8	0.001213
3.740000E-8	0.001297
3.745000E-8	0.001528
3.750000E-8	0.001778
3.755000E-8	0.002175
3.760000E-8	0.002463
3.765000E-8	0.002913
3.770000E-8	0.003028
3.775000E-8	0.003291
3.780000E-8	0.003356
3.785000E-8	0.003319
3.790000E-8	0.003134
3.795000E-8	0.002928
3.800000E-8	0.002756
3.805000E-8	0.002359
3.810000E-8	0.002066
3.815000E-8	0.001684
3.820000E-8	0.001456
3.825000E-8	0.001222
3.830000E-8	0.001119
3.835000E-8	0.001134
3.840000E-8	0.001338
3.845000E-8	0.001506
3.850000E-8	0.001878
3.855000E-8	0.002244
3.860000E-8	0.002575
3.865000E-8	0.002881
3.870000E-8	0.003069
3.875000E-8	0.003147
3.880000E-8	0.003153
3.885000E-8	0.003053
3.890000E-8	0.002819
3.895000E-8	0.002566
3.900000E-8	0.002219
3.905000E-8	0.001850
3.910000E-8	0.001478
3.915000E-8	0.001275
3.920000E-8	0.001091
3.925000E-8	0.001109
3.930000E-8	0.001234
3.935000E-8	0.001178
3.940000E-8	0.001456
3.945000E-8	0.001725
3.950000E-8	0.002003
3.955000E-8	0.002297
3.960000E-8	0.002494
3.965000E-8	0.002725
3.970000E-8	0.002841
3.975000E-8	0.002863
3.980000E-8	0.002859
3.985000E-8	0.002853
3.990000E-8	0.002613
3.995000E-8	0.002409
4.000000E-8	0.002016
4.005000E-8	0.001722
4.010000E-8	0.001409
4.015000E-8	0.001066
4.020000E-8	0.000991
4.025000E-8	0.000847
4.030000E-8	0.000972
4.035000E-8	0.001106
4.040000E-8	0.001369
4.045000E-8	0.001703
4.050000E-8	0.001978
4.055000E-8	0.002422
4.060000E-8	0.002638
4.065000E-8	0.003059
4.070000E-8	0.003200
4.075000E-8	0.003209
4.080000E-8	0.003203
4.085000E-8	0.003144
4.090000E-8	0.002850
4.095000E-8	0.002569
4.100000E-8	0.002122
4.105000E-8	0.001856
4.110000E-8	0.001466
4.115000E-8	0.001200
4.120000E-8	0.001100
4.125000E-8	0.000997
4.130000E-8	0.001175
4.135000E-8	0.001353
4.140000E-8	0.001509
4.145000E-8	0.001903
4.150000E-8	0.002206
4.155000E-8	0.002447
4.160000E-8	0.002675
4.165000E-8	0.003025
4.170000E-8	0.003059
4.175000E-8	0.003038
4.180000E-8	0.002909
4.185000E-8	0.002719
4.190000E-8	0.002350
4.195000E-8	0.002197
4.200000E-8	0.001822
4.205000E-8	0.001550
4.210000E-8	0.001391
4.215000E-8	0.001284
4.220000E-8	0.001238
4.225000E-8	0.001306
4.230000E-8	0.001437
4.235000E-8	0.001672
4.240000E-8	0.001838
4.245000E-8	0.002147
4.250000E-8	0.002434
4.255000E-8	0.002728
4.260000E-8	0.002931
4.265000E-8	0.003016
4.270000E-8	0.003072
4.275000E-8	0.002963
4.280000E-8	0.002913
4.285000E-8	0.002638
4.290000E-8	0.002469
4.295000E-8	0.002250
4.300000E-8	0.002063
4.305000E-8	0.001687
4.310000E-8	0.001413
4.315000E-8	0.001175
4.320000E-8	0.001034
4.325000E-8	0.001081
4.330000E-8	0.001231
4.335000E-8	0.001437
4.340000E-8	0.001672
4.345000E-8	0.002038
4.350000E-8	0.002309
4.355000E-8	0.002528
4.360000E-8	0.002659
4.365000E-8	0.002884
4.370000E-8	0.002822
4.375000E-8	0.002934
4.380000E-8	0.002728
4.385000E-8	0.002509
4.390000E-8	0.002244
4.395000E-8	0.002034
4.400000E-8	0.001750
4.405000E-8	0.001619
4.410000E-8	0.001419
4.415000E-8	0.001422
4.420000E-8	0.001472
4.425000E-8	0.001687
4.430000E-8	0.001841
4.435000E-8	0.002022
4.440000E-8	0.002322
4.445000E-8	0.002609
4.450000E-8	0.002806
4.455000E-8	0.002966
4.460000E-8	0.003059
4.465000E-8	0.003169
4.470000E-8	0.003147
4.475000E-8	0.002894
4.480000E-8	0.002675
4.485000E-8	0.002475
4.490000E-8	0.002047
4.495000E-8	0.001797
4.500000E-8	0.001563
4.505000E-8	0.001397
4.510000E-8	0.001203
4.515000E-8	0.001234
4.520000E-8	0.001375
4.525000E-8	0.001513
4.530000E-8	0.001713
4.535000E-8	0.001941
4.540000E-8	0.002213
4.545000E-8	0.002506
4.550000E-8	0.002609
4.555000E-8	0.002850
4.560000E-8	0.002850
4.565000E-8	0.002825
4.570000E-8	0.002700
4.575000E-8	0.002484
4.580000E-8	0.002275
4.585000E-8	0.001869
4.590000E-8	0.001581
4.595000E-8	0.001388
4.600000E-8	0.001284
4.605000E-8	0.001213
4.610000E-8	0.001191
4.615000E-8	0.001381
4.620000E-8	0.001494
4.625000E-8	0.001744
4.630000E-8	0.001931
4.635000E-8	0.002253
4.640000E-8	0.002459
4.645000E-8	0.002688
4.650000E-8	0.002934
4.655000E-8	0.002959
4.660000E-8	0.002966
4.665000E-8	0.002897
4.670000E-8	0.002713
4.675000E-8	0.002600
4.680000E-8	0.002353
4.685000E-8	0.002041
4.690000E-8	0.001728
4.695000E-8	0.001616
4.700000E-8	0.001359
4.705000E-8	0.001291
4.710000E-8	0.001228
4.715000E-8	0.001238
4.720000E-8	0.001319
4.725000E-8	0.001522
4.730000E-8	0.001687
4.735000E-8	0.002006
4.740000E-8	0.002216
4.745000E-8	0.002497
4.750000E-8	0.002728
4.755000E-8	0.002769
4.760000E-8	0.002841
4.765000E-8	0.002844
4.770000E-8	0.002625
4.775000E-8	0.002550
4.780000E-8	0.002359
4.785000E-8	0.002122
4.790000E-8	0.001806
4.795000E-8	0.001616
4.800000E-8	0.001450
4.805000E-8	0.001425
4.810000E-8	0.001353
4.815000E-8	0.001400
4.820000E-8	0.001597
4.825000E-8	0.001850
4.830000E-8	0.002012
4.835000E-8	0.002194
4.840000E-8	0.002456
4.845000E-8	0.002731
4.850000E-8	0.002850
4.855000E-8	0.002941
4.860000E-8	0.002966
4.865000E-8	0.002875
4.870000E-8	0.002697
4.875000E-8	0.002619
4.880000E-8	0.002400
4.885000E-8	0.002194
4.890000E-8	0.002009
4.895000E-8	0.001934
4.900000E-8	0.001891
4.905000E-8	0.001781
4.910000E-8	0.001766
4.915000E-8	0.001819
4.920000E-8	0.002000
4.925000E-8	0.002122
4.930000E-8	0.002366
4.935000E-8	0.002491
4.940000E-8	0.002525
4.945000E-8	0.002631
4.950000E-8	0.002697
4.955000E-8	0.002763
4.960000E-8	0.002656
4.965000E-8	0.002525
4.970000E-8	0.002391
4.975000E-8	0.002275
4.980000E-8	0.002231
4.985000E-8	0.002041
4.990000E-8	0.001931
4.995000E-8	0.001872
5.000000E-8	0.001725
5.005000E-8	0.001719
5.010000E-8	0.001713
5.015000E-8	0.001709
5.020000E-8	0.001766
5.025000E-8	0.001988
5.030000E-8	0.002200
5.035000E-8	0.002363
5.040000E-8	0.002619
5.045000E-8	0.002844
5.050000E-8	0.003025
5.055000E-8	0.003094
5.060000E-8	0.002991
5.065000E-8	0.002884
5.070000E-8	0.002681
5.075000E-8	0.002425
5.080000E-8	0.002237
5.085000E-8	0.001906
5.090000E-8	0.001550
5.095000E-8	0.001244
5.100000E-8	0.001116
5.105000E-8	0.001244
5.110000E-8	0.001338
5.115000E-8	0.001522
5.120000E-8	0.001731
5.125000E-8	0.001925
5.130000E-8	0.002222
5.135000E-8	0.002484
5.140000E-8	0.002484
5.145000E-8	0.002587
5.150000E-8	0.002516
5.155000E-8	0.002469
5.160000E-8	0.002363
5.165000E-8	0.002150
5.170000E-8	0.002025
5.175000E-8	0.001813
5.180000E-8	0.001775
5.185000E-8	0.001728
5.190000E-8	0.001663
5.195000E-8	0.001694
5.200000E-8	0.001734
5.205000E-8	0.001841
5.210000E-8	0.001909
5.215000E-8	0.002044
5.220000E-8	0.002159
5.225000E-8	0.002313
5.230000E-8	0.002316
5.235000E-8	0.002503
5.240000E-8	0.002572
5.245000E-8	0.002662
5.250000E-8	0.002613
5.255000E-8	0.002653
5.260000E-8	0.002478
5.265000E-8	0.002419
5.270000E-8	0.002250
5.275000E-8	0.002091
5.280000E-8	0.001841
5.285000E-8	0.001753
5.290000E-8	0.001687
5.295000E-8	0.001566
5.300000E-8	0.001497
5.305000E-8	0.001650
5.310000E-8	0.001731
5.315000E-8	0.002016
5.320000E-8	0.002191
5.325000E-8	0.002463
5.330000E-8	0.002569
5.335000E-8	0.002628
5.340000E-8	0.002856
5.345000E-8	0.002931
5.350000E-8	0.002800
5.355000E-8	0.002691
5.360000E-8	0.002416
5.365000E-8	0.002297
5.370000E-8	0.002087
5.375000E-8	0.001866
5.380000E-8	0.001753
5.385000E-8	0.001534
5.390000E-8	0.001450
5.395000E-8	0.001444
5.400000E-8	0.001528
5.405000E-8	0.001559
5.410000E-8	0.001725
5.415000E-8	0.001988
5.420000E-8	0.002156
5.425000E-8	0.002375
5.430000E-8	0.002519
5.435000E-8	0.002609
5.440000E-8	0.002525
5.445000E-8	0.002563
5.450000E-8	0.002441
5.455000E-8	0.002400
5.460000E-8	0.002106
5.465000E-8	0.002028
5.470000E-8	0.001966
5.475000E-8	0.001884
5.480000E-8	0.001722
5.485000E-8	0.001666
5.490000E-8	0.001569
5.495000E-8	0.001628
5.500000E-8	0.001678
5.505000E-8	0.001788
5.510000E-8	0.001813
5.515000E-8	0.001953
5.520000E-8	0.002162
5.525000E-8	0.002347
5.530000E-8	0.002491
5.535000E-8	0.002587
5.540000E-8	0.002566
5.545000E-8	0.002503
5.550000E-8	0.002472
5.555000E-8	0.002472
5.560000E-8	0.002203
5.565000E-8	0.001994
5.570000E-8	0.001612
5.575000E-8	0.001606
5.580000E-8	0.001506
5.585000E-8	0.001422
5.590000E-8	0.001409
5.595000E-8	0.001406
5.600000E-8	0.001609
5.605000E-8	0.001900
5.610000E-8	0.002084
5.615000E-8	0.002241
5.620000E-8	0.002338
5.625000E-8	0.002456
5.630000E-8	0.002525
5.635000E-8	0.002603
5.640000E-8	0.002463
5.645000E-8	0.002353
5.650000E-8	0.002188
5.655000E-8	0.001994
5.660000E-8	0.001947
5.665000E-8	0.001681
5.670000E-8	0.001463
5.675000E-8	0.001313
5.680000E-8	0.001359
5.685000E-8	0.001306
5.690000E-8	0.001334
5.695000E-8	0.001472
5.700000E-8	0.001594
5.705000E-8	0.001697
5.710000E-8	0.001781
5.715000E-8	0.002131
5.720000E-8	0.002206
5.725000E-8	0.002325
5.730000E-8	0.002356
5.735000E-8	0.002350
5.740000E-8	0.002363
5.745000E-8	0.002341
5.750000E-8	0.002391
5.755000E-8	0.002303
5.760000E-8	0.002113
5.765000E-8	0.002034
5.770000E-8	0.001947
5.775000E-8	0.002047
5.780000E-8	0.002000
5.785000E-8	0.002006
5.790000E-8	0.001888
5.795000E-8	0.001900
5.800000E-8	0.002000
5.805000E-8	0.002122
5.810000E-8	0.002141
5.815000E-8	0.002125
5.820000E-8	0.002272
5.825000E-8	0.002381
5.830000E-8	0.002369
5.835000E-8	0.002506
5.840000E-8	0.002353
5.845000E-8	0.002422
5.850000E-8	0.002144
5.855000E-8	0.002125
5.860000E-8	0.001925
5.865000E-8	0.001825
5.870000E-8	0.001622
5.875000E-8	0.001488
5.880000E-8	0.001459
5.885000E-8	0.001506
5.890000E-8	0.001534
5.895000E-8	0.001644
5.900000E-8	0.001703
5.905000E-8	0.001844
5.910000E-8	0.001978
5.915000E-8	0.002144
5.920000E-8	0.002244
5.925000E-8	0.002403
5.930000E-8	0.002369
5.935000E-8	0.002316
5.940000E-8	0.002222
5.945000E-8	0.002156
5.950000E-8	0.002069
5.955000E-8	0.001981
5.960000E-8	0.001856
5.965000E-8	0.001847
5.970000E-8	0.001784
5.975000E-8	0.001800
5.980000E-8	0.001841
5.985000E-8	0.001931
5.990000E-8	0.001991
5.995000E-8	0.002081
6.000000E-8	0.002231
6.005000E-8	0.002328
6.010000E-8	0.002413
6.015000E-8	0.002416
6.020000E-8	0.002409
6.025000E-8	0.002413
6.030000E-8	0.002416
6.035000E-8	0.002425
6.040000E-8	0.002278
6.045000E-8	0.002213
6.050000E-8	0.002141
6.055000E-8	0.002078
6.060000E-8	0.001991
6.065000E-8	0.001988
6.070000E-8	0.002009
6.075000E-8	0.001984
6.080000E-8	0.002019
6.085000E-8	0.002119
6.090000E-8	0.002050
6.095000E-8	0.002084
6.100000E-8	0.002206
6.105000E-8	0.002222
6.110000E-8	0.002316
6.115000E-8	0.002397
6.120000E-8	0.002388
6.125000E-8	0.002378
6.130000E-8	0.002369
6.135000E-8	0.002228
6.140000E-8	0.002063
6.145000E-8	0.002075
6.150000E-8	0.001997
6.155000E-8	0.001819
6.160000E-8	0.001788
6.165000E-8	0.001678
6.170000E-8	0.001650
6.175000E-8	0.001728
6.180000E-8	0.001784
6.185000E-8	0.001825
6.190000E-8	0.002003
6.195000E-8	0.002072
6.200000E-8	0.002122
6.205000E-8	0.002244
6.210000E-8	0.002256
6.215000E-8	0.002316
6.220000E-8	0.002338
6.225000E-8	0.002203
6.230000E-8	0.001978
6.235000E-8	0.002028
6.240000E-8	0.001975
6.245000E-8	0.001872
6.250000E-8	0.001781
6.255000E-8	0.001684
6.260000E-8	0.001741
6.265000E-8	0.001775
6.270000E-8	0.001756
6.275000E-8	0.001756
6.280000E-8	0.001763
6.285000E-8	0.001844
6.290000E-8	0.001944
6.295000E-8	0.002016
6.300000E-8	0.002144
6.305000E-8	0.002288
6.310000E-8	0.002328
6.315000E-8	0.002381
6.320000E-8	0.002541
6.325000E-8	0.002575
6.330000E-8	0.002484
6.335000E-8	0.002413
6.340000E-8	0.002331
6.345000E-8	0.002194
6.350000E-8	0.002016
6.355000E-8	0.001891
6.360000E-8	0.001891
6.365000E-8	0.001750
6.370000E-8	0.001641
6.375000E-8	0.001663
6.380000E-8	0.001722
6.385000E-8	0.001788
6.390000E-8	0.001956
6.395000E-8	0.002012
6.400000E-8	0.002116
6.405000E-8	0.002184
6.410000E-8	0.002278
6.415000E-8	0.002219
6.420000E-8	0.002237
6.425000E-8	0.002222
6.430000E-8	0.002091
6.435000E-8	0.001972
6.440000E-8	0.001859
6.445000E-8	0.001744
6.450000E-8	0.001625
6.455000E-8	0.001422
6.460000E-8	0.001316
6.465000E-8	0.001306
6.470000E-8	0.001341
6.475000E-8	0.001541
6.480000E-8	0.001687
6.485000E-8	0.001828
6.490000E-8	0.002075
6.495000E-8	0.002225
6.500000E-8	0.002356
6.505000E-8	0.002491
6.510000E-8	0.002469
6.515000E-8	0.002544
6.520000E-8	0.002419
6.525000E-8	0.002372
6.530000E-8	0.002169
6.535000E-8	0.002119
6.540000E-8	0.001906
6.545000E-8	0.001834
6.550000E-8	0.001838
6.555000E-8	0.001759
6.560000E-8	0.001756
6.565000E-8	0.001828
6.570000E-8	0.001931
6.575000E-8	0.002016
6.580000E-8	0.002103
6.585000E-8	0.002325
6.590000E-8	0.002325
6.595000E-8	0.002419
6.600000E-8	0.002416
6.605000E-8	0.002463
6.610000E-8	0.002447
6.615000E-8	0.002459
6.620000E-8	0.002403
6.625000E-8	0.002481
6.630000E-8	0.002297
6.635000E-8	0.002191
6.640000E-8	0.002094
6.645000E-8	0.002019
6.650000E-8	0.001856
6.655000E-8	0.001800
6.660000E-8	0.001772
6.665000E-8	0.001825
6.670000E-8	0.001731
6.675000E-8	0.001750
6.680000E-8	0.001775
6.685000E-8	0.001897
6.690000E-8	0.002056
6.695000E-8	0.002241
6.700000E-8	0.002388
6.705000E-8	0.002525
6.710000E-8	0.002400
6.715000E-8	0.002397
6.720000E-8	0.002441
6.725000E-8	0.002369
6.730000E-8	0.002259
6.735000E-8	0.002184
6.740000E-8	0.002022
6.745000E-8	0.002044
6.750000E-8	0.001953
6.755000E-8	0.001937
6.760000E-8	0.001981
6.765000E-8	0.001994
6.770000E-8	0.002106
6.775000E-8	0.002078
6.780000E-8	0.002247
6.785000E-8	0.002416
6.790000E-8	0.002328
6.795000E-8	0.002306
6.800000E-8	0.002172
6.805000E-8	0.002266
6.810000E-8	0.002109
6.815000E-8	0.001953
6.820000E-8	0.001859
6.825000E-8	0.001759
6.830000E-8	0.001650
6.835000E-8	0.001481
6.840000E-8	0.001453
6.845000E-8	0.001519
6.850000E-8	0.001509
6.855000E-8	0.001641
6.860000E-8	0.001578
6.865000E-8	0.001650
6.870000E-8	0.001713
6.875000E-8	0.001797
6.880000E-8	0.001975
6.885000E-8	0.002050
6.890000E-8	0.002156
6.895000E-8	0.002153
6.900000E-8	0.002225
6.905000E-8	0.002094
6.910000E-8	0.002138
6.915000E-8	0.002109
6.920000E-8	0.001981
6.925000E-8	0.002019
6.930000E-8	0.002006
6.935000E-8	0.002116
6.940000E-8	0.002075
6.945000E-8	0.002078
6.950000E-8	0.001994
6.955000E-8	0.002072
6.960000E-8	0.002031
6.965000E-8	0.002138
6.970000E-8	0.002231
6.975000E-8	0.002241
6.980000E-8	0.002331
6.985000E-8	0.002281
6.990000E-8	0.002234
6.995000E-8	0.002253
7.000000E-8	0.002378
7.005000E-8	0.002394
7.010000E-8	0.002419
7.015000E-8	0.002397
7.020000E-8	0.002272
7.025000E-8	0.002322
7.030000E-8	0.002219
7.035000E-8	0.002147
7.040000E-8	0.002053
7.045000E-8	0.002006
7.050000E-8	0.001844
7.055000E-8	0.001856
7.060000E-8	0.001772
7.065000E-8	0.001894
7.070000E-8	0.001866
7.075000E-8	0.001894
7.080000E-8	0.001950
7.085000E-8	0.001884
7.090000E-8	0.002047
7.095000E-8	0.002172
7.100000E-8	0.002247
7.105000E-8	0.002263
7.110000E-8	0.002066
7.115000E-8	0.001997
7.120000E-8	0.002063
7.125000E-8	0.002038
7.130000E-8	0.001903
7.135000E-8	0.001813
7.140000E-8	0.001769
7.145000E-8	0.001719
7.150000E-8	0.001797
7.155000E-8	0.001916
7.160000E-8	0.002031
7.165000E-8	0.002109
7.170000E-8	0.002222
7.175000E-8	0.002437
7.180000E-8	0.002544
7.185000E-8	0.002638
7.190000E-8	0.002534
7.195000E-8	0.002566
7.200000E-8	0.002512
7.205000E-8	0.002559
7.210000E-8	0.002428
7.215000E-8	0.002413
7.220000E-8	0.002278
7.225000E-8	0.002063
7.230000E-8	0.002022
7.235000E-8	0.001981
7.240000E-8	0.002012
7.245000E-8	0.002022
7.250000E-8	0.002022
7.255000E-8	0.002244
7.260000E-8	0.002253
7.265000E-8	0.002378
7.270000E-8	0.002428
7.275000E-8	0.002450
7.280000E-8	0.002506
7.285000E-8	0.002556
7.290000E-8	0.002381
7.295000E-8	0.002291
7.300000E-8	0.002144
7.305000E-8	0.002116
7.310000E-8	0.002031
7.315000E-8	0.001959
7.320000E-8	0.001950
7.325000E-8	0.001838
7.330000E-8	0.001919
7.335000E-8	0.001853
7.340000E-8	0.001863
7.345000E-8	0.001850
7.350000E-8	0.001781
7.355000E-8	0.001863
7.360000E-8	0.001928
7.365000E-8	0.002122
7.370000E-8	0.002122
7.375000E-8	0.002253
7.380000E-8	0.002181
7.385000E-8	0.002281
7.390000E-8	0.002209
7.395000E-8	0.002288
7.400000E-8	0.002209
7.405000E-8	0.002138
7.410000E-8	0.002138
7.415000E-8	0.002116
7.420000E-8	0.002131
7.425000E-8	0.002063
7.430000E-8	0.002106
7.435000E-8	0.002034
7.440000E-8	0.002031
7.445000E-8	0.002022
7.450000E-8	0.002016
7.455000E-8	0.001984
7.460000E-8	0.002019
7.465000E-8	0.002028
7.470000E-8	0.002038
7.475000E-8	0.002109
7.480000E-8	0.002134
7.485000E-8	0.002131
7.490000E-8	0.002106
7.495000E-8	0.002150
7.500000E-8	0.002138
7.505000E-8	0.002041
7.510000E-8	0.002034
7.515000E-8	0.002019
7.520000E-8	0.001991
7.525000E-8	0.001869
7.530000E-8	0.001841
7.535000E-8	0.001841
7.540000E-8	0.001897
7.545000E-8	0.001978
7.550000E-8	0.001994
7.555000E-8	0.002038
7.560000E-8	0.001994
7.565000E-8	0.002103
7.570000E-8	0.002134
7.575000E-8	0.002147
7.580000E-8	0.002128
7.585000E-8	0.002194
7.590000E-8	0.001950
7.595000E-8	0.001916
7.600000E-8	0.001937
7.605000E-8	0.001881
7.610000E-8	0.001816
7.615000E-8	0.001838
7.620000E-8	0.001800
7.625000E-8	0.001916
7.630000E-8	0.001934
7.635000E-8	0.002072
7.640000E-8	0.002109
7.645000E-8	0.002175
7.650000E-8	0.002144
7.655000E-8	0.002069
7.660000E-8	0.002131
7.665000E-8	0.002113
7.670000E-8	0.002072
7.675000E-8	0.002069
7.680000E-8	0.002006
7.685000E-8	0.002025
7.690000E-8	0.001937
7.695000E-8	0.001988
7.700000E-8	0.002006
7.705000E-8	0.002175
7.710000E-8	0.002203
7.715000E-8	0.002153
7.720000E-8	0.002191
7.725000E-8	0.002150
7.730000E-8	0.002122
7.735000E-8	0.002156
7.740000E-8	0.002025
7.745000E-8	0.002025
7.750000E-8	0.001994
7.755000E-8	0.002106
7.760000E-8	0.002097
7.765000E-8	0.002084
7.770000E-8	0.002138
7.775000E-8	0.002169
7.780000E-8	0.002213
7.785000E-8	0.002203
7.790000E-8	0.002225
7.795000E-8	0.002203
7.800000E-8	0.002162
7.805000E-8	0.002178
7.810000E-8	0.002003
7.815000E-8	0.001963
7.820000E-8	0.001934
7.825000E-8	0.001894
7.830000E-8	0.001803
7.835000E-8	0.001781
7.840000E-8	0.001738
7.845000E-8	0.001841
7.850000E-8	0.001813
7.855000E-8	0.001916
7.860000E-8	0.001881
7.865000E-8	0.002091
7.870000E-8	0.002109
7.875000E-8	0.002122
7.880000E-8	0.002175
7.885000E-8	0.002203
7.890000E-8	0.002156
7.895000E-8	0.002153
7.900000E-8	0.002000
7.905000E-8	0.001959
7.910000E-8	0.001847
7.915000E-8	0.001697
7.920000E-8	0.001697
7.925000E-8	0.001625
7.930000E-8	0.001684
7.935000E-8	0.001706
7.940000E-8	0.001741
7.945000E-8	0.001794
7.950000E-8	0.001825
7.955000E-8	0.001866
7.960000E-8	0.001813
7.965000E-8	0.001913
7.970000E-8	0.001984
7.975000E-8	0.001963
7.980000E-8	0.002003
7.985000E-8	0.002113
7.990000E-8	0.002100
7.995000E-8	0.002056
8.000000E-8	0.001953
8.005000E-8	0.001878
8.010000E-8	0.001847
8.015000E-8	0.001809
8.020000E-8	0.001888
8.025000E-8	0.001863
8.030000E-8	0.001834
8.035000E-8	0.001878
8.040000E-8	0.001869
8.045000E-8	0.001969
8.050000E-8	0.002016
8.055000E-8	0.002125
8.060000E-8	0.002091
8.065000E-8	0.002209
8.070000E-8	0.002178
8.075000E-8	0.002188
8.080000E-8	0.002159
8.085000E-8	0.002297
8.090000E-8	0.002325
8.095000E-8	0.002394
8.100000E-8	0.002256
8.105000E-8	0.002244
8.110000E-8	0.002166
8.115000E-8	0.002200
8.120000E-8	0.002263
8.125000E-8	0.002169
8.130000E-8	0.002200
8.135000E-8	0.002175
8.140000E-8	0.002131
8.145000E-8	0.002100
8.150000E-8	0.001997
8.155000E-8	0.002053
8.160000E-8	0.002016
8.165000E-8	0.002006
8.170000E-8	0.001894
8.175000E-8	0.002025
8.180000E-8	0.002047
8.185000E-8	0.001972
8.190000E-8	0.002038
8.195000E-8	0.002016
8.200000E-8	0.002069
8.205000E-8	0.001953
8.210000E-8	0.001931
8.215000E-8	0.001863
8.220000E-8	0.001863
8.225000E-8	0.001800
8.230000E-8	0.001913
8.235000E-8	0.001941
8.240000E-8	0.001859
8.245000E-8	0.001963
8.250000E-8	0.002012
8.255000E-8	0.001972
8.260000E-8	0.001897
8.265000E-8	0.001894
8.270000E-8	0.001925
8.275000E-8	0.001906
8.280000E-8	0.001950
8.285000E-8	0.001922
8.290000E-8	0.002000
8.295000E-8	0.002044
8.300000E-8	0.002197
8.305000E-8	0.002225
8.310000E-8	0.002288
8.315000E-8	0.002338
8.320000E-8	0.002350
8.325000E-8	0.002353
8.330000E-8	0.002341
8.335000E-8	0.002447
8.340000E-8	0.002456
8.345000E-8	0.002447
8.350000E-8	0.002394
8.355000E-8	0.002384
8.360000E-8	0.002359
8.365000E-8	0.002419
8.370000E-8	0.002237
8.375000E-8	0.002241
8.380000E-8	0.002125
8.385000E-8	0.002197
8.390000E-8	0.002034
8.395000E-8	0.001969
8.400000E-8	0.001888
8.405000E-8	0.001937
8.410000E-8	0.001866
8.415000E-8	0.001822
8.420000E-8	0.001778
8.425000E-8	0.001903
8.430000E-8	0.001878
8.435000E-8	0.001978
8.440000E-8	0.002094
8.445000E-8	0.002106
8.450000E-8	0.002172
8.455000E-8	0.002156
8.460000E-8	0.002244
8.465000E-8	0.002400
8.470000E-8	0.002388
8.475000E-8	0.002359
8.480000E-8	0.002281
8.485000E-8	0.002175
8.490000E-8	0.002050
8.495000E-8	0.002019
8.500000E-8	0.001850
8.505000E-8	0.001925
8.510000E-8	0.001859
8.515000E-8	0.001950
8.520000E-8	0.001981
8.525000E-8	0.002044
8.530000E-8	0.002050
8.535000E-8	0.002134
8.540000E-8	0.002081
8.545000E-8	0.002128
8.550000E-8	0.001969
8.555000E-8	0.001956
8.560000E-8	0.001931
8.565000E-8	0.001844
8.570000E-8	0.001759
8.575000E-8	0.001703
8.580000E-8	0.001734
8.585000E-8	0.001819
8.590000E-8	0.001800
8.595000E-8	0.001919
8.600000E-8	0.001900
8.605000E-8	0.001934
8.610000E-8	0.001891
8.615000E-8	0.001884
8.620000E-8	0.001884
8.625000E-8	0.001950
8.630000E-8	0.001978
8.635000E-8	0.001969
8.640000E-8	0.001981
8.645000E-8	0.001994
8.650000E-8	0.002009
8.655000E-8	0.002138
8.660000E-8	0.002150
8.665000E-8	0.002316
8.670000E-8	0.002253
8.675000E-8	0.002388
8.680000E-8	0.002431
8.685000E-8	0.002372
8.690000E-8	0.002309
8.695000E-8	0.002228
8.700000E-8	0.002141
8.705000E-8	0.002109
8.710000E-8	0.001928
8.715000E-8	0.001903
8.720000E-8	0.001794
8.725000E-8	0.001913
8.730000E-8	0.001850
8.735000E-8	0.001900
8.740000E-8	0.001978
8.745000E-8	0.002038
8.750000E-8	0.002075
8.755000E-8	0.002209
8.760000E-8	0.002175
8.765000E-8	0.002250
8.770000E-8	0.002181
8.775000E-8	0.002316
8.780000E-8	0.002309
8.785000E-8	0.002309
8.790000E-8	0.002250
8.795000E-8	0.002225
8.800000E-8	0.002131
8.805000E-8	0.002188
8.810000E-8	0.002091
8.815000E-8	0.002134
8.820000E-8	0.002119
8.825000E-8	0.002119
8.830000E-8	0.002169
8.835000E-8	0.002188
8.840000E-8	0.002166
8.845000E-8	0.002194
8.850000E-8	0.002328
8.855000E-8	0.002259
8.860000E-8	0.002288
8.865000E-8	0.002237
8.870000E-8	0.002034
8.875000E-8	0.002128
8.880000E-8	0.002000
8.885000E-8	0.001856
8.890000E-8	0.001778
8.895000E-8	0.001744
8.900000E-8	0.001641
8.905000E-8	0.001644
8.910000E-8	0.001538
8.915000E-8	0.001581
8.920000E-8	0.001581
8.925000E-8	0.001687
8.930000E-8	0.001834
8.935000E-8	0.001888
8.940000E-8	0.001769
8.945000E-8	0.001859
8.950000E-8	0.001888
8.955000E-8	0.001972
8.960000E-8	0.001997
8.965000E-8	0.002113
8.970000E-8	0.002116
8.975000E-8	0.002131
8.980000E-8	0.002191
8.985000E-8	0.002253
8.990000E-8	0.002188
8.995000E-8	0.002156
9.000000E-8	0.002150
9.005000E-8	0.002178
9.010000E-8	0.002213
9.015000E-8	0.002166
9.020000E-8	0.002116
9.025000E-8	0.002203
9.030000E-8	0.002113
9.035000E-8	0.002087
9.040000E-8	0.002134
9.045000E-8	0.002131
9.050000E-8	0.002141
9.055000E-8	0.002131
9.060000E-8	0.002091
9.065000E-8	0.002191
9.070000E-8	0.002188
9.075000E-8	0.002303
9.080000E-8	0.002141
9.085000E-8	0.002016
9.090000E-8	0.002106
9.095000E-8	0.001966
9.100000E-8	0.001922
9.105000E-8	0.001972
9.110000E-8	0.001813
9.115000E-8	0.001869
9.120000E-8	0.001913
9.125000E-8	0.001913
9.130000E-8	0.001897
9.135000E-8	0.001931
9.140000E-8	0.001897
9.145000E-8	0.001906
9.150000E-8	0.001775
9.155000E-8	0.001769
9.160000E-8	0.001653
9.165000E-8	0.001609
9.170000E-8	0.001597
9.175000E-8	0.001634
9.180000E-8	0.001616
9.185000E-8	0.001547
9.190000E-8	0.001625
9.195000E-8	0.001713
9.200000E-8	0.001797
9.205000E-8	0.001856
9.210000E-8	0.001937
9.215000E-8	0.002087
9.220000E-8	0.002066
9.225000E-8	0.002116
9.230000E-8	0.002091
9.235000E-8	0.002147
9.240000E-8	0.002094
9.245000E-8	0.002016
9.250000E-8	0.001950
9.255000E-8	0.001913
9.260000E-8	0.001825
9.265000E-8	0.001859
9.270000E-8	0.001756
9.275000E-8	0.001919
9.280000E-8	0.001881
9.285000E-8	0.001934
9.290000E-8	0.001853
9.295000E-8	0.001859
9.300000E-8	0.001969
9.305000E-8	0.001978
9.310000E-8	0.001944
9.315000E-8	0.001941
9.320000E-8	0.001738
9.325000E-8	0.001969
9.330000E-8	0.002022
9.335000E-8	0.002091
9.340000E-8	0.001959
9.345000E-8	0.002116
9.350000E-8	0.002075
9.355000E-8	0.002116
9.360000E-8	0.002019
9.365000E-8	0.002162
9.370000E-8	0.001997
9.375000E-8	0.001972
9.380000E-8	0.001966
9.385000E-8	0.001828
9.390000E-8	0.001872
9.395000E-8	0.001828
9.400000E-8	0.001806
9.405000E-8	0.001847
9.410000E-8	0.001919
9.415000E-8	0.001891
9.420000E-8	0.001997
9.425000E-8	0.002144
9.430000E-8	0.002147
9.435000E-8	0.002263
9.440000E-8	0.002153
9.445000E-8	0.002231
9.450000E-8	0.002128
9.455000E-8	0.002175
9.460000E-8	0.002150
9.465000E-8	0.002144
9.470000E-8	0.002059
9.475000E-8	0.002075
9.480000E-8	0.002116
9.485000E-8	0.001994
9.490000E-8	0.001944
9.495000E-8	0.001863
9.500000E-8	0.001878
9.505000E-8	0.001809
9.510000E-8	0.001791
9.515000E-8	0.001722
9.520000E-8	0.001866
9.525000E-8	0.001878
9.530000E-8	0.001869
9.535000E-8	0.001913
9.540000E-8	0.001916
9.545000E-8	0.001881
9.550000E-8	0.001888
9.555000E-8	0.001959
9.560000E-8	0.001825
9.565000E-8	0.001791
9.570000E-8	0.001728
9.575000E-8	0.001734
9.580000E-8	0.001588
9.585000E-8	0.001600
9.590000E-8	0.001597
9.595000E-8	0.001666
9.600000E-8	0.001703
9.605000E-8	0.001859
9.610000E-8	0.001969
9.615000E-8	0.002091
9.620000E-8	0.002109
9.625000E-8	0.002228
9.630000E-8	0.002234
9.635000E-8	0.002250
9.640000E-8	0.002306
9.645000E-8	0.002194
9.650000E-8	0.002116
9.655000E-8	0.002087
9.660000E-8	0.002019
9.665000E-8	0.001959
9.670000E-8	0.002034
9.675000E-8	0.001788
9.680000E-8	0.001709
9.685000E-8	0.001716
9.690000E-8	0.001853
9.695000E-8	0.001856
9.700000E-8	0.001794
9.705000E-8	0.001809
9.710000E-8	0.001919
9.715000E-8	0.001928
9.720000E-8	0.001878
9.725000E-8	0.001913
9.730000E-8	0.002022
9.735000E-8	0.001991
9.740000E-8	0.002075
9.745000E-8	0.002094
9.750000E-8	0.002237
9.755000E-8	0.002278
9.760000E-8	0.002216
9.765000E-8	0.002169
9.770000E-8	0.002125
9.775000E-8	0.002166
9.780000E-8	0.002194
9.785000E-8	0.002019
9.790000E-8	0.001975
9.795000E-8	0.001966
9.800000E-8	0.002009
9.805000E-8	0.002069
9.810000E-8	0.001984
9.815000E-8	0.002044
9.820000E-8	0.002119
9.825000E-8	0.002131
9.830000E-8	0.002012
9.835000E-8	0.001953
9.840000E-8	0.002000
9.845000E-8	0.001997
9.850000E-8	0.002016
9.855000E-8	0.001997
9.860000E-8	0.001903
9.865000E-8	0.001953
9.870000E-8	0.001941
9.875000E-8	0.001900
9.880000E-8	0.001988
9.885000E-8	0.001966
9.890000E-8	0.001966
9.895000E-8	0.002003
9.900000E-8	0.002094
9.905000E-8	0.002172
9.910000E-8	0.002206
9.915000E-8	0.002178
9.920000E-8	0.002259
9.925000E-8	0.002250
9.930000E-8	0.002200
9.935000E-8	0.002403
9.940000E-8	0.002334
9.945000E-8	0.002313
9.950000E-8	0.002194
9.955000E-8	0.002191
9.960000E-8	0.002141
9.965000E-8	0.002053
9.970000E-8	0.002038
9.975000E-8	0.002097
9.980000E-8	0.001994
9.985000E-8	0.002044
9.990000E-8	0.002009
9.995000E-8	0.002047
