LabVIEW Measurement	
Writer_Version	2
Reader_Version	2
Separator	Tab
Decimal_Separator	.
Multi_Headings	No
X_Columns	Multi
Time_Pref	Relative
Operator	TG lab
Date	2015/03/06
Time	17:58:42.3343186378479003906
***End_of_Header***	
	
Channels	1	
Samples	2000	
Date	1903/12/31	
Time	19:00:00	
X_Dimension	Time	
X0	0.0000000000000000E+0	
Delta_X	5.000000E-11	
***End_of_Header***		
X_Value	Untitled	Comment
0.000000	0.002522
5.000000E-11	0.002600
1.000000E-10	0.002613
1.500000E-10	0.002644
2.000000E-10	0.002553
2.500000E-10	0.002659
3.000000E-10	0.002613
3.500000E-10	0.002603
4.000000E-10	0.002531
4.500000E-10	0.002388
5.000000E-10	0.002475
5.500000E-10	0.002444
6.000000E-10	0.002369
6.500000E-10	0.002394
7.000000E-10	0.002375
7.500000E-10	0.002369
8.000000E-10	0.002303
8.500000E-10	0.002291
9.000000E-10	0.002162
9.500000E-10	0.002219
1.000000E-9	0.002209
1.050000E-9	0.002178
1.100000E-9	0.002075
1.150000E-9	0.002281
1.200000E-9	0.002169
1.250000E-9	0.002162
1.300000E-9	0.002031
1.350000E-9	0.002063
1.400000E-9	0.002006
1.450000E-9	0.002028
1.500000E-9	0.001888
1.550000E-9	0.001981
1.600000E-9	0.001931
1.650000E-9	0.002022
1.700000E-9	0.002072
1.750000E-9	0.002162
1.800000E-9	0.002222
1.850000E-9	0.002266
1.900000E-9	0.002188
1.950000E-9	0.002213
2.000000E-9	0.002078
2.050000E-9	0.001947
2.100000E-9	0.001925
2.150000E-9	0.001850
2.200000E-9	0.001731
2.250000E-9	0.001694
2.300000E-9	0.001625
2.350000E-9	0.001716
2.400000E-9	0.001781
2.450000E-9	0.001819
2.500000E-9	0.001834
2.550000E-9	0.001919
2.600000E-9	0.001919
2.650000E-9	0.001834
2.700000E-9	0.001728
2.750000E-9	0.001863
2.800000E-9	0.001784
2.850000E-9	0.001700
2.900000E-9	0.001594
2.950000E-9	0.001497
3.000000E-9	0.001516
3.050000E-9	0.001466
3.100000E-9	0.001356
3.150000E-9	0.001359
3.200000E-9	0.001319
3.250000E-9	0.001456
3.300000E-9	0.001419
3.350000E-9	0.001431
3.400000E-9	0.001394
3.450000E-9	0.001447
3.500000E-9	0.001341
3.550000E-9	0.001300
3.600000E-9	0.001284
3.650000E-9	0.001250
3.700000E-9	0.001209
3.750000E-9	0.001138
3.800000E-9	0.001169
3.850000E-9	0.001313
3.900000E-9	0.001344
3.950000E-9	0.001600
4.000000E-9	0.001678
4.050000E-9	0.001825
4.100000E-9	0.002081
4.150000E-9	0.002288
4.200000E-9	0.002450
4.250000E-9	0.002766
4.300000E-9	0.002925
4.350000E-9	0.003125
4.400000E-9	0.003488
4.450000E-9	0.003794
4.500000E-9	0.004019
4.550000E-9	0.004491
4.600000E-9	0.004713
4.650000E-9	0.004972
4.700000E-9	0.004894
4.750000E-9	0.004975
4.800000E-9	0.004575
4.850000E-9	0.003769
4.900000E-9	0.002756
4.950000E-9	0.001234
5.000000E-9	-0.000853
5.050000E-9	-0.003325
5.100000E-9	-0.006322
5.150000E-9	-0.009778
5.200000E-9	-0.013463
5.250000E-9	-0.017369
5.300000E-9	-0.021188
5.350000E-9	-0.024909
5.400000E-9	-0.028350
5.450000E-9	-0.031303
5.500000E-9	-0.033803
5.550000E-9	-0.035509
5.600000E-9	-0.036781
5.650000E-9	-0.037306
5.700000E-9	-0.037297
5.750000E-9	-0.036725
5.800000E-9	-0.035581
5.850000E-9	-0.033947
5.900000E-9	-0.032191
5.950000E-9	-0.030197
6.000000E-9	-0.028028
6.050000E-9	-0.025988
6.100000E-9	-0.024009
6.150000E-9	-0.022244
6.200000E-9	-0.020944
6.250000E-9	-0.019850
6.300000E-9	-0.019269
6.350000E-9	-0.019062
6.400000E-9	-0.019306
6.450000E-9	-0.019625
6.500000E-9	-0.020369
6.550000E-9	-0.021103
6.600000E-9	-0.022003
6.650000E-9	-0.022856
6.700000E-9	-0.023625
6.750000E-9	-0.024350
6.800000E-9	-0.024838
6.850000E-9	-0.025188
6.900000E-9	-0.025456
6.950000E-9	-0.025341
7.000000E-9	-0.025031
7.050000E-9	-0.024525
7.100000E-9	-0.023638
7.150000E-9	-0.022491
7.200000E-9	-0.021097
7.250000E-9	-0.019578
7.300000E-9	-0.017834
7.350000E-9	-0.016228
7.400000E-9	-0.014678
7.450000E-9	-0.013213
7.500000E-9	-0.012103
7.550000E-9	-0.011153
7.600000E-9	-0.010463
7.650000E-9	-0.010206
7.700000E-9	-0.010381
7.750000E-9	-0.010616
7.800000E-9	-0.011072
7.850000E-9	-0.011716
7.900000E-9	-0.012428
7.950000E-9	-0.013228
8.000000E-9	-0.014053
8.050000E-9	-0.014913
8.100000E-9	-0.015603
8.150000E-9	-0.016047
8.200000E-9	-0.016384
8.250000E-9	-0.016434
8.300000E-9	-0.016322
8.350000E-9	-0.015834
8.400000E-9	-0.015181
8.450000E-9	-0.014294
8.500000E-9	-0.013309
8.550000E-9	-0.012188
8.600000E-9	-0.011066
8.650000E-9	-0.009928
8.700000E-9	-0.008847
8.750000E-9	-0.007850
8.800000E-9	-0.007069
8.850000E-9	-0.006225
8.900000E-9	-0.005812
8.950000E-9	-0.005513
9.000000E-9	-0.005350
9.050000E-9	-0.005466
9.100000E-9	-0.005838
9.150000E-9	-0.006300
9.200000E-9	-0.006944
9.250000E-9	-0.007613
9.300000E-9	-0.008316
9.350000E-9	-0.009253
9.400000E-9	-0.010006
9.450000E-9	-0.010591
9.500000E-9	-0.011078
9.550000E-9	-0.011453
9.600000E-9	-0.011631
9.650000E-9	-0.011481
9.700000E-9	-0.011081
9.750000E-9	-0.010500
9.800000E-9	-0.009713
9.850000E-9	-0.008697
9.900000E-9	-0.007616
9.950000E-9	-0.006569
1.000000E-8	-0.005294
1.005000E-8	-0.004244
1.010000E-8	-0.003303
1.015000E-8	-0.002475
1.020000E-8	-0.001872
1.025000E-8	-0.001431
1.030000E-8	-0.001259
1.035000E-8	-0.001416
1.040000E-8	-0.001850
1.045000E-8	-0.002328
1.050000E-8	-0.002959
1.055000E-8	-0.003547
1.060000E-8	-0.004347
1.065000E-8	-0.005194
1.070000E-8	-0.006031
1.075000E-8	-0.006625
1.080000E-8	-0.007125
1.085000E-8	-0.007425
1.090000E-8	-0.007831
1.095000E-8	-0.007797
1.100000E-8	-0.007734
1.105000E-8	-0.007416
1.110000E-8	-0.006966
1.115000E-8	-0.006309
1.120000E-8	-0.005484
1.125000E-8	-0.004522
1.130000E-8	-0.003388
1.135000E-8	-0.002522
1.140000E-8	-0.001622
1.145000E-8	-0.000700
1.150000E-8	-0.000125
1.155000E-8	0.000297
1.160000E-8	0.000594
1.165000E-8	0.000806
1.170000E-8	0.000622
1.175000E-8	0.000453
1.180000E-8	-0.000100
1.185000E-8	-0.000728
1.190000E-8	-0.001506
1.195000E-8	-0.002341
1.200000E-8	-0.003063
1.205000E-8	-0.003938
1.210000E-8	-0.004731
1.215000E-8	-0.005384
1.220000E-8	-0.005925
1.225000E-8	-0.006041
1.230000E-8	-0.006197
1.235000E-8	-0.005953
1.240000E-8	-0.005703
1.245000E-8	-0.005219
1.250000E-8	-0.004459
1.255000E-8	-0.003716
1.260000E-8	-0.002863
1.265000E-8	-0.001859
1.270000E-8	-0.000853
1.275000E-8	0.000150
1.280000E-8	0.001019
1.285000E-8	0.001756
1.290000E-8	0.002175
1.295000E-8	0.002381
1.300000E-8	0.002503
1.305000E-8	0.002369
1.310000E-8	0.001853
1.315000E-8	0.001231
1.320000E-8	0.000366
1.325000E-8	-0.000556
1.330000E-8	-0.001491
1.335000E-8	-0.002359
1.340000E-8	-0.003300
1.345000E-8	-0.004003
1.350000E-8	-0.004541
1.355000E-8	-0.004841
1.360000E-8	-0.004969
1.365000E-8	-0.004838
1.370000E-8	-0.004466
1.375000E-8	-0.003844
1.380000E-8	-0.003266
1.385000E-8	-0.002247
1.390000E-8	-0.001241
1.395000E-8	-4.375000E-5
1.400000E-8	0.000725
1.405000E-8	0.001694
1.410000E-8	0.002450
1.415000E-8	0.003134
1.420000E-8	0.003663
1.425000E-8	0.003819
1.430000E-8	0.003669
1.435000E-8	0.003488
1.440000E-8	0.002941
1.445000E-8	0.002237
1.450000E-8	0.001437
1.455000E-8	0.000519
1.460000E-8	-0.000566
1.465000E-8	-0.001509
1.470000E-8	-0.002466
1.475000E-8	-0.003147
1.480000E-8	-0.003741
1.485000E-8	-0.004069
1.490000E-8	-0.004197
1.495000E-8	-0.004066
1.500000E-8	-0.003753
1.505000E-8	-0.003050
1.510000E-8	-0.002194
1.515000E-8	-0.001300
1.520000E-8	-0.000191
1.525000E-8	0.000863
1.530000E-8	0.001738
1.535000E-8	0.002719
1.540000E-8	0.003572
1.545000E-8	0.004159
1.550000E-8	0.004594
1.555000E-8	0.004866
1.560000E-8	0.004703
1.565000E-8	0.004369
1.570000E-8	0.003916
1.575000E-8	0.003259
1.580000E-8	0.002338
1.585000E-8	0.001547
1.590000E-8	0.000563
1.595000E-8	-0.000438
1.600000E-8	-0.001437
1.605000E-8	-0.002247
1.610000E-8	-0.003047
1.615000E-8	-0.003512
1.620000E-8	-0.003697
1.625000E-8	-0.003578
1.630000E-8	-0.003344
1.635000E-8	-0.002763
1.640000E-8	-0.001956
1.645000E-8	-0.000947
1.650000E-8	0.000178
1.655000E-8	0.001309
1.660000E-8	0.002422
1.665000E-8	0.003419
1.670000E-8	0.004209
1.675000E-8	0.004981
1.680000E-8	0.005478
1.685000E-8	0.005644
1.690000E-8	0.005706
1.695000E-8	0.005378
1.700000E-8	0.004853
1.705000E-8	0.004250
1.710000E-8	0.003391
1.715000E-8	0.002447
1.720000E-8	0.001425
1.725000E-8	0.000403
1.730000E-8	-0.000616
1.735000E-8	-0.001272
1.740000E-8	-0.001903
1.745000E-8	-0.002269
1.750000E-8	-0.002444
1.755000E-8	-0.002400
1.760000E-8	-0.002200
1.765000E-8	-0.001809
1.770000E-8	-0.001213
1.775000E-8	-0.000356
1.780000E-8	0.000534
1.785000E-8	0.001472
1.790000E-8	0.002416
1.795000E-8	0.003319
1.800000E-8	0.004009
1.805000E-8	0.004647
1.810000E-8	0.005000
1.815000E-8	0.005322
1.820000E-8	0.005328
1.825000E-8	0.005188
1.830000E-8	0.004734
1.835000E-8	0.004194
1.840000E-8	0.003366
1.845000E-8	0.002628
1.850000E-8	0.001753
1.855000E-8	0.000822
1.860000E-8	-1.250000E-5
1.865000E-8	-0.000722
1.870000E-8	-0.001344
1.875000E-8	-0.001844
1.880000E-8	-0.002156
1.885000E-8	-0.002203
1.890000E-8	-0.002144
1.895000E-8	-0.001591
1.900000E-8	-0.001041
1.905000E-8	-7.500000E-5
1.910000E-8	0.000747
1.915000E-8	0.001681
1.920000E-8	0.002481
1.925000E-8	0.003419
1.930000E-8	0.004166
1.935000E-8	0.004794
1.940000E-8	0.005275
1.945000E-8	0.005419
1.950000E-8	0.005494
1.955000E-8	0.005269
1.960000E-8	0.004950
1.965000E-8	0.004400
1.970000E-8	0.003656
1.975000E-8	0.002888
1.980000E-8	0.002056
1.985000E-8	0.001291
1.990000E-8	0.000469
1.995000E-8	-0.000206
2.000000E-8	-0.000803
2.005000E-8	-0.001141
2.010000E-8	-0.001372
2.015000E-8	-0.001422
2.020000E-8	-0.001322
2.025000E-8	-0.000938
2.030000E-8	-0.000453
2.035000E-8	7.500000E-5
2.040000E-8	0.000728
2.045000E-8	0.001600
2.050000E-8	0.002209
2.055000E-8	0.003000
2.060000E-8	0.003697
2.065000E-8	0.004319
2.070000E-8	0.004766
2.075000E-8	0.005009
2.080000E-8	0.005141
2.085000E-8	0.005181
2.090000E-8	0.004894
2.095000E-8	0.004553
2.100000E-8	0.004091
2.105000E-8	0.003381
2.110000E-8	0.002587
2.115000E-8	0.001759
2.120000E-8	0.001000
2.125000E-8	0.000353
2.130000E-8	-0.000391
2.135000E-8	-0.000925
2.140000E-8	-0.001288
2.145000E-8	-0.001406
2.150000E-8	-0.001497
2.155000E-8	-0.001228
2.160000E-8	-0.000838
2.165000E-8	-0.000144
2.170000E-8	0.000622
2.175000E-8	0.001334
2.180000E-8	0.002162
2.185000E-8	0.002894
2.190000E-8	0.003738
2.195000E-8	0.004434
2.200000E-8	0.004941
2.205000E-8	0.005375
2.210000E-8	0.005463
2.215000E-8	0.005494
2.220000E-8	0.005281
2.225000E-8	0.005006
2.230000E-8	0.004513
2.235000E-8	0.003900
2.240000E-8	0.003209
2.245000E-8	0.002531
2.250000E-8	0.001731
2.255000E-8	0.000984
2.260000E-8	0.000287
2.265000E-8	-0.000247
2.270000E-8	-0.000694
2.275000E-8	-0.000991
2.280000E-8	-0.001022
2.285000E-8	-0.000959
2.290000E-8	-0.000719
2.295000E-8	-0.000250
2.300000E-8	0.000400
2.305000E-8	0.001125
2.310000E-8	0.001913
2.315000E-8	0.002638
2.320000E-8	0.003391
2.325000E-8	0.004134
2.330000E-8	0.004838
2.335000E-8	0.005272
2.340000E-8	0.005575
2.345000E-8	0.005784
2.350000E-8	0.005662
2.355000E-8	0.005331
2.360000E-8	0.004759
2.365000E-8	0.004213
2.370000E-8	0.003447
2.375000E-8	0.002628
2.380000E-8	0.001769
2.385000E-8	0.000850
2.390000E-8	8.437500E-5
2.395000E-8	-0.000438
2.400000E-8	-0.001019
2.405000E-8	-0.001303
2.410000E-8	-0.001362
2.415000E-8	-0.001256
2.420000E-8	-0.000931
2.425000E-8	-0.000428
2.430000E-8	0.000184
2.435000E-8	0.000963
2.440000E-8	0.001725
2.445000E-8	0.002597
2.450000E-8	0.003497
2.455000E-8	0.004228
2.460000E-8	0.004841
2.465000E-8	0.005394
2.470000E-8	0.005713
2.475000E-8	0.005791
2.480000E-8	0.005531
2.485000E-8	0.005278
2.490000E-8	0.004806
2.495000E-8	0.004234
2.500000E-8	0.003363
2.505000E-8	0.002491
2.510000E-8	0.001584
2.515000E-8	0.000769
2.520000E-8	-8.437500E-5
2.525000E-8	-0.000644
2.530000E-8	-0.001091
2.535000E-8	-0.001384
2.540000E-8	-0.001481
2.545000E-8	-0.001316
2.550000E-8	-0.001072
2.555000E-8	-0.000584
2.560000E-8	6.250000E-5
2.565000E-8	0.000944
2.570000E-8	0.001781
2.575000E-8	0.002681
2.580000E-8	0.003494
2.585000E-8	0.004313
2.590000E-8	0.004991
2.595000E-8	0.005569
2.600000E-8	0.005859
2.605000E-8	0.005962
2.610000E-8	0.005775
2.615000E-8	0.005547
2.620000E-8	0.004981
2.625000E-8	0.004416
2.630000E-8	0.003734
2.635000E-8	0.003000
2.640000E-8	0.002159
2.645000E-8	0.001391
2.650000E-8	0.000553
2.655000E-8	-3.750000E-5
2.660000E-8	-0.000478
2.665000E-8	-0.000725
2.670000E-8	-0.000844
2.675000E-8	-0.000828
2.680000E-8	-0.000634
2.685000E-8	-5.000000E-5
2.690000E-8	0.000537
2.695000E-8	0.001309
2.700000E-8	0.002078
2.705000E-8	0.002888
2.710000E-8	0.003663
2.715000E-8	0.004469
2.720000E-8	0.005006
2.725000E-8	0.005428
2.730000E-8	0.005566
2.735000E-8	0.005703
2.740000E-8	0.005659
2.745000E-8	0.005353
2.750000E-8	0.004878
2.755000E-8	0.004356
2.760000E-8	0.003625
2.765000E-8	0.002906
2.770000E-8	0.002050
2.775000E-8	0.001497
2.780000E-8	0.000703
2.785000E-8	0.000219
2.790000E-8	-0.000125
2.795000E-8	-0.000391
2.800000E-8	-0.000459
2.805000E-8	-0.000372
2.810000E-8	-0.000147
2.815000E-8	0.000303
2.820000E-8	0.000831
2.825000E-8	0.001381
2.830000E-8	0.002031
2.835000E-8	0.002844
2.840000E-8	0.003406
2.845000E-8	0.004150
2.850000E-8	0.004659
2.855000E-8	0.005119
2.860000E-8	0.005309
2.865000E-8	0.005588
2.870000E-8	0.005431
2.875000E-8	0.005203
2.880000E-8	0.004756
2.885000E-8	0.004313
2.890000E-8	0.003659
2.895000E-8	0.003063
2.900000E-8	0.002278
2.905000E-8	0.001666
2.910000E-8	0.001075
2.915000E-8	0.000519
2.920000E-8	0.000119
2.925000E-8	-0.000131
2.930000E-8	-0.000284
2.935000E-8	-0.000269
2.940000E-8	-0.000131
2.945000E-8	0.000263
2.950000E-8	0.000638
2.955000E-8	0.001206
2.960000E-8	0.001700
2.965000E-8	0.002350
2.970000E-8	0.003034
2.975000E-8	0.003603
2.980000E-8	0.004216
2.985000E-8	0.004594
2.990000E-8	0.004834
2.995000E-8	0.005053
3.000000E-8	0.005066
3.005000E-8	0.004956
3.010000E-8	0.004644
3.015000E-8	0.004200
3.020000E-8	0.003716
3.025000E-8	0.003078
3.030000E-8	0.002441
3.035000E-8	0.001691
3.040000E-8	0.001050
3.045000E-8	0.000659
3.050000E-8	0.000141
3.055000E-8	-0.000184
3.060000E-8	-0.000391
3.065000E-8	-0.000375
3.070000E-8	-0.000431
3.075000E-8	-6.875000E-5
3.080000E-8	0.000287
3.085000E-8	0.000672
3.090000E-8	0.001284
3.095000E-8	0.002025
3.100000E-8	0.002625
3.105000E-8	0.003328
3.110000E-8	0.003791
3.115000E-8	0.004331
3.120000E-8	0.004609
3.125000E-8	0.004809
3.130000E-8	0.004891
3.135000E-8	0.004716
3.140000E-8	0.004441
3.145000E-8	0.004150
3.150000E-8	0.003578
3.155000E-8	0.003122
3.160000E-8	0.002563
3.165000E-8	0.002016
3.170000E-8	0.001556
3.175000E-8	0.001003
3.180000E-8	0.000581
3.185000E-8	0.000319
3.190000E-8	0.000113
3.195000E-8	-4.687500E-5
3.200000E-8	-9.062500E-5
3.205000E-8	9.687500E-5
3.210000E-8	0.000450
3.215000E-8	0.000788
3.220000E-8	0.001306
3.225000E-8	0.001834
3.230000E-8	0.002325
3.235000E-8	0.003053
3.240000E-8	0.003619
3.245000E-8	0.004166
3.250000E-8	0.004556
3.255000E-8	0.004816
3.260000E-8	0.004819
3.265000E-8	0.004872
3.270000E-8	0.004653
3.275000E-8	0.004359
3.280000E-8	0.003928
3.285000E-8	0.003488
3.290000E-8	0.002881
3.295000E-8	0.002388
3.300000E-8	0.001775
3.305000E-8	0.001206
3.310000E-8	0.000569
3.315000E-8	0.000228
3.320000E-8	-2.187500E-5
3.325000E-8	-0.000134
3.330000E-8	-0.000216
3.335000E-8	-6.875000E-5
3.340000E-8	0.000216
3.345000E-8	0.000638
3.350000E-8	0.001119
3.355000E-8	0.001844
3.360000E-8	0.002488
3.365000E-8	0.003166
3.370000E-8	0.003741
3.375000E-8	0.004247
3.380000E-8	0.004694
3.385000E-8	0.004884
3.390000E-8	0.005003
3.395000E-8	0.005103
3.400000E-8	0.004897
3.405000E-8	0.004600
3.410000E-8	0.004128
3.415000E-8	0.003653
3.420000E-8	0.003038
3.425000E-8	0.002391
3.430000E-8	0.001628
3.435000E-8	0.001088
3.440000E-8	0.000691
3.445000E-8	0.000353
3.450000E-8	2.187500E-5
3.455000E-8	-0.000197
3.460000E-8	-0.000266
3.465000E-8	-0.000113
3.470000E-8	0.000116
3.475000E-8	0.000603
3.480000E-8	0.001059
3.485000E-8	0.001641
3.490000E-8	0.002253
3.495000E-8	0.002863
3.500000E-8	0.003359
3.505000E-8	0.004044
3.510000E-8	0.004425
3.515000E-8	0.004700
3.520000E-8	0.004859
3.525000E-8	0.004934
3.530000E-8	0.004747
3.535000E-8	0.004475
3.540000E-8	0.004112
3.545000E-8	0.003622
3.550000E-8	0.003119
3.555000E-8	0.002512
3.560000E-8	0.001988
3.565000E-8	0.001422
3.570000E-8	0.000916
3.575000E-8	0.000581
3.580000E-8	0.000241
3.585000E-8	2.812500E-5
3.590000E-8	-0.000144
3.595000E-8	3.750000E-5
3.600000E-8	0.000309
3.605000E-8	0.000713
3.610000E-8	0.001053
3.615000E-8	0.001700
3.620000E-8	0.002288
3.625000E-8	0.002953
3.630000E-8	0.003472
3.635000E-8	0.004041
3.640000E-8	0.004441
3.645000E-8	0.004741
3.650000E-8	0.004931
3.655000E-8	0.005066
3.660000E-8	0.004884
3.665000E-8	0.004694
3.670000E-8	0.004138
3.675000E-8	0.003731
3.680000E-8	0.003072
3.685000E-8	0.002619
3.690000E-8	0.002166
3.695000E-8	0.001716
3.700000E-8	0.001234
3.705000E-8	0.000878
3.710000E-8	0.000563
3.715000E-8	0.000409
3.720000E-8	0.000450
3.725000E-8	0.000525
3.730000E-8	0.000709
3.735000E-8	0.000944
3.740000E-8	0.001306
3.745000E-8	0.001863
3.750000E-8	0.002209
3.755000E-8	0.002669
3.760000E-8	0.003100
3.765000E-8	0.003713
3.770000E-8	0.004166
3.775000E-8	0.004472
3.780000E-8	0.004722
3.785000E-8	0.004847
3.790000E-8	0.004722
3.795000E-8	0.004509
3.800000E-8	0.004194
3.805000E-8	0.003834
3.810000E-8	0.003350
3.815000E-8	0.002913
3.820000E-8	0.002247
3.825000E-8	0.001772
3.830000E-8	0.001263
3.835000E-8	0.000888
3.840000E-8	0.000416
3.845000E-8	0.000266
3.850000E-8	5.000000E-5
3.855000E-8	0.000119
3.860000E-8	0.000287
3.865000E-8	0.000694
3.870000E-8	0.000944
3.875000E-8	0.001422
3.880000E-8	0.001797
3.885000E-8	0.002447
3.890000E-8	0.002881
3.895000E-8	0.003341
3.900000E-8	0.003613
3.905000E-8	0.004006
3.910000E-8	0.004234
3.915000E-8	0.004288
3.920000E-8	0.004253
3.925000E-8	0.004275
3.930000E-8	0.004003
3.935000E-8	0.003872
3.940000E-8	0.003547
3.945000E-8	0.003309
3.950000E-8	0.002788
3.955000E-8	0.002378
3.960000E-8	0.001831
3.965000E-8	0.001431
3.970000E-8	0.000913
3.975000E-8	0.000653
3.980000E-8	0.000475
3.985000E-8	0.000438
3.990000E-8	0.000578
3.995000E-8	0.000728
4.000000E-8	0.001006
4.005000E-8	0.001475
4.010000E-8	0.002081
4.015000E-8	0.002563
4.020000E-8	0.002959
4.025000E-8	0.003512
4.030000E-8	0.003875
4.035000E-8	0.004109
4.040000E-8	0.004203
4.045000E-8	0.004347
4.050000E-8	0.004197
4.055000E-8	0.003956
4.060000E-8	0.003756
4.065000E-8	0.003609
4.070000E-8	0.003313
4.075000E-8	0.003066
4.080000E-8	0.002572
4.085000E-8	0.002209
4.090000E-8	0.001944
4.095000E-8	0.001591
4.100000E-8	0.001203
4.105000E-8	0.000991
4.110000E-8	0.000775
4.115000E-8	0.000747
4.120000E-8	0.000794
4.125000E-8	0.000881
4.130000E-8	0.001159
4.135000E-8	0.001653
4.140000E-8	0.002050
4.145000E-8	0.002475
4.150000E-8	0.003103
4.155000E-8	0.003503
4.160000E-8	0.003831
4.165000E-8	0.004063
4.170000E-8	0.004166
4.175000E-8	0.004434
4.180000E-8	0.004372
4.185000E-8	0.004231
4.190000E-8	0.004009
4.195000E-8	0.003803
4.200000E-8	0.003503
4.205000E-8	0.003019
4.210000E-8	0.002613
4.215000E-8	0.002134
4.220000E-8	0.001681
4.225000E-8	0.001381
4.230000E-8	0.001000
4.235000E-8	0.000747
4.240000E-8	0.000631
4.245000E-8	0.000575
4.250000E-8	0.000681
4.255000E-8	0.000928
4.260000E-8	0.001097
4.265000E-8	0.001538
4.270000E-8	0.001891
4.275000E-8	0.002384
4.280000E-8	0.002700
4.285000E-8	0.003131
4.290000E-8	0.003481
4.295000E-8	0.003806
4.300000E-8	0.003978
4.305000E-8	0.004041
4.310000E-8	0.004031
4.315000E-8	0.004059
4.320000E-8	0.003834
4.325000E-8	0.003531
4.330000E-8	0.003272
4.335000E-8	0.002919
4.340000E-8	0.002497
4.345000E-8	0.002103
4.350000E-8	0.001822
4.355000E-8	0.001375
4.360000E-8	0.001178
4.365000E-8	0.000994
4.370000E-8	0.000816
4.375000E-8	0.000841
4.380000E-8	0.000931
4.385000E-8	0.001122
4.390000E-8	0.001275
4.395000E-8	0.001516
4.400000E-8	0.001916
4.405000E-8	0.002275
4.410000E-8	0.002625
4.415000E-8	0.002913
4.420000E-8	0.003175
4.425000E-8	0.003591
4.430000E-8	0.003822
4.435000E-8	0.004022
4.440000E-8	0.004056
4.445000E-8	0.004050
4.450000E-8	0.003925
4.455000E-8	0.003775
4.460000E-8	0.003506
4.465000E-8	0.003297
4.470000E-8	0.002828
4.475000E-8	0.002378
4.480000E-8	0.001869
4.485000E-8	0.001397
4.490000E-8	0.000978
4.495000E-8	0.000734
4.500000E-8	0.000481
4.505000E-8	0.000372
4.510000E-8	0.000397
4.515000E-8	0.000547
4.520000E-8	0.000888
4.525000E-8	0.001359
4.530000E-8	0.001706
4.535000E-8	0.002209
4.540000E-8	0.002563
4.545000E-8	0.003066
4.550000E-8	0.003247
4.555000E-8	0.003659
4.560000E-8	0.003822
4.565000E-8	0.003888
4.570000E-8	0.003941
4.575000E-8	0.003809
4.580000E-8	0.003531
4.585000E-8	0.003369
4.590000E-8	0.003063
4.595000E-8	0.002894
4.600000E-8	0.002388
4.605000E-8	0.002119
4.610000E-8	0.001831
4.615000E-8	0.001475
4.620000E-8	0.001294
4.625000E-8	0.001187
4.630000E-8	0.001016
4.635000E-8	0.001000
4.640000E-8	0.001022
4.645000E-8	0.001003
4.650000E-8	0.001116
4.655000E-8	0.001497
4.660000E-8	0.001684
4.665000E-8	0.002256
4.670000E-8	0.002563
4.675000E-8	0.002944
4.680000E-8	0.003331
4.685000E-8	0.003772
4.690000E-8	0.003969
4.695000E-8	0.004103
4.700000E-8	0.004194
4.705000E-8	0.004106
4.710000E-8	0.004081
4.715000E-8	0.003894
4.720000E-8	0.003691
4.725000E-8	0.003347
4.730000E-8	0.002934
4.735000E-8	0.002459
4.740000E-8	0.002038
4.745000E-8	0.001756
4.750000E-8	0.001406
4.755000E-8	0.001181
4.760000E-8	0.000925
4.765000E-8	0.000806
4.770000E-8	0.000766
4.775000E-8	0.000941
4.780000E-8	0.001213
4.785000E-8	0.001413
4.790000E-8	0.001753
4.795000E-8	0.002134
4.800000E-8	0.002541
4.805000E-8	0.002981
4.810000E-8	0.003200
4.815000E-8	0.003463
4.820000E-8	0.003756
4.825000E-8	0.003828
4.830000E-8	0.003759
4.835000E-8	0.003750
4.840000E-8	0.003481
4.845000E-8	0.003434
4.850000E-8	0.003200
4.855000E-8	0.002928
4.860000E-8	0.002656
4.865000E-8	0.002428
4.870000E-8	0.002209
4.875000E-8	0.001878
4.880000E-8	0.001681
4.885000E-8	0.001506
4.890000E-8	0.001344
4.895000E-8	0.001284
4.900000E-8	0.001259
4.905000E-8	0.001362
4.910000E-8	0.001394
4.915000E-8	0.001656
4.920000E-8	0.001809
4.925000E-8	0.002231
4.930000E-8	0.002484
4.935000E-8	0.002916
4.940000E-8	0.003087
4.945000E-8	0.003231
4.950000E-8	0.003488
4.955000E-8	0.003566
4.960000E-8	0.003656
4.965000E-8	0.003781
4.970000E-8	0.003716
4.975000E-8	0.003538
4.980000E-8	0.003294
4.985000E-8	0.003122
4.990000E-8	0.002716
4.995000E-8	0.002431
5.000000E-8	0.002063
5.005000E-8	0.001928
5.010000E-8	0.001538
5.015000E-8	0.001353
5.020000E-8	0.001247
5.025000E-8	0.001266
5.030000E-8	0.001147
5.035000E-8	0.001209
5.040000E-8	0.001306
5.045000E-8	0.001675
5.050000E-8	0.001788
5.055000E-8	0.001972
5.060000E-8	0.002150
5.065000E-8	0.002481
5.070000E-8	0.002728
5.075000E-8	0.002950
5.080000E-8	0.003113
5.085000E-8	0.003263
5.090000E-8	0.003250
5.095000E-8	0.003209
5.100000E-8	0.003197
5.105000E-8	0.003263
5.110000E-8	0.003003
5.115000E-8	0.002881
5.120000E-8	0.002653
5.125000E-8	0.002434
5.130000E-8	0.002197
5.135000E-8	0.001944
5.140000E-8	0.001675
5.145000E-8	0.001594
5.150000E-8	0.001416
5.155000E-8	0.001372
5.160000E-8	0.001247
5.165000E-8	0.001322
5.170000E-8	0.001413
5.175000E-8	0.001563
5.180000E-8	0.001875
5.185000E-8	0.002063
5.190000E-8	0.002341
5.195000E-8	0.002781
5.200000E-8	0.003006
5.205000E-8	0.003259
5.210000E-8	0.003484
5.215000E-8	0.003666
5.220000E-8	0.003675
5.225000E-8	0.003831
5.230000E-8	0.003844
5.235000E-8	0.003713
5.240000E-8	0.003506
5.245000E-8	0.003384
5.250000E-8	0.003113
5.255000E-8	0.002878
5.260000E-8	0.002519
5.265000E-8	0.002375
5.270000E-8	0.002056
5.275000E-8	0.001788
5.280000E-8	0.001694
5.285000E-8	0.001525
5.290000E-8	0.001328
5.295000E-8	0.001334
5.300000E-8	0.001269
5.305000E-8	0.001419
5.310000E-8	0.001488
5.315000E-8	0.001697
5.320000E-8	0.001809
5.325000E-8	0.002022
5.330000E-8	0.002278
5.335000E-8	0.002619
5.340000E-8	0.002725
5.345000E-8	0.002963
5.350000E-8	0.003150
5.355000E-8	0.003347
5.360000E-8	0.003313
5.365000E-8	0.003322
5.370000E-8	0.003197
5.375000E-8	0.003162
5.380000E-8	0.002797
5.385000E-8	0.002619
5.390000E-8	0.002284
5.395000E-8	0.001944
5.400000E-8	0.001697
5.405000E-8	0.001541
5.410000E-8	0.001291
5.415000E-8	0.001172
5.420000E-8	0.001025
5.425000E-8	0.001213
5.430000E-8	0.001256
5.435000E-8	0.001506
5.440000E-8	0.001719
5.445000E-8	0.001947
5.450000E-8	0.002181
5.455000E-8	0.002397
5.460000E-8	0.002628
5.465000E-8	0.002944
5.470000E-8	0.003169
5.475000E-8	0.003266
5.480000E-8	0.003331
5.485000E-8	0.003472
5.490000E-8	0.003450
5.495000E-8	0.003250
5.500000E-8	0.003206
5.505000E-8	0.003091
5.510000E-8	0.002900
5.515000E-8	0.002659
5.520000E-8	0.002388
5.525000E-8	0.002141
5.530000E-8	0.001925
5.535000E-8	0.001756
5.540000E-8	0.001503
5.545000E-8	0.001484
5.550000E-8	0.001388
5.555000E-8	0.001328
5.560000E-8	0.001416
5.565000E-8	0.001416
5.570000E-8	0.001497
5.575000E-8	0.001728
5.580000E-8	0.001875
5.585000E-8	0.002134
5.590000E-8	0.002463
5.595000E-8	0.002784
5.600000E-8	0.002969
5.605000E-8	0.003250
5.610000E-8	0.003381
5.615000E-8	0.003544
5.620000E-8	0.003525
5.625000E-8	0.003594
5.630000E-8	0.003453
5.635000E-8	0.003122
5.640000E-8	0.002969
5.645000E-8	0.002653
5.650000E-8	0.002344
5.655000E-8	0.002028
5.660000E-8	0.001788
5.665000E-8	0.001538
5.670000E-8	0.001359
5.675000E-8	0.001266
5.680000E-8	0.001166
5.685000E-8	0.001269
5.690000E-8	0.001278
5.695000E-8	0.001391
5.700000E-8	0.001434
5.705000E-8	0.001594
5.710000E-8	0.001747
5.715000E-8	0.002012
5.720000E-8	0.002247
5.725000E-8	0.002563
5.730000E-8	0.002847
5.735000E-8	0.003050
5.740000E-8	0.003297
5.745000E-8	0.003466
5.750000E-8	0.003497
5.755000E-8	0.003488
5.760000E-8	0.003363
5.765000E-8	0.003256
5.770000E-8	0.003103
5.775000E-8	0.003012
5.780000E-8	0.002737
5.785000E-8	0.002609
5.790000E-8	0.002353
5.795000E-8	0.002156
5.800000E-8	0.001894
5.805000E-8	0.001763
5.810000E-8	0.001638
5.815000E-8	0.001556
5.820000E-8	0.001506
5.825000E-8	0.001619
5.830000E-8	0.001734
5.835000E-8	0.001844
5.840000E-8	0.001950
5.845000E-8	0.002178
5.850000E-8	0.002459
5.855000E-8	0.002831
5.860000E-8	0.002916
5.865000E-8	0.003087
5.870000E-8	0.003294
5.875000E-8	0.003422
5.880000E-8	0.003381
5.885000E-8	0.003378
5.890000E-8	0.003372
5.895000E-8	0.003241
5.900000E-8	0.003066
5.905000E-8	0.002853
5.910000E-8	0.002616
5.915000E-8	0.002416
5.920000E-8	0.002109
5.925000E-8	0.001937
5.930000E-8	0.001588
5.935000E-8	0.001538
5.940000E-8	0.001328
5.945000E-8	0.001513
5.950000E-8	0.001619
5.955000E-8	0.001731
5.960000E-8	0.001828
5.965000E-8	0.002041
5.970000E-8	0.002153
5.975000E-8	0.002397
5.980000E-8	0.002709
5.985000E-8	0.003031
5.990000E-8	0.003128
5.995000E-8	0.003288
6.000000E-8	0.003397
6.005000E-8	0.003469
6.010000E-8	0.003463
6.015000E-8	0.003488
6.020000E-8	0.003425
6.025000E-8	0.003294
6.030000E-8	0.003078
6.035000E-8	0.002944
6.040000E-8	0.002587
6.045000E-8	0.002428
6.050000E-8	0.002316
6.055000E-8	0.002147
6.060000E-8	0.001934
6.065000E-8	0.001825
6.070000E-8	0.001778
6.075000E-8	0.001659
6.080000E-8	0.001725
6.085000E-8	0.001797
6.090000E-8	0.001906
6.095000E-8	0.002131
6.100000E-8	0.002381
6.105000E-8	0.002572
6.110000E-8	0.002631
6.115000E-8	0.002947
6.120000E-8	0.003113
6.125000E-8	0.003291
6.130000E-8	0.003347
6.135000E-8	0.003516
6.140000E-8	0.003469
6.145000E-8	0.003481
6.150000E-8	0.003450
6.155000E-8	0.003431
6.160000E-8	0.003241
6.165000E-8	0.003056
6.170000E-8	0.002831
6.175000E-8	0.002691
6.180000E-8	0.002400
6.185000E-8	0.002303
6.190000E-8	0.002094
6.195000E-8	0.001944
6.200000E-8	0.001700
6.205000E-8	0.001591
6.210000E-8	0.001597
6.215000E-8	0.001591
6.220000E-8	0.001597
6.225000E-8	0.001803
6.230000E-8	0.001972
6.235000E-8	0.002125
6.240000E-8	0.002328
6.245000E-8	0.002644
6.250000E-8	0.002822
6.255000E-8	0.003016
6.260000E-8	0.003238
6.265000E-8	0.003375
6.270000E-8	0.003409
6.275000E-8	0.003378
6.280000E-8	0.003203
6.285000E-8	0.003178
6.290000E-8	0.002978
6.295000E-8	0.002916
6.300000E-8	0.002822
6.305000E-8	0.002688
6.310000E-8	0.002581
6.315000E-8	0.002481
6.320000E-8	0.002222
6.325000E-8	0.002216
6.330000E-8	0.002100
6.335000E-8	0.002034
6.340000E-8	0.001997
6.345000E-8	0.002053
6.350000E-8	0.002012
6.355000E-8	0.002019
6.360000E-8	0.002113
6.365000E-8	0.002250
6.370000E-8	0.002378
6.375000E-8	0.002563
6.380000E-8	0.002666
6.385000E-8	0.002875
6.390000E-8	0.002897
6.395000E-8	0.003041
6.400000E-8	0.003113
6.405000E-8	0.003269
6.410000E-8	0.003144
6.415000E-8	0.003100
6.420000E-8	0.002894
6.425000E-8	0.002878
6.430000E-8	0.002750
6.435000E-8	0.002634
6.440000E-8	0.002413
6.445000E-8	0.002175
6.450000E-8	0.002063
6.455000E-8	0.001972
6.460000E-8	0.001728
6.465000E-8	0.001594
6.470000E-8	0.001556
6.475000E-8	0.001544
6.480000E-8	0.001538
6.485000E-8	0.001509
6.490000E-8	0.001691
6.495000E-8	0.001828
6.500000E-8	0.002069
6.505000E-8	0.002297
6.510000E-8	0.002509
6.515000E-8	0.002638
6.520000E-8	0.002734
6.525000E-8	0.002944
6.530000E-8	0.003003
6.535000E-8	0.002997
6.540000E-8	0.002944
6.545000E-8	0.002838
6.550000E-8	0.002734
6.555000E-8	0.002688
6.560000E-8	0.002434
6.565000E-8	0.002409
6.570000E-8	0.002191
6.575000E-8	0.001991
6.580000E-8	0.001913
6.585000E-8	0.001991
6.590000E-8	0.001903
6.595000E-8	0.001841
6.600000E-8	0.001769
6.605000E-8	0.001791
6.610000E-8	0.001950
6.615000E-8	0.002031
6.620000E-8	0.001997
6.625000E-8	0.002191
6.630000E-8	0.002206
6.635000E-8	0.002444
6.640000E-8	0.002622
6.645000E-8	0.002778
6.650000E-8	0.002791
6.655000E-8	0.002806
6.660000E-8	0.002841
6.665000E-8	0.002931
6.670000E-8	0.003063
6.675000E-8	0.003053
6.680000E-8	0.002919
6.685000E-8	0.002872
6.690000E-8	0.002838
6.695000E-8	0.002744
6.700000E-8	0.002491
6.705000E-8	0.002534
6.710000E-8	0.002441
6.715000E-8	0.002241
6.720000E-8	0.002103
6.725000E-8	0.002075
6.730000E-8	0.001966
6.735000E-8	0.002113
6.740000E-8	0.001953
6.745000E-8	0.001975
6.750000E-8	0.002100
6.755000E-8	0.002263
6.760000E-8	0.002378
6.765000E-8	0.002578
6.770000E-8	0.002747
6.775000E-8	0.002991
6.780000E-8	0.003113
6.785000E-8	0.003241
6.790000E-8	0.003250
6.795000E-8	0.003238
6.800000E-8	0.003066
6.805000E-8	0.002872
6.810000E-8	0.002778
6.815000E-8	0.002678
6.820000E-8	0.002475
6.825000E-8	0.002328
6.830000E-8	0.002156
6.835000E-8	0.002141
6.840000E-8	0.002122
6.845000E-8	0.002159
6.850000E-8	0.001997
6.855000E-8	0.002125
6.860000E-8	0.002144
6.865000E-8	0.002291
6.870000E-8	0.002191
6.875000E-8	0.002303
6.880000E-8	0.002269
6.885000E-8	0.002350
6.890000E-8	0.002434
6.895000E-8	0.002706
6.900000E-8	0.002638
6.905000E-8	0.002856
6.910000E-8	0.002928
6.915000E-8	0.003066
6.920000E-8	0.003169
6.925000E-8	0.003222
6.930000E-8	0.003222
6.935000E-8	0.003188
6.940000E-8	0.003128
6.945000E-8	0.003156
6.950000E-8	0.002919
6.955000E-8	0.002838
6.960000E-8	0.002594
6.965000E-8	0.002397
6.970000E-8	0.002272
6.975000E-8	0.002184
6.980000E-8	0.002181
6.985000E-8	0.002034
6.990000E-8	0.002019
6.995000E-8	0.002087
7.000000E-8	0.002063
7.005000E-8	0.002175
7.010000E-8	0.002203
7.015000E-8	0.002278
7.020000E-8	0.002306
7.025000E-8	0.002456
7.030000E-8	0.002428
7.035000E-8	0.002372
7.040000E-8	0.002544
7.045000E-8	0.002625
7.050000E-8	0.002616
7.055000E-8	0.002841
7.060000E-8	0.002794
7.065000E-8	0.002809
7.070000E-8	0.002938
7.075000E-8	0.002919
7.080000E-8	0.002794
7.085000E-8	0.002675
7.090000E-8	0.002422
7.095000E-8	0.002269
7.100000E-8	0.002125
7.105000E-8	0.001988
7.110000E-8	0.001738
7.115000E-8	0.001716
7.120000E-8	0.001681
7.125000E-8	0.001753
7.130000E-8	0.001825
7.135000E-8	0.001944
7.140000E-8	0.002025
7.145000E-8	0.002400
7.150000E-8	0.002459
7.155000E-8	0.002706
7.160000E-8	0.002819
7.165000E-8	0.002953
7.170000E-8	0.002947
7.175000E-8	0.003169
7.180000E-8	0.003134
7.185000E-8	0.003156
7.190000E-8	0.003097
7.195000E-8	0.003159
7.200000E-8	0.003106
7.205000E-8	0.003053
7.210000E-8	0.003022
7.215000E-8	0.003047
7.220000E-8	0.003028
7.225000E-8	0.002959
7.230000E-8	0.002806
7.235000E-8	0.002750
7.240000E-8	0.002559
7.245000E-8	0.002447
7.250000E-8	0.002328
7.255000E-8	0.002284
7.260000E-8	0.002275
7.265000E-8	0.002216
7.270000E-8	0.002094
7.275000E-8	0.002184
7.280000E-8	0.002144
7.285000E-8	0.002284
7.290000E-8	0.002244
7.295000E-8	0.002397
7.300000E-8	0.002463
7.305000E-8	0.002534
7.310000E-8	0.002653
7.315000E-8	0.002847
7.320000E-8	0.002881
7.325000E-8	0.002925
7.330000E-8	0.002959
7.335000E-8	0.003059
7.340000E-8	0.003034
7.345000E-8	0.002909
7.350000E-8	0.002828
7.355000E-8	0.002725
7.360000E-8	0.002534
7.365000E-8	0.002428
7.370000E-8	0.002250
7.375000E-8	0.002269
7.380000E-8	0.002131
7.385000E-8	0.002122
7.390000E-8	0.002016
7.395000E-8	0.002028
7.400000E-8	0.002078
7.405000E-8	0.002156
7.410000E-8	0.002159
7.415000E-8	0.002353
7.420000E-8	0.002413
7.425000E-8	0.002494
7.430000E-8	0.002675
7.435000E-8	0.002959
7.440000E-8	0.003175
7.445000E-8	0.003216
7.450000E-8	0.003194
7.455000E-8	0.003256
7.460000E-8	0.003169
7.465000E-8	0.003119
7.470000E-8	0.002913
7.475000E-8	0.002800
7.480000E-8	0.002556
7.485000E-8	0.002344
7.490000E-8	0.002063
7.495000E-8	0.002059
7.500000E-8	0.001900
7.505000E-8	0.001838
7.510000E-8	0.001850
7.515000E-8	0.001969
7.520000E-8	0.002025
7.525000E-8	0.002278
7.530000E-8	0.002369
7.535000E-8	0.002481
7.540000E-8	0.002728
7.545000E-8	0.002919
7.550000E-8	0.002900
7.555000E-8	0.002953
7.560000E-8	0.002944
7.565000E-8	0.002850
7.570000E-8	0.002816
7.575000E-8	0.002831
7.580000E-8	0.002703
7.585000E-8	0.002594
7.590000E-8	0.002641
7.595000E-8	0.002650
7.600000E-8	0.002625
7.605000E-8	0.002609
7.610000E-8	0.002647
7.615000E-8	0.002619
7.620000E-8	0.002606
7.625000E-8	0.002578
7.630000E-8	0.002488
7.635000E-8	0.002313
7.640000E-8	0.002228
7.645000E-8	0.002209
7.650000E-8	0.002219
7.655000E-8	0.002216
7.660000E-8	0.002219
7.665000E-8	0.002363
7.670000E-8	0.002484
7.675000E-8	0.002666
7.680000E-8	0.002775
7.685000E-8	0.002800
7.690000E-8	0.002872
7.695000E-8	0.002969
7.700000E-8	0.003047
7.705000E-8	0.003094
7.710000E-8	0.003006
7.715000E-8	0.002994
7.720000E-8	0.002850
7.725000E-8	0.002878
7.730000E-8	0.002903
7.735000E-8	0.002800
7.740000E-8	0.002778
7.745000E-8	0.002763
7.750000E-8	0.002706
7.755000E-8	0.002697
7.760000E-8	0.002478
7.765000E-8	0.002325
7.770000E-8	0.002169
7.775000E-8	0.002109
7.780000E-8	0.002000
7.785000E-8	0.002078
7.790000E-8	0.002122
7.795000E-8	0.002162
7.800000E-8	0.002219
7.805000E-8	0.002278
7.810000E-8	0.002347
7.815000E-8	0.002531
7.820000E-8	0.002625
7.825000E-8	0.002694
7.830000E-8	0.002813
7.835000E-8	0.002897
7.840000E-8	0.002822
7.845000E-8	0.002850
7.850000E-8	0.002803
7.855000E-8	0.002838
7.860000E-8	0.002756
7.865000E-8	0.002759
7.870000E-8	0.002669
7.875000E-8	0.002569
7.880000E-8	0.002416
7.885000E-8	0.002300
7.890000E-8	0.002191
7.895000E-8	0.002053
7.900000E-8	0.001916
7.905000E-8	0.001947
7.910000E-8	0.001891
7.915000E-8	0.001972
7.920000E-8	0.001894
7.925000E-8	0.001950
7.930000E-8	0.002012
7.935000E-8	0.002122
7.940000E-8	0.002319
7.945000E-8	0.002497
7.950000E-8	0.002575
7.955000E-8	0.002750
7.960000E-8	0.002734
7.965000E-8	0.002841
7.970000E-8	0.002875
7.975000E-8	0.002891
7.980000E-8	0.002700
7.985000E-8	0.002697
7.990000E-8	0.002678
7.995000E-8	0.002594
8.000000E-8	0.002413
8.005000E-8	0.002406
8.010000E-8	0.002356
8.015000E-8	0.002347
8.020000E-8	0.002297
8.025000E-8	0.002431
8.030000E-8	0.002331
8.035000E-8	0.002319
8.040000E-8	0.002250
8.045000E-8	0.002184
8.050000E-8	0.002106
8.055000E-8	0.002222
8.060000E-8	0.002206
8.065000E-8	0.002247
8.070000E-8	0.002256
8.075000E-8	0.002353
8.080000E-8	0.002491
8.085000E-8	0.002631
8.090000E-8	0.002763
8.095000E-8	0.002772
8.100000E-8	0.002853
8.105000E-8	0.002922
8.110000E-8	0.002916
8.115000E-8	0.002934
8.120000E-8	0.002809
8.125000E-8	0.002894
8.130000E-8	0.002769
8.135000E-8	0.002666
8.140000E-8	0.002616
8.145000E-8	0.002512
8.150000E-8	0.002466
8.155000E-8	0.002266
8.160000E-8	0.002206
8.165000E-8	0.002213
8.170000E-8	0.002159
8.175000E-8	0.002225
8.180000E-8	0.002031
8.185000E-8	0.002197
8.190000E-8	0.002116
8.195000E-8	0.002250
8.200000E-8	0.002334
8.205000E-8	0.002519
8.210000E-8	0.002603
8.215000E-8	0.002797
8.220000E-8	0.002819
8.225000E-8	0.002947
8.230000E-8	0.002969
8.235000E-8	0.003125
8.240000E-8	0.003025
8.245000E-8	0.003050
8.250000E-8	0.002809
8.255000E-8	0.002647
8.260000E-8	0.002519
8.265000E-8	0.002372
8.270000E-8	0.002356
8.275000E-8	0.002284
8.280000E-8	0.002178
8.285000E-8	0.002191
8.290000E-8	0.002153
8.295000E-8	0.002166
8.300000E-8	0.002184
8.305000E-8	0.002253
8.310000E-8	0.002322
8.315000E-8	0.002425
8.320000E-8	0.002544
8.325000E-8	0.002750
8.330000E-8	0.002647
8.335000E-8	0.002678
8.340000E-8	0.002622
8.345000E-8	0.002772
8.350000E-8	0.002791
8.355000E-8	0.002803
8.360000E-8	0.002747
8.365000E-8	0.002784
8.370000E-8	0.002866
8.375000E-8	0.002872
8.380000E-8	0.002772
8.385000E-8	0.002928
8.390000E-8	0.002825
8.395000E-8	0.002866
8.400000E-8	0.002894
8.405000E-8	0.002991
8.410000E-8	0.002828
8.415000E-8	0.002834
8.420000E-8	0.002603
8.425000E-8	0.002609
8.430000E-8	0.002600
8.435000E-8	0.002616
8.440000E-8	0.002484
8.445000E-8	0.002509
8.450000E-8	0.002428
8.455000E-8	0.002431
8.460000E-8	0.002444
8.465000E-8	0.002441
8.470000E-8	0.002437
8.475000E-8	0.002553
8.480000E-8	0.002569
8.485000E-8	0.002644
8.490000E-8	0.002694
8.495000E-8	0.002709
8.500000E-8	0.002703
8.505000E-8	0.002644
8.510000E-8	0.002700
8.515000E-8	0.002697
8.520000E-8	0.002675
8.525000E-8	0.002541
8.530000E-8	0.002444
8.535000E-8	0.002416
8.540000E-8	0.002209
8.545000E-8	0.002197
8.550000E-8	0.002056
8.555000E-8	0.002156
8.560000E-8	0.002034
8.565000E-8	0.002006
8.570000E-8	0.001984
8.575000E-8	0.001997
8.580000E-8	0.002047
8.585000E-8	0.002113
8.590000E-8	0.002122
8.595000E-8	0.002191
8.600000E-8	0.002206
8.605000E-8	0.002184
8.610000E-8	0.002097
8.615000E-8	0.002250
8.620000E-8	0.002378
8.625000E-8	0.002491
8.630000E-8	0.002534
8.635000E-8	0.002675
8.640000E-8	0.002669
8.645000E-8	0.002819
8.650000E-8	0.002781
8.655000E-8	0.002772
8.660000E-8	0.002659
8.665000E-8	0.002703
8.670000E-8	0.002494
8.675000E-8	0.002353
8.680000E-8	0.002409
8.685000E-8	0.002378
8.690000E-8	0.002237
8.695000E-8	0.002303
8.700000E-8	0.002291
8.705000E-8	0.002372
8.710000E-8	0.002363
8.715000E-8	0.002488
8.720000E-8	0.002669
8.725000E-8	0.002675
8.730000E-8	0.002675
8.735000E-8	0.002731
8.740000E-8	0.002875
8.745000E-8	0.002850
8.750000E-8	0.002888
8.755000E-8	0.003028
8.760000E-8	0.002906
8.765000E-8	0.002897
8.770000E-8	0.002906
8.775000E-8	0.003019
8.780000E-8	0.002941
8.785000E-8	0.002834
8.790000E-8	0.002675
8.795000E-8	0.002634
8.800000E-8	0.002459
8.805000E-8	0.002375
8.810000E-8	0.002425
8.815000E-8	0.002428
8.820000E-8	0.002313
8.825000E-8	0.002294
8.830000E-8	0.002209
8.835000E-8	0.002144
8.840000E-8	0.002069
8.845000E-8	0.002047
8.850000E-8	0.001944
8.855000E-8	0.001963
8.860000E-8	0.001925
8.865000E-8	0.001919
8.870000E-8	0.002041
8.875000E-8	0.002128
8.880000E-8	0.002244
8.885000E-8	0.002375
8.890000E-8	0.002375
8.895000E-8	0.002503
8.900000E-8	0.002594
8.905000E-8	0.002725
8.910000E-8	0.002600
8.915000E-8	0.002631
8.920000E-8	0.002591
8.925000E-8	0.002516
8.930000E-8	0.002356
8.935000E-8	0.002300
8.940000E-8	0.002044
8.945000E-8	0.002012
8.950000E-8	0.001950
8.955000E-8	0.001934
8.960000E-8	0.001975
8.965000E-8	0.001934
8.970000E-8	0.001972
8.975000E-8	0.002194
8.980000E-8	0.002097
8.985000E-8	0.002216
8.990000E-8	0.002447
8.995000E-8	0.002528
9.000000E-8	0.002550
9.005000E-8	0.002609
9.010000E-8	0.002722
9.015000E-8	0.002863
9.020000E-8	0.002903
9.025000E-8	0.002881
9.030000E-8	0.002747
9.035000E-8	0.002697
9.040000E-8	0.002594
9.045000E-8	0.002491
9.050000E-8	0.002431
9.055000E-8	0.002350
9.060000E-8	0.002331
9.065000E-8	0.002353
9.070000E-8	0.002303
9.075000E-8	0.002259
9.080000E-8	0.002237
9.085000E-8	0.002247
9.090000E-8	0.002131
9.095000E-8	0.002294
9.100000E-8	0.002316
9.105000E-8	0.002406
9.110000E-8	0.002378
9.115000E-8	0.002500
9.120000E-8	0.002544
9.125000E-8	0.002525
9.130000E-8	0.002572
9.135000E-8	0.002572
9.140000E-8	0.002512
9.145000E-8	0.002581
9.150000E-8	0.002656
9.155000E-8	0.002675
9.160000E-8	0.002613
9.165000E-8	0.002719
9.170000E-8	0.002722
9.175000E-8	0.002650
9.180000E-8	0.002575
9.185000E-8	0.002566
9.190000E-8	0.002434
9.195000E-8	0.002466
9.200000E-8	0.002416
9.205000E-8	0.002466
9.210000E-8	0.002363
9.215000E-8	0.002463
9.220000E-8	0.002316
9.225000E-8	0.002425
9.230000E-8	0.002434
9.235000E-8	0.002488
9.240000E-8	0.002441
9.245000E-8	0.002541
9.250000E-8	0.002697
9.255000E-8	0.002869
9.260000E-8	0.002822
9.265000E-8	0.002922
9.270000E-8	0.003047
9.275000E-8	0.002834
9.280000E-8	0.002863
9.285000E-8	0.002859
9.290000E-8	0.002828
9.295000E-8	0.002650
9.300000E-8	0.002600
9.305000E-8	0.002556
9.310000E-8	0.002459
9.315000E-8	0.002472
9.320000E-8	0.002434
9.325000E-8	0.002363
9.330000E-8	0.002206
9.335000E-8	0.002197
9.340000E-8	0.002216
9.345000E-8	0.002275
9.350000E-8	0.002288
9.355000E-8	0.002234
9.360000E-8	0.002309
9.365000E-8	0.002400
9.370000E-8	0.002459
9.375000E-8	0.002453
9.380000E-8	0.002478
9.385000E-8	0.002522
9.390000E-8	0.002497
9.395000E-8	0.002578
9.400000E-8	0.002641
9.405000E-8	0.002694
9.410000E-8	0.002619
9.415000E-8	0.002706
9.420000E-8	0.002750
9.425000E-8	0.002909
9.430000E-8	0.002775
9.435000E-8	0.002791
9.440000E-8	0.002678
9.445000E-8	0.002575
9.450000E-8	0.002525
9.455000E-8	0.002453
9.460000E-8	0.002384
9.465000E-8	0.002216
9.470000E-8	0.002119
9.475000E-8	0.002166
9.480000E-8	0.002231
9.485000E-8	0.002250
9.490000E-8	0.002266
9.495000E-8	0.002347
9.500000E-8	0.002278
9.505000E-8	0.002331
9.510000E-8	0.002509
9.515000E-8	0.002425
9.520000E-8	0.002450
9.525000E-8	0.002378
9.530000E-8	0.002291
9.535000E-8	0.002378
9.540000E-8	0.002325
9.545000E-8	0.002413
9.550000E-8	0.002416
9.555000E-8	0.002516
9.560000E-8	0.002497
9.565000E-8	0.002425
9.570000E-8	0.002503
9.575000E-8	0.002600
9.580000E-8	0.002434
9.585000E-8	0.002569
9.590000E-8	0.002419
9.595000E-8	0.002325
9.600000E-8	0.002334
9.605000E-8	0.002213
9.610000E-8	0.002259
9.615000E-8	0.002325
9.620000E-8	0.002247
9.625000E-8	0.002184
9.630000E-8	0.002272
9.635000E-8	0.002413
9.640000E-8	0.002512
9.645000E-8	0.002534
9.650000E-8	0.002491
9.655000E-8	0.002556
9.660000E-8	0.002494
9.665000E-8	0.002538
9.670000E-8	0.002559
9.675000E-8	0.002528
9.680000E-8	0.002506
9.685000E-8	0.002472
9.690000E-8	0.002419
9.695000E-8	0.002441
9.700000E-8	0.002341
9.705000E-8	0.002353
9.710000E-8	0.002334
9.715000E-8	0.002413
9.720000E-8	0.002366
9.725000E-8	0.002356
9.730000E-8	0.002409
9.735000E-8	0.002450
9.740000E-8	0.002366
9.745000E-8	0.002394
9.750000E-8	0.002141
9.755000E-8	0.002144
9.760000E-8	0.002063
9.765000E-8	0.002116
9.770000E-8	0.002047
9.775000E-8	0.002144
9.780000E-8	0.002056
9.785000E-8	0.002209
9.790000E-8	0.002466
9.795000E-8	0.002538
9.800000E-8	0.002647
9.805000E-8	0.002756
9.810000E-8	0.002744
9.815000E-8	0.002819
9.820000E-8	0.002728
9.825000E-8	0.002772
9.830000E-8	0.002509
9.835000E-8	0.002409
9.840000E-8	0.002341
9.845000E-8	0.002306
9.850000E-8	0.002216
9.855000E-8	0.002175
9.860000E-8	0.002134
9.865000E-8	0.002219
9.870000E-8	0.002166
9.875000E-8	0.002109
9.880000E-8	0.002309
9.885000E-8	0.002338
9.890000E-8	0.002516
9.895000E-8	0.002584
9.900000E-8	0.002622
9.905000E-8	0.002688
9.910000E-8	0.002697
9.915000E-8	0.002700
9.920000E-8	0.002741
9.925000E-8	0.002747
9.930000E-8	0.002781
9.935000E-8	0.002819
9.940000E-8	0.002756
9.945000E-8	0.002816
9.950000E-8	0.002747
9.955000E-8	0.002772
9.960000E-8	0.002694
9.965000E-8	0.002675
9.970000E-8	0.002653
9.975000E-8	0.002675
9.980000E-8	0.002600
9.985000E-8	0.002616
9.990000E-8	0.002606
9.995000E-8	0.002609
