LabVIEW Measurement	
Writer_Version	2
Reader_Version	2
Separator	Tab
Decimal_Separator	.
Multi_Headings	No
X_Columns	Multi
Time_Pref	Relative
Operator	TG lab
Date	2015/03/06
Time	17:14:04.5061554908752441406
***End_of_Header***	
	
Channels	1	
Samples	1000	
Date	1903/12/31	
Time	19:00:00	
X_Dimension	Time	
X0	0.0000000000000000E+0	
Delta_X	5.000000E-11	
***End_of_Header***		
X_Value	Untitled	Comment
0.000000	0.001908
5.000000E-11	0.001913
1.000000E-10	0.001886
1.500000E-10	0.001886
2.000000E-10	0.001869
2.500000E-10	0.001863
3.000000E-10	0.001781
3.500000E-10	0.001838
4.000000E-10	0.001861
4.500000E-10	0.001845
5.000000E-10	0.001950
5.500000E-10	0.002008
6.000000E-10	0.002009
6.500000E-10	0.001995
7.000000E-10	0.001931
7.500000E-10	0.001931
8.000000E-10	0.001895
8.500000E-10	0.001820
9.000000E-10	0.001783
9.500000E-10	0.001711
1.000000E-9	0.001713
1.050000E-9	0.001758
1.100000E-9	0.001745
1.150000E-9	0.001800
1.200000E-9	0.001755
1.250000E-9	0.001758
1.300000E-9	0.001717
1.350000E-9	0.001713
1.400000E-9	0.001683
1.450000E-9	0.001742
1.500000E-9	0.001681
1.550000E-9	0.001656
1.600000E-9	0.001692
1.650000E-9	0.001717
1.700000E-9	0.001628
1.750000E-9	0.001720
1.800000E-9	0.001700
1.850000E-9	0.001738
1.900000E-9	0.001659
1.950000E-9	0.001728
2.000000E-9	0.001686
2.050000E-9	0.001678
2.100000E-9	0.001580
2.150000E-9	0.001583
2.200000E-9	0.001567
2.250000E-9	0.001622
2.300000E-9	0.001641
2.350000E-9	0.001672
2.400000E-9	0.001714
2.450000E-9	0.001720
2.500000E-9	0.001791
2.550000E-9	0.001861
2.600000E-9	0.001903
2.650000E-9	0.002014
2.700000E-9	0.002048
2.750000E-9	0.002089
2.800000E-9	0.002175
2.850000E-9	0.002208
2.900000E-9	0.002252
2.950000E-9	0.002330
3.000000E-9	0.002375
3.050000E-9	0.002430
3.100000E-9	0.002488
3.150000E-9	0.002541
3.200000E-9	0.002613
3.250000E-9	0.002728
3.300000E-9	0.002869
3.350000E-9	0.003117
3.400000E-9	0.003316
3.450000E-9	0.003684
3.500000E-9	0.004025
3.550000E-9	0.004344
3.600000E-9	0.004702
3.650000E-9	0.005019
3.700000E-9	0.005191
3.750000E-9	0.005128
3.800000E-9	0.004888
3.850000E-9	0.004322
3.900000E-9	0.003384
3.950000E-9	0.002103
4.000000E-9	0.000517
4.050000E-9	-0.001352
4.100000E-9	-0.003422
4.150000E-9	-0.005667
4.200000E-9	-0.007944
4.250000E-9	-0.009973
4.300000E-9	-0.011866
4.350000E-9	-0.013297
4.400000E-9	-0.014261
4.450000E-9	-0.014609
4.500000E-9	-0.014503
4.550000E-9	-0.013838
4.600000E-9	-0.012847
4.650000E-9	-0.011597
4.700000E-9	-0.010278
4.750000E-9	-0.008973
4.800000E-9	-0.007947
4.850000E-9	-0.007222
4.900000E-9	-0.006897
4.950000E-9	-0.006842
5.000000E-9	-0.007034
5.050000E-9	-0.007364
5.100000E-9	-0.007714
5.150000E-9	-0.007923
5.200000E-9	-0.007967
5.250000E-9	-0.007645
5.300000E-9	-0.007089
5.350000E-9	-0.006330
5.400000E-9	-0.005414
5.450000E-9	-0.004394
5.500000E-9	-0.003439
5.550000E-9	-0.002727
5.600000E-9	-0.002266
5.650000E-9	-0.001984
5.700000E-9	-0.002116
5.750000E-9	-0.002422
5.800000E-9	-0.002838
5.850000E-9	-0.003231
5.900000E-9	-0.003587
5.950000E-9	-0.003688
6.000000E-9	-0.003517
6.050000E-9	-0.003197
6.100000E-9	-0.002611
6.150000E-9	-0.001892
6.200000E-9	-0.001200
6.250000E-9	-0.000563
6.300000E-9	-0.000172
6.350000E-9	0.000142
6.400000E-9	5.312500E-5
6.450000E-9	-0.000144
6.500000E-9	-0.000542
6.550000E-9	-0.000900
6.600000E-9	-0.001266
6.650000E-9	-0.001525
6.700000E-9	-0.001553
6.750000E-9	-0.001269
6.800000E-9	-0.000902
6.850000E-9	-0.000278
6.900000E-9	0.000394
6.950000E-9	0.001064
7.000000E-9	0.001561
7.050000E-9	0.001866
7.100000E-9	0.001895
7.150000E-9	0.001820
7.200000E-9	0.001470
7.250000E-9	0.000964
7.300000E-9	0.000502
7.350000E-9	0.000214
7.400000E-9	2.187500E-5
7.450000E-9	6.250000E-6
7.500000E-9	0.000155
7.550000E-9	0.000434
7.600000E-9	0.000894
7.650000E-9	0.001342
7.700000E-9	0.001706
7.750000E-9	0.001998
7.800000E-9	0.002098
7.850000E-9	0.002041
7.900000E-9	0.001697
7.950000E-9	0.001386
8.000000E-9	0.000913
8.050000E-9	0.000458
8.100000E-9	0.000117
8.150000E-9	5.156250E-5
8.200000E-9	9.531250E-5
8.250000E-9	0.000302
8.300000E-9	0.000683
8.350000E-9	0.001247
8.400000E-9	0.001711
8.450000E-9	0.002184
8.500000E-9	0.002375
8.550000E-9	0.002453
8.600000E-9	0.002291
8.650000E-9	0.001905
8.700000E-9	0.001536
8.750000E-9	0.001061
8.800000E-9	0.000773
8.850000E-9	0.000537
8.900000E-9	0.000473
8.950000E-9	0.000672
9.000000E-9	0.000980
9.050000E-9	0.001431
9.100000E-9	0.001886
9.150000E-9	0.002331
9.200000E-9	0.002655
9.250000E-9	0.002781
9.300000E-9	0.002734
9.350000E-9	0.002463
9.400000E-9	0.002097
9.450000E-9	0.001591
9.500000E-9	0.001153
9.550000E-9	0.000869
9.600000E-9	0.000713
9.650000E-9	0.000784
9.700000E-9	0.001069
9.750000E-9	0.001511
9.800000E-9	0.002047
9.850000E-9	0.002583
9.900000E-9	0.003008
9.950000E-9	0.003281
1.000000E-8	0.003302
1.005000E-8	0.003066
1.010000E-8	0.002614
1.015000E-8	0.002063
1.020000E-8	0.001461
1.025000E-8	0.001006
1.030000E-8	0.000672
1.035000E-8	0.000644
1.040000E-8	0.000827
1.045000E-8	0.001252
1.050000E-8	0.001786
1.055000E-8	0.002367
1.060000E-8	0.002878
1.065000E-8	0.003202
1.070000E-8	0.003275
1.075000E-8	0.003183
1.080000E-8	0.002748
1.085000E-8	0.002289
1.090000E-8	0.001691
1.095000E-8	0.001184
1.100000E-8	0.000745
1.105000E-8	0.000633
1.110000E-8	0.000737
1.115000E-8	0.000997
1.120000E-8	0.001394
1.125000E-8	0.001895
1.130000E-8	0.002425
1.135000E-8	0.002806
1.140000E-8	0.002953
1.145000E-8	0.002878
1.150000E-8	0.002623
1.155000E-8	0.002298
1.160000E-8	0.001788
1.165000E-8	0.001333
1.170000E-8	0.000933
1.175000E-8	0.000698
1.180000E-8	0.000702
1.185000E-8	0.000903
1.190000E-8	0.001244
1.195000E-8	0.001661
1.200000E-8	0.002139
1.205000E-8	0.002542
1.210000E-8	0.002842
1.215000E-8	0.002981
1.220000E-8	0.002816
1.225000E-8	0.002591
1.230000E-8	0.002136
1.235000E-8	0.001680
1.240000E-8	0.001308
1.245000E-8	0.000998
1.250000E-8	0.000852
1.255000E-8	0.000916
1.260000E-8	0.001100
1.265000E-8	0.001619
1.270000E-8	0.002053
1.275000E-8	0.002553
1.280000E-8	0.002934
1.285000E-8	0.003234
1.290000E-8	0.003192
1.295000E-8	0.003022
1.300000E-8	0.002708
1.305000E-8	0.002325
1.310000E-8	0.001794
1.315000E-8	0.001427
1.320000E-8	0.001120
1.325000E-8	0.001009
1.330000E-8	0.001091
1.335000E-8	0.001422
1.340000E-8	0.001803
1.345000E-8	0.002300
1.350000E-8	0.002636
1.355000E-8	0.002947
1.360000E-8	0.003127
1.365000E-8	0.003030
1.370000E-8	0.002734
1.375000E-8	0.002364
1.380000E-8	0.001886
1.385000E-8	0.001516
1.390000E-8	0.001145
1.395000E-8	0.000978
1.400000E-8	0.001039
1.405000E-8	0.001208
1.410000E-8	0.001589
1.415000E-8	0.002023
1.420000E-8	0.002461
1.425000E-8	0.002836
1.430000E-8	0.003063
1.435000E-8	0.003131
1.440000E-8	0.002919
1.445000E-8	0.002594
1.450000E-8	0.002113
1.455000E-8	0.001731
1.460000E-8	0.001367
1.465000E-8	0.001139
1.470000E-8	0.001056
1.475000E-8	0.001169
1.480000E-8	0.001431
1.485000E-8	0.001792
1.490000E-8	0.002255
1.495000E-8	0.002613
1.500000E-8	0.002878
1.505000E-8	0.003058
1.510000E-8	0.003039
1.515000E-8	0.002853
1.520000E-8	0.002502
1.525000E-8	0.002123
1.530000E-8	0.001805
1.535000E-8	0.001589
1.540000E-8	0.001369
1.545000E-8	0.001441
1.550000E-8	0.001603
1.555000E-8	0.001892
1.560000E-8	0.002291
1.565000E-8	0.002639
1.570000E-8	0.002905
1.575000E-8	0.003102
1.580000E-8	0.003127
1.585000E-8	0.002956
1.590000E-8	0.002591
1.595000E-8	0.002266
1.600000E-8	0.001859
1.605000E-8	0.001483
1.610000E-8	0.001236
1.615000E-8	0.001222
1.620000E-8	0.001309
1.625000E-8	0.001612
1.630000E-8	0.001886
1.635000E-8	0.002342
1.640000E-8	0.002713
1.645000E-8	0.003050
1.650000E-8	0.003116
1.655000E-8	0.003095
1.660000E-8	0.002830
1.665000E-8	0.002528
1.670000E-8	0.002059
1.675000E-8	0.001588
1.680000E-8	0.001297
1.685000E-8	0.001098
1.690000E-8	0.001052
1.695000E-8	0.001181
1.700000E-8	0.001416
1.705000E-8	0.001763
1.710000E-8	0.002094
1.715000E-8	0.002466
1.720000E-8	0.002631
1.725000E-8	0.002748
1.730000E-8	0.002539
1.735000E-8	0.002377
1.740000E-8	0.001953
1.745000E-8	0.001634
1.750000E-8	0.001250
1.755000E-8	0.001011
1.760000E-8	0.000855
1.765000E-8	0.000939
1.770000E-8	0.001111
1.775000E-8	0.001456
1.780000E-8	0.001898
1.785000E-8	0.002253
1.790000E-8	0.002498
1.795000E-8	0.002711
1.800000E-8	0.002686
1.805000E-8	0.002570
1.810000E-8	0.002380
1.815000E-8	0.002077
1.820000E-8	0.001794
1.825000E-8	0.001603
1.830000E-8	0.001477
1.835000E-8	0.001489
1.840000E-8	0.001603
1.845000E-8	0.001833
1.850000E-8	0.002152
1.855000E-8	0.002483
1.860000E-8	0.002688
1.865000E-8	0.002869
1.870000E-8	0.002916
1.875000E-8	0.002780
1.880000E-8	0.002531
1.885000E-8	0.002223
1.890000E-8	0.001883
1.895000E-8	0.001597
1.900000E-8	0.001320
1.905000E-8	0.001208
1.910000E-8	0.001200
1.915000E-8	0.001366
1.920000E-8	0.001523
1.925000E-8	0.001852
1.930000E-8	0.002041
1.935000E-8	0.002308
1.940000E-8	0.002353
1.945000E-8	0.002400
1.950000E-8	0.002264
1.955000E-8	0.002091
1.960000E-8	0.001814
1.965000E-8	0.001573
1.970000E-8	0.001336
1.975000E-8	0.001202
1.980000E-8	0.001231
1.985000E-8	0.001375
1.990000E-8	0.001566
1.995000E-8	0.001916
2.000000E-8	0.002138
2.005000E-8	0.002477
2.010000E-8	0.002664
2.015000E-8	0.002641
2.020000E-8	0.002552
2.025000E-8	0.002345
2.030000E-8	0.001983
2.035000E-8	0.001681
2.040000E-8	0.001334
2.045000E-8	0.001123
2.050000E-8	0.001047
2.055000E-8	0.001094
2.060000E-8	0.001342
2.065000E-8	0.001625
2.070000E-8	0.001955
2.075000E-8	0.002313
2.080000E-8	0.002602
2.085000E-8	0.002783
2.090000E-8	0.002775
2.095000E-8	0.002748
2.100000E-8	0.002544
2.105000E-8	0.002302
2.110000E-8	0.002053
2.115000E-8	0.001850
2.120000E-8	0.001714
2.125000E-8	0.001625
2.130000E-8	0.001680
2.135000E-8	0.001894
2.140000E-8	0.002103
2.145000E-8	0.002398
2.150000E-8	0.002536
2.155000E-8	0.002716
2.160000E-8	0.002794
2.165000E-8	0.002739
2.170000E-8	0.002584
2.175000E-8	0.002322
2.180000E-8	0.001970
2.185000E-8	0.001738
2.190000E-8	0.001556
2.195000E-8	0.001483
2.200000E-8	0.001559
2.205000E-8	0.001669
2.210000E-8	0.001948
2.215000E-8	0.002189
2.220000E-8	0.002483
2.225000E-8	0.002688
2.230000E-8	0.002766
2.235000E-8	0.002809
2.240000E-8	0.002672
2.245000E-8	0.002469
2.250000E-8	0.002123
2.255000E-8	0.001856
2.260000E-8	0.001588
2.265000E-8	0.001456
2.270000E-8	0.001392
2.275000E-8	0.001489
2.280000E-8	0.001734
2.285000E-8	0.001964
2.290000E-8	0.002264
2.295000E-8	0.002552
2.300000E-8	0.002755
2.305000E-8	0.002878
2.310000E-8	0.002745
2.315000E-8	0.002592
2.320000E-8	0.002334
2.325000E-8	0.002072
2.330000E-8	0.001830
2.335000E-8	0.001644
2.340000E-8	0.001522
2.345000E-8	0.001488
2.350000E-8	0.001614
2.355000E-8	0.001764
2.360000E-8	0.002033
2.365000E-8	0.002227
2.370000E-8	0.002437
2.375000E-8	0.002583
2.380000E-8	0.002630
2.385000E-8	0.002580
2.390000E-8	0.002395
2.395000E-8	0.002220
2.400000E-8	0.001977
2.405000E-8	0.001778
2.410000E-8	0.001608
2.415000E-8	0.001547
2.420000E-8	0.001603
2.425000E-8	0.001769
2.430000E-8	0.002025
2.435000E-8	0.002277
2.440000E-8	0.002478
2.445000E-8	0.002661
2.450000E-8	0.002763
2.455000E-8	0.002767
2.460000E-8	0.002586
2.465000E-8	0.002437
2.470000E-8	0.002208
2.475000E-8	0.001983
2.480000E-8	0.001766
2.485000E-8	0.001692
2.490000E-8	0.001656
2.495000E-8	0.001752
2.500000E-8	0.001900
2.505000E-8	0.002183
2.510000E-8	0.002395
2.515000E-8	0.002584
2.520000E-8	0.002727
2.525000E-8	0.002750
2.530000E-8	0.002564
2.535000E-8	0.002377
2.540000E-8	0.002100
2.545000E-8	0.001864
2.550000E-8	0.001639
2.555000E-8	0.001541
2.560000E-8	0.001464
2.565000E-8	0.001525
2.570000E-8	0.001652
2.575000E-8	0.001906
2.580000E-8	0.002116
2.585000E-8	0.002298
2.590000E-8	0.002444
2.595000E-8	0.002564
2.600000E-8	0.002528
2.605000E-8	0.002417
2.610000E-8	0.002280
2.615000E-8	0.002081
2.620000E-8	0.001906
2.625000E-8	0.001745
2.630000E-8	0.001703
2.635000E-8	0.001756
2.640000E-8	0.001803
2.645000E-8	0.001986
2.650000E-8	0.002109
2.655000E-8	0.002348
2.660000E-8	0.002508
2.665000E-8	0.002566
2.670000E-8	0.002539
2.675000E-8	0.002525
2.680000E-8	0.002355
2.685000E-8	0.002130
2.690000E-8	0.001905
2.695000E-8	0.001703
2.700000E-8	0.001595
2.705000E-8	0.001605
2.710000E-8	0.001564
2.715000E-8	0.001773
2.720000E-8	0.001966
2.725000E-8	0.002223
2.730000E-8	0.002364
2.735000E-8	0.002573
2.740000E-8	0.002633
2.745000E-8	0.002617
2.750000E-8	0.002442
2.755000E-8	0.002345
2.760000E-8	0.002061
2.765000E-8	0.001923
2.770000E-8	0.001767
2.775000E-8	0.001677
2.780000E-8	0.001620
2.785000E-8	0.001747
2.790000E-8	0.001928
2.795000E-8	0.002106
2.800000E-8	0.002209
2.805000E-8	0.002427
2.810000E-8	0.002508
2.815000E-8	0.002550
2.820000E-8	0.002384
2.825000E-8	0.002286
2.830000E-8	0.002094
2.835000E-8	0.001800
2.840000E-8	0.001583
2.845000E-8	0.001545
2.850000E-8	0.001492
2.855000E-8	0.001523
2.860000E-8	0.001666
2.865000E-8	0.001905
2.870000E-8	0.002089
2.875000E-8	0.002267
2.880000E-8	0.002366
2.885000E-8	0.002405
2.890000E-8	0.002398
2.895000E-8	0.002258
2.900000E-8	0.002016
2.905000E-8	0.001914
2.910000E-8	0.001636
2.915000E-8	0.001516
2.920000E-8	0.001433
2.925000E-8	0.001458
2.930000E-8	0.001502
2.935000E-8	0.001722
2.940000E-8	0.001908
2.945000E-8	0.002092
2.950000E-8	0.002267
2.955000E-8	0.002336
2.960000E-8	0.002333
2.965000E-8	0.002336
2.970000E-8	0.002234
2.975000E-8	0.002134
2.980000E-8	0.001913
2.985000E-8	0.001833
2.990000E-8	0.001694
2.995000E-8	0.001683
3.000000E-8	0.001800
3.005000E-8	0.001966
3.010000E-8	0.002119
3.015000E-8	0.002342
3.020000E-8	0.002597
3.025000E-8	0.002727
3.030000E-8	0.002761
3.035000E-8	0.002695
3.040000E-8	0.002545
3.045000E-8	0.002398
3.050000E-8	0.002067
3.055000E-8	0.001855
3.060000E-8	0.001631
3.065000E-8	0.001495
3.070000E-8	0.001459
3.075000E-8	0.001558
3.080000E-8	0.001634
3.085000E-8	0.001831
3.090000E-8	0.002061
3.095000E-8	0.002236
3.100000E-8	0.002358
3.105000E-8	0.002442
3.110000E-8	0.002419
3.115000E-8	0.002361
3.120000E-8	0.002147
3.125000E-8	0.002005
3.130000E-8	0.001867
3.135000E-8	0.001759
3.140000E-8	0.001694
3.145000E-8	0.001756
3.150000E-8	0.001917
3.155000E-8	0.002034
3.160000E-8	0.002219
3.165000E-8	0.002397
3.170000E-8	0.002512
3.175000E-8	0.002547
3.180000E-8	0.002491
3.185000E-8	0.002406
3.190000E-8	0.002206
3.195000E-8	0.001981
3.200000E-8	0.001806
3.205000E-8	0.001614
3.210000E-8	0.001547
3.215000E-8	0.001470
3.220000E-8	0.001570
3.225000E-8	0.001759
3.230000E-8	0.001964
3.235000E-8	0.002217
3.240000E-8	0.002363
3.245000E-8	0.002489
3.250000E-8	0.002547
3.255000E-8	0.002491
3.260000E-8	0.002305
3.265000E-8	0.002192
3.270000E-8	0.001966
3.275000E-8	0.001747
3.280000E-8	0.001605
3.285000E-8	0.001598
3.290000E-8	0.001583
3.295000E-8	0.001633
3.300000E-8	0.001736
3.305000E-8	0.001936
3.310000E-8	0.002095
3.315000E-8	0.002247
3.320000E-8	0.002369
3.325000E-8	0.002417
3.330000E-8	0.002348
3.335000E-8	0.002302
3.340000E-8	0.002223
3.345000E-8	0.002122
3.350000E-8	0.002036
3.355000E-8	0.001937
3.360000E-8	0.001936
3.365000E-8	0.001967
3.370000E-8	0.001941
3.375000E-8	0.002047
3.380000E-8	0.002084
3.385000E-8	0.002100
3.390000E-8	0.002158
3.395000E-8	0.002142
3.400000E-8	0.002083
3.405000E-8	0.002105
3.410000E-8	0.002020
3.415000E-8	0.001983
3.420000E-8	0.001813
3.425000E-8	0.001780
3.430000E-8	0.001739
3.435000E-8	0.001759
3.440000E-8	0.001839
3.445000E-8	0.001939
3.450000E-8	0.002123
3.455000E-8	0.002281
3.460000E-8	0.002352
3.465000E-8	0.002489
3.470000E-8	0.002548
3.475000E-8	0.002523
3.480000E-8	0.002422
3.485000E-8	0.002373
3.490000E-8	0.002222
3.495000E-8	0.002147
3.500000E-8	0.002064
3.505000E-8	0.002072
3.510000E-8	0.002025
3.515000E-8	0.002044
3.520000E-8	0.002063
3.525000E-8	0.002120
3.530000E-8	0.002141
3.535000E-8	0.002142
3.540000E-8	0.002012
3.545000E-8	0.001955
3.550000E-8	0.001906
3.555000E-8	0.001717
3.560000E-8	0.001598
3.565000E-8	0.001655
3.570000E-8	0.001575
3.575000E-8	0.001641
3.580000E-8	0.001731
3.585000E-8	0.001906
3.590000E-8	0.002034
3.595000E-8	0.002230
3.600000E-8	0.002339
3.605000E-8	0.002409
3.610000E-8	0.002386
3.615000E-8	0.002361
3.620000E-8	0.002219
3.625000E-8	0.002117
3.630000E-8	0.001953
3.635000E-8	0.001884
3.640000E-8	0.001764
3.645000E-8	0.001736
3.650000E-8	0.001820
3.655000E-8	0.001906
3.660000E-8	0.002123
3.665000E-8	0.002320
3.670000E-8	0.002464
3.675000E-8	0.002602
3.680000E-8	0.002756
3.685000E-8	0.002778
3.690000E-8	0.002741
3.695000E-8	0.002619
3.700000E-8	0.002420
3.705000E-8	0.002248
3.710000E-8	0.002059
3.715000E-8	0.001988
3.720000E-8	0.001941
3.725000E-8	0.002063
3.730000E-8	0.002111
3.735000E-8	0.002267
3.740000E-8	0.002398
3.745000E-8	0.002450
3.750000E-8	0.002514
3.755000E-8	0.002541
3.760000E-8	0.002455
3.765000E-8	0.002369
3.770000E-8	0.002231
3.775000E-8	0.002059
3.780000E-8	0.001856
3.785000E-8	0.001752
3.790000E-8	0.001709
3.795000E-8	0.001659
3.800000E-8	0.001719
3.805000E-8	0.001908
3.810000E-8	0.002023
3.815000E-8	0.002158
3.820000E-8	0.002255
3.825000E-8	0.002411
3.830000E-8	0.002378
3.835000E-8	0.002394
3.840000E-8	0.002253
3.845000E-8	0.002145
3.850000E-8	0.001886
3.855000E-8	0.001719
3.860000E-8	0.001531
3.865000E-8	0.001406
3.870000E-8	0.001331
3.875000E-8	0.001261
3.880000E-8	0.001413
3.885000E-8	0.001509
3.890000E-8	0.001653
3.895000E-8	0.001784
3.900000E-8	0.001858
3.905000E-8	0.001937
3.910000E-8	0.001997
3.915000E-8	0.001998
3.920000E-8	0.001995
3.925000E-8	0.002033
3.930000E-8	0.002016
3.935000E-8	0.001967
3.940000E-8	0.001917
3.945000E-8	0.001956
3.950000E-8	0.001959
3.955000E-8	0.002077
3.960000E-8	0.002114
3.965000E-8	0.002156
3.970000E-8	0.002198
3.975000E-8	0.002230
3.980000E-8	0.002230
3.985000E-8	0.002269
3.990000E-8	0.002175
3.995000E-8	0.002117
4.000000E-8	0.002048
4.005000E-8	0.002072
4.010000E-8	0.002047
4.015000E-8	0.002133
4.020000E-8	0.002202
4.025000E-8	0.002256
4.030000E-8	0.002361
4.035000E-8	0.002445
4.040000E-8	0.002477
4.045000E-8	0.002409
4.050000E-8	0.002447
4.055000E-8	0.002311
4.060000E-8	0.002258
4.065000E-8	0.002150
4.070000E-8	0.001913
4.075000E-8	0.001834
4.080000E-8	0.001745
4.085000E-8	0.001719
4.090000E-8	0.001684
4.095000E-8	0.001711
4.100000E-8	0.001783
4.105000E-8	0.001858
4.110000E-8	0.001905
4.115000E-8	0.002031
4.120000E-8	0.002027
4.125000E-8	0.002027
4.130000E-8	0.001989
4.135000E-8	0.001894
4.140000E-8	0.001770
4.145000E-8	0.001705
4.150000E-8	0.001659
4.155000E-8	0.001581
4.160000E-8	0.001625
4.165000E-8	0.001644
4.170000E-8	0.001731
4.175000E-8	0.001867
4.180000E-8	0.001975
4.185000E-8	0.002117
4.190000E-8	0.002131
4.195000E-8	0.002158
4.200000E-8	0.002120
4.205000E-8	0.002087
4.210000E-8	0.001983
4.215000E-8	0.001919
4.220000E-8	0.001817
4.225000E-8	0.001823
4.230000E-8	0.001841
4.235000E-8	0.001861
4.240000E-8	0.001866
4.245000E-8	0.001939
4.250000E-8	0.002014
4.255000E-8	0.002108
4.260000E-8	0.002195
4.265000E-8	0.002188
4.270000E-8	0.002255
4.275000E-8	0.002213
4.280000E-8	0.002216
4.285000E-8	0.002162
4.290000E-8	0.002122
4.295000E-8	0.002069
4.300000E-8	0.002056
4.305000E-8	0.002089
4.310000E-8	0.002019
4.315000E-8	0.002078
4.320000E-8	0.002156
4.325000E-8	0.002192
4.330000E-8	0.002231
4.335000E-8	0.002216
4.340000E-8	0.002148
4.345000E-8	0.002159
4.350000E-8	0.002108
4.355000E-8	0.001911
4.360000E-8	0.001872
4.365000E-8	0.001702
4.370000E-8	0.001584
4.375000E-8	0.001625
4.380000E-8	0.001597
4.385000E-8	0.001608
4.390000E-8	0.001645
4.395000E-8	0.001706
4.400000E-8	0.001836
4.405000E-8	0.001937
4.410000E-8	0.001963
4.415000E-8	0.001992
4.420000E-8	0.002070
4.425000E-8	0.002073
4.430000E-8	0.002091
4.435000E-8	0.002162
4.440000E-8	0.002127
4.445000E-8	0.002047
4.450000E-8	0.002014
4.455000E-8	0.002055
4.460000E-8	0.001970
4.465000E-8	0.001936
4.470000E-8	0.001916
4.475000E-8	0.001903
4.480000E-8	0.001838
4.485000E-8	0.001786
4.490000E-8	0.001738
4.495000E-8	0.001713
4.500000E-8	0.001606
4.505000E-8	0.001658
4.510000E-8	0.001631
4.515000E-8	0.001655
4.520000E-8	0.001728
4.525000E-8	0.001891
4.530000E-8	0.001914
4.535000E-8	0.002058
4.540000E-8	0.002156
4.545000E-8	0.002250
4.550000E-8	0.002294
4.555000E-8	0.002266
4.560000E-8	0.002266
4.565000E-8	0.002177
4.570000E-8	0.002102
4.575000E-8	0.001988
4.580000E-8	0.001969
4.585000E-8	0.002002
4.590000E-8	0.001909
4.595000E-8	0.001939
4.600000E-8	0.001936
4.605000E-8	0.002020
4.610000E-8	0.002059
4.615000E-8	0.002089
4.620000E-8	0.002203
4.625000E-8	0.002263
4.630000E-8	0.002314
4.635000E-8	0.002409
4.640000E-8	0.002383
4.645000E-8	0.002411
4.650000E-8	0.002461
4.655000E-8	0.002430
4.660000E-8	0.002402
4.665000E-8	0.002388
4.670000E-8	0.002339
4.675000E-8	0.002303
4.680000E-8	0.002273
4.685000E-8	0.002272
4.690000E-8	0.002256
4.695000E-8	0.002205
4.700000E-8	0.002083
4.705000E-8	0.002052
4.710000E-8	0.002067
4.715000E-8	0.002061
4.720000E-8	0.002011
4.725000E-8	0.002025
4.730000E-8	0.002061
4.735000E-8	0.002100
4.740000E-8	0.002147
4.745000E-8	0.002213
4.750000E-8	0.002289
4.755000E-8	0.002384
4.760000E-8	0.002444
4.765000E-8	0.002459
4.770000E-8	0.002436
4.775000E-8	0.002408
4.780000E-8	0.002334
4.785000E-8	0.002281
4.790000E-8	0.002150
4.795000E-8	0.002077
4.800000E-8	0.001994
4.805000E-8	0.002000
4.810000E-8	0.001980
4.815000E-8	0.002092
4.820000E-8	0.002073
4.825000E-8	0.002194
4.830000E-8	0.002302
4.835000E-8	0.002417
4.840000E-8	0.002456
4.845000E-8	0.002452
4.850000E-8	0.002442
4.855000E-8	0.002436
4.860000E-8	0.002342
4.865000E-8	0.002267
4.870000E-8	0.002169
4.875000E-8	0.002073
4.880000E-8	0.002078
4.885000E-8	0.002064
4.890000E-8	0.002063
4.895000E-8	0.002066
4.900000E-8	0.002109
4.905000E-8	0.002181
4.910000E-8	0.002225
4.915000E-8	0.002225
4.920000E-8	0.002192
4.925000E-8	0.002241
4.930000E-8	0.002128
4.935000E-8	0.002103
4.940000E-8	0.002014
4.945000E-8	0.001941
4.950000E-8	0.001873
4.955000E-8	0.001875
4.960000E-8	0.001877
4.965000E-8	0.001913
4.970000E-8	0.001927
4.975000E-8	0.002009
4.980000E-8	0.001989
4.985000E-8	0.001994
4.990000E-8	0.001981
4.995000E-8	0.001978
