LabVIEW Measurement	
Writer_Version	2
Reader_Version	2
Separator	Tab
Decimal_Separator	.
Multi_Headings	No
X_Columns	Multi
Time_Pref	Relative
Operator	TG lab
Date	2015/03/06
Time	17:53:58.3850774765014648437
***End_of_Header***	
	
Channels	1	
Samples	2000	
Date	2015/03/06	
Time	17:53:58.3850774765014648437	
X_Dimension	Time	
X0	0.0000000000000000E+0	
Delta_X	5.000000E-11	
***End_of_Header***		
X_Value	Untitled	Comment
0.000000	0.002194
5.000000E-11	0.002209
1.000000E-10	0.002116
1.500000E-10	0.002184
2.000000E-10	0.002309
2.500000E-10	0.002353
3.000000E-10	0.002228
3.500000E-10	0.002300
4.000000E-10	0.002366
4.500000E-10	0.002372
5.000000E-10	0.002331
5.500000E-10	0.002450
6.000000E-10	0.002397
6.500000E-10	0.002488
7.000000E-10	0.002484
7.500000E-10	0.002544
8.000000E-10	0.002506
8.500000E-10	0.002481
9.000000E-10	0.002538
9.500000E-10	0.002447
1.000000E-9	0.002494
1.050000E-9	0.002459
1.100000E-9	0.002400
1.150000E-9	0.002413
1.200000E-9	0.002350
1.250000E-9	0.002566
1.300000E-9	0.002534
1.350000E-9	0.002594
1.400000E-9	0.002609
1.450000E-9	0.002688
1.500000E-9	0.002703
1.550000E-9	0.002737
1.600000E-9	0.002866
1.650000E-9	0.002763
1.700000E-9	0.002866
1.750000E-9	0.002900
1.800000E-9	0.002944
1.850000E-9	0.003028
1.900000E-9	0.002978
1.950000E-9	0.003197
2.000000E-9	0.003266
2.050000E-9	0.003413
2.100000E-9	0.003391
2.150000E-9	0.003331
2.200000E-9	0.003366
2.250000E-9	0.003303
2.300000E-9	0.003200
2.350000E-9	0.003297
2.400000E-9	0.003234
2.450000E-9	0.003253
2.500000E-9	0.003106
2.550000E-9	0.003203
2.600000E-9	0.003294
2.650000E-9	0.003334
2.700000E-9	0.003278
2.750000E-9	0.003278
2.800000E-9	0.003288
2.850000E-9	0.003272
2.900000E-9	0.003241
2.950000E-9	0.003288
3.000000E-9	0.003384
3.050000E-9	0.003322
3.100000E-9	0.003322
3.150000E-9	0.003363
3.200000E-9	0.003381
3.250000E-9	0.003409
3.300000E-9	0.003372
3.350000E-9	0.003466
3.400000E-9	0.003434
3.450000E-9	0.003512
3.500000E-9	0.003544
3.550000E-9	0.003850
3.600000E-9	0.004003
3.650000E-9	0.004131
3.700000E-9	0.004213
3.750000E-9	0.004281
3.800000E-9	0.004453
3.850000E-9	0.004531
3.900000E-9	0.004609
3.950000E-9	0.004806
4.000000E-9	0.004859
4.050000E-9	0.005194
4.100000E-9	0.005431
4.150000E-9	0.005825
4.200000E-9	0.006131
4.250000E-9	0.006600
4.300000E-9	0.007194
4.350000E-9	0.008025
4.400000E-9	0.008769
4.450000E-9	0.009934
4.500000E-9	0.011175
4.550000E-9	0.012563
4.600000E-9	0.014016
4.650000E-9	0.015591
4.700000E-9	0.017222
4.750000E-9	0.018928
4.800000E-9	0.020534
4.850000E-9	0.022297
4.900000E-9	0.023934
4.950000E-9	0.025834
5.000000E-9	0.027584
5.050000E-9	0.029600
5.100000E-9	0.031734
5.150000E-9	0.033906
5.200000E-9	0.036000
5.250000E-9	0.038231
5.300000E-9	0.040406
5.350000E-9	0.042356
5.400000E-9	0.044078
5.450000E-9	0.045638
5.500000E-9	0.046794
5.550000E-9	0.047603
5.600000E-9	0.048153
5.650000E-9	0.048156
5.700000E-9	0.047734
5.750000E-9	0.046788
5.800000E-9	0.045381
5.850000E-9	0.043681
5.900000E-9	0.041403
5.950000E-9	0.039081
6.000000E-9	0.036362
6.050000E-9	0.033912
6.100000E-9	0.031609
6.150000E-9	0.029609
6.200000E-9	0.027894
6.250000E-9	0.026744
6.300000E-9	0.026003
6.350000E-9	0.025897
6.400000E-9	0.026031
6.450000E-9	0.026584
6.500000E-9	0.027331
6.550000E-9	0.028275
6.600000E-9	0.029053
6.650000E-9	0.029934
6.700000E-9	0.030678
6.750000E-9	0.031391
6.800000E-9	0.031759
6.850000E-9	0.032078
6.900000E-9	0.031969
6.950000E-9	0.031675
7.000000E-9	0.031225
7.050000E-9	0.030400
7.100000E-9	0.029313
7.150000E-9	0.028116
7.200000E-9	0.026619
7.250000E-9	0.025084
7.300000E-9	0.023416
7.350000E-9	0.021903
7.400000E-9	0.020359
7.450000E-9	0.019050
7.500000E-9	0.017906
7.550000E-9	0.017178
7.600000E-9	0.016659
7.650000E-9	0.016375
7.700000E-9	0.016381
7.750000E-9	0.016813
7.800000E-9	0.017241
7.850000E-9	0.017984
7.900000E-9	0.018763
7.950000E-9	0.019738
8.000000E-9	0.020522
8.050000E-9	0.021328
8.100000E-9	0.022069
8.150000E-9	0.022669
8.200000E-9	0.022947
8.250000E-9	0.022984
8.300000E-9	0.022697
8.350000E-9	0.022212
8.400000E-9	0.021272
8.450000E-9	0.020400
8.500000E-9	0.019238
8.550000E-9	0.017938
8.600000E-9	0.016544
8.650000E-9	0.015259
8.700000E-9	0.014053
8.750000E-9	0.012931
8.800000E-9	0.012053
8.850000E-9	0.011353
8.900000E-9	0.010750
8.950000E-9	0.010584
9.000000E-9	0.010553
9.050000E-9	0.010684
9.100000E-9	0.011078
9.150000E-9	0.011803
9.200000E-9	0.012572
9.250000E-9	0.013388
9.300000E-9	0.014256
9.350000E-9	0.015081
9.400000E-9	0.015653
9.450000E-9	0.016269
9.500000E-9	0.016628
9.550000E-9	0.016781
9.600000E-9	0.016759
9.650000E-9	0.016381
9.700000E-9	0.015816
9.750000E-9	0.015109
9.800000E-9	0.014250
9.850000E-9	0.013294
9.900000E-9	0.012253
9.950000E-9	0.011206
1.000000E-8	0.010291
1.005000E-8	0.009338
1.010000E-8	0.008441
1.015000E-8	0.007822
1.020000E-8	0.007209
1.025000E-8	0.006981
1.030000E-8	0.006781
1.035000E-8	0.006966
1.040000E-8	0.007313
1.045000E-8	0.007838
1.050000E-8	0.008438
1.055000E-8	0.009272
1.060000E-8	0.010147
1.065000E-8	0.010956
1.070000E-8	0.011681
1.075000E-8	0.012359
1.080000E-8	0.012897
1.085000E-8	0.013316
1.090000E-8	0.013375
1.095000E-8	0.013369
1.100000E-8	0.013006
1.105000E-8	0.012481
1.110000E-8	0.011844
1.115000E-8	0.011012
1.120000E-8	0.010131
1.125000E-8	0.009231
1.130000E-8	0.008162
1.135000E-8	0.007378
1.140000E-8	0.006531
1.145000E-8	0.005662
1.150000E-8	0.005209
1.155000E-8	0.004812
1.160000E-8	0.004597
1.165000E-8	0.004597
1.170000E-8	0.004800
1.175000E-8	0.005134
1.180000E-8	0.005641
1.185000E-8	0.006381
1.190000E-8	0.007050
1.195000E-8	0.007897
1.200000E-8	0.008622
1.205000E-8	0.009397
1.210000E-8	0.010019
1.215000E-8	0.010616
1.220000E-8	0.010938
1.225000E-8	0.011044
1.230000E-8	0.011016
1.235000E-8	0.010791
1.240000E-8	0.010197
1.245000E-8	0.009409
1.250000E-8	0.008575
1.255000E-8	0.007766
1.260000E-8	0.006800
1.265000E-8	0.005897
1.270000E-8	0.004956
1.275000E-8	0.004269
1.280000E-8	0.003653
1.285000E-8	0.003175
1.290000E-8	0.002653
1.295000E-8	0.002553
1.300000E-8	0.002594
1.305000E-8	0.002938
1.310000E-8	0.003497
1.315000E-8	0.004122
1.320000E-8	0.004881
1.325000E-8	0.005812
1.330000E-8	0.006747
1.335000E-8	0.007688
1.340000E-8	0.008466
1.345000E-8	0.009228
1.350000E-8	0.009750
1.355000E-8	0.010025
1.360000E-8	0.010091
1.365000E-8	0.009916
1.370000E-8	0.009384
1.375000E-8	0.008797
1.380000E-8	0.007925
1.385000E-8	0.007038
1.390000E-8	0.005853
1.395000E-8	0.005025
1.400000E-8	0.004013
1.405000E-8	0.003056
1.410000E-8	0.002419
1.415000E-8	0.001850
1.420000E-8	0.001466
1.425000E-8	0.001397
1.430000E-8	0.001378
1.435000E-8	0.001687
1.440000E-8	0.002113
1.445000E-8	0.002816
1.450000E-8	0.003469
1.455000E-8	0.004375
1.460000E-8	0.005303
1.465000E-8	0.006178
1.470000E-8	0.007113
1.475000E-8	0.007800
1.480000E-8	0.008334
1.485000E-8	0.008766
1.490000E-8	0.008797
1.495000E-8	0.008756
1.500000E-8	0.008275
1.505000E-8	0.007666
1.510000E-8	0.006834
1.515000E-8	0.006069
1.520000E-8	0.004934
1.525000E-8	0.003928
1.530000E-8	0.002816
1.535000E-8	0.001875
1.540000E-8	0.001012
1.545000E-8	0.000372
1.550000E-8	-0.000163
1.555000E-8	-0.000356
1.560000E-8	-0.000353
1.565000E-8	9.375000E-6
1.570000E-8	0.000544
1.575000E-8	0.001413
1.580000E-8	0.002325
1.585000E-8	0.003456
1.590000E-8	0.004431
1.595000E-8	0.005625
1.600000E-8	0.006466
1.605000E-8	0.007428
1.610000E-8	0.007969
1.615000E-8	0.008384
1.620000E-8	0.008419
1.625000E-8	0.008350
1.630000E-8	0.007853
1.635000E-8	0.007297
1.640000E-8	0.006453
1.645000E-8	0.005472
1.650000E-8	0.004450
1.655000E-8	0.003338
1.660000E-8	0.002297
1.665000E-8	0.001163
1.670000E-8	0.000416
1.675000E-8	-0.000341
1.680000E-8	-0.000584
1.685000E-8	-0.000725
1.690000E-8	-0.000691
1.695000E-8	-0.000281
1.700000E-8	0.000350
1.705000E-8	0.001072
1.710000E-8	0.001953
1.715000E-8	0.003006
1.720000E-8	0.004013
1.725000E-8	0.005022
1.730000E-8	0.005834
1.735000E-8	0.006588
1.740000E-8	0.007109
1.745000E-8	0.007338
1.750000E-8	0.007372
1.755000E-8	0.007147
1.760000E-8	0.006756
1.765000E-8	0.006203
1.770000E-8	0.005481
1.775000E-8	0.004647
1.780000E-8	0.003625
1.785000E-8	0.002587
1.790000E-8	0.001588
1.795000E-8	0.000797
1.800000E-8	-1.562500E-5
1.805000E-8	-0.000531
1.810000E-8	-0.001006
1.815000E-8	-0.001194
1.820000E-8	-0.001078
1.825000E-8	-0.000763
1.830000E-8	-0.000269
1.835000E-8	0.000469
1.840000E-8	0.001244
1.845000E-8	0.002275
1.850000E-8	0.003234
1.855000E-8	0.004284
1.860000E-8	0.005216
1.865000E-8	0.005856
1.870000E-8	0.006366
1.875000E-8	0.006791
1.880000E-8	0.006950
1.885000E-8	0.006822
1.890000E-8	0.006519
1.895000E-8	0.006016
1.900000E-8	0.005263
1.905000E-8	0.004500
1.910000E-8	0.003625
1.915000E-8	0.002759
1.920000E-8	0.001838
1.925000E-8	0.001122
1.930000E-8	0.000369
1.935000E-8	-9.062500E-5
1.940000E-8	-0.000503
1.945000E-8	-0.000575
1.950000E-8	-0.000566
1.955000E-8	-0.000313
1.960000E-8	0.000159
1.965000E-8	0.000753
1.970000E-8	0.001316
1.975000E-8	0.002144
1.980000E-8	0.003041
1.985000E-8	0.003966
1.990000E-8	0.004681
1.995000E-8	0.005350
2.000000E-8	0.005909
2.005000E-8	0.006319
2.010000E-8	0.006534
2.015000E-8	0.006550
2.020000E-8	0.006328
2.025000E-8	0.005884
2.030000E-8	0.005178
2.035000E-8	0.004463
2.040000E-8	0.003647
2.045000E-8	0.002759
2.050000E-8	0.001769
2.055000E-8	0.001106
2.060000E-8	0.000409
2.065000E-8	-0.000156
2.070000E-8	-0.000644
2.075000E-8	-0.000888
2.080000E-8	-0.001006
2.085000E-8	-0.000753
2.090000E-8	-0.000513
2.095000E-8	3.125000E-6
2.100000E-8	0.000478
2.105000E-8	0.001238
2.110000E-8	0.002003
2.115000E-8	0.002919
2.120000E-8	0.003672
2.125000E-8	0.004491
2.130000E-8	0.005091
2.135000E-8	0.005600
2.140000E-8	0.005856
2.145000E-8	0.006044
2.150000E-8	0.005866
2.155000E-8	0.005588
2.160000E-8	0.005000
2.165000E-8	0.004491
2.170000E-8	0.003684
2.175000E-8	0.002963
2.180000E-8	0.002097
2.185000E-8	0.001366
2.190000E-8	0.000684
2.195000E-8	0.000128
2.200000E-8	-0.000253
2.205000E-8	-0.000644
2.210000E-8	-0.000822
2.215000E-8	-0.000728
2.220000E-8	-0.000438
2.225000E-8	-7.812500E-5
2.230000E-8	0.000528
2.235000E-8	0.001184
2.240000E-8	0.001909
2.245000E-8	0.002688
2.250000E-8	0.003431
2.255000E-8	0.004213
2.260000E-8	0.004844
2.265000E-8	0.005419
2.270000E-8	0.005831
2.275000E-8	0.006041
2.280000E-8	0.005916
2.285000E-8	0.005819
2.290000E-8	0.005478
2.295000E-8	0.004941
2.300000E-8	0.004200
2.305000E-8	0.003441
2.310000E-8	0.002525
2.315000E-8	0.001847
2.320000E-8	0.000997
2.325000E-8	0.000216
2.330000E-8	-0.000456
2.335000E-8	-0.000800
2.340000E-8	-0.001116
2.345000E-8	-0.001091
2.350000E-8	-0.001019
2.355000E-8	-0.000603
2.360000E-8	2.812500E-5
2.365000E-8	0.000756
2.370000E-8	0.001444
2.375000E-8	0.002453
2.380000E-8	0.003213
2.385000E-8	0.004034
2.390000E-8	0.004687
2.395000E-8	0.005228
2.400000E-8	0.005553
2.405000E-8	0.005841
2.410000E-8	0.005700
2.415000E-8	0.005528
2.420000E-8	0.005078
2.425000E-8	0.004466
2.430000E-8	0.003888
2.435000E-8	0.003259
2.440000E-8	0.002437
2.445000E-8	0.001581
2.450000E-8	0.000881
2.455000E-8	0.000294
2.460000E-8	-0.000300
2.465000E-8	-0.000666
2.470000E-8	-0.001019
2.475000E-8	-0.000866
2.480000E-8	-0.000769
2.485000E-8	-0.000369
2.490000E-8	6.562500E-5
2.495000E-8	0.000831
2.500000E-8	0.001516
2.505000E-8	0.002250
2.510000E-8	0.003056
2.515000E-8	0.003856
2.520000E-8	0.004600
2.525000E-8	0.005109
2.530000E-8	0.005616
2.535000E-8	0.006019
2.540000E-8	0.005844
2.545000E-8	0.005731
2.550000E-8	0.005375
2.555000E-8	0.004825
2.560000E-8	0.004153
2.565000E-8	0.003319
2.570000E-8	0.002459
2.575000E-8	0.001544
2.580000E-8	0.000681
2.585000E-8	-5.625000E-5
2.590000E-8	-0.000756
2.595000E-8	-0.001153
2.600000E-8	-0.001525
2.605000E-8	-0.001466
2.610000E-8	-0.001334
2.615000E-8	-0.000875
2.620000E-8	-0.000347
2.625000E-8	0.000381
2.630000E-8	0.001362
2.635000E-8	0.002259
2.640000E-8	0.003063
2.645000E-8	0.003794
2.650000E-8	0.004559
2.655000E-8	0.005234
2.660000E-8	0.005597
2.665000E-8	0.005838
2.670000E-8	0.005825
2.675000E-8	0.005613
2.680000E-8	0.005119
2.685000E-8	0.004588
2.690000E-8	0.003869
2.695000E-8	0.003031
2.700000E-8	0.002097
2.705000E-8	0.001303
2.710000E-8	0.000556
2.715000E-8	0.000000
2.720000E-8	-0.000669
2.725000E-8	-0.000928
2.730000E-8	-0.001150
2.735000E-8	-0.001009
2.740000E-8	-0.000875
2.745000E-8	-0.000369
2.750000E-8	8.750000E-5
2.755000E-8	0.000913
2.760000E-8	0.001488
2.765000E-8	0.002203
2.770000E-8	0.002959
2.775000E-8	0.003775
2.780000E-8	0.004303
2.785000E-8	0.004928
2.790000E-8	0.005403
2.795000E-8	0.005525
2.800000E-8	0.005503
2.805000E-8	0.005344
2.810000E-8	0.004916
2.815000E-8	0.004391
2.820000E-8	0.003788
2.825000E-8	0.002972
2.830000E-8	0.002084
2.835000E-8	0.001319
2.840000E-8	0.000544
2.845000E-8	-8.125000E-5
2.850000E-8	-0.000650
2.855000E-8	-0.000844
2.860000E-8	-0.001059
2.865000E-8	-0.000897
2.870000E-8	-0.000838
2.875000E-8	-0.000500
2.880000E-8	4.062500E-5
2.885000E-8	0.000734
2.890000E-8	0.001428
2.895000E-8	0.002141
2.900000E-8	0.002909
2.905000E-8	0.003713
2.910000E-8	0.004275
2.915000E-8	0.004766
2.920000E-8	0.005134
2.925000E-8	0.005372
2.930000E-8	0.005363
2.935000E-8	0.005150
2.940000E-8	0.004759
2.945000E-8	0.004303
2.950000E-8	0.003703
2.955000E-8	0.003156
2.960000E-8	0.002366
2.965000E-8	0.001638
2.970000E-8	0.000966
2.975000E-8	0.000294
2.980000E-8	-0.000163
2.985000E-8	-0.000412
2.990000E-8	-0.000691
2.995000E-8	-0.000828
3.000000E-8	-0.000684
3.005000E-8	-0.000472
3.010000E-8	-3.750000E-5
3.015000E-8	0.000412
3.020000E-8	0.000859
3.025000E-8	0.001612
3.030000E-8	0.002216
3.035000E-8	0.002934
3.040000E-8	0.003541
3.045000E-8	0.004100
3.050000E-8	0.004334
3.055000E-8	0.004681
3.060000E-8	0.004881
3.065000E-8	0.004850
3.070000E-8	0.004603
3.075000E-8	0.004322
3.080000E-8	0.003844
3.085000E-8	0.003350
3.090000E-8	0.002841
3.095000E-8	0.002125
3.100000E-8	0.001441
3.105000E-8	0.000941
3.110000E-8	0.000388
3.115000E-8	3.125000E-6
3.120000E-8	-0.000259
3.125000E-8	-0.000347
3.130000E-8	-0.000356
3.135000E-8	-0.000128
3.140000E-8	0.000309
3.145000E-8	0.000731
3.150000E-8	0.001200
3.155000E-8	0.001919
3.160000E-8	0.002450
3.165000E-8	0.002884
3.170000E-8	0.003447
3.175000E-8	0.003853
3.180000E-8	0.004141
3.185000E-8	0.004494
3.190000E-8	0.004544
3.195000E-8	0.004581
3.200000E-8	0.004338
3.205000E-8	0.004234
3.210000E-8	0.003850
3.215000E-8	0.003288
3.220000E-8	0.002813
3.225000E-8	0.002384
3.230000E-8	0.001716
3.235000E-8	0.001197
3.240000E-8	0.000759
3.245000E-8	0.000281
3.250000E-8	-0.000253
3.255000E-8	-0.000287
3.260000E-8	-0.000463
3.265000E-8	-0.000406
3.270000E-8	-0.000237
3.275000E-8	1.562500E-5
3.280000E-8	0.000281
3.285000E-8	0.000984
3.290000E-8	0.001413
3.295000E-8	0.002159
3.300000E-8	0.002666
3.305000E-8	0.003416
3.310000E-8	0.003853
3.315000E-8	0.004306
3.320000E-8	0.004581
3.325000E-8	0.004687
3.330000E-8	0.004584
3.335000E-8	0.004372
3.340000E-8	0.004109
3.345000E-8	0.003672
3.350000E-8	0.003159
3.355000E-8	0.002675
3.360000E-8	0.001913
3.365000E-8	0.001272
3.370000E-8	0.000688
3.375000E-8	0.000184
3.380000E-8	-0.000188
3.385000E-8	-0.000372
3.390000E-8	-0.000478
3.395000E-8	-0.000363
3.400000E-8	-0.000178
3.405000E-8	0.000234
3.410000E-8	0.000681
3.415000E-8	0.001503
3.420000E-8	0.001903
3.425000E-8	0.002634
3.430000E-8	0.003238
3.435000E-8	0.003931
3.440000E-8	0.004463
3.445000E-8	0.004844
3.450000E-8	0.005084
3.455000E-8	0.005181
3.460000E-8	0.004941
3.465000E-8	0.004738
3.470000E-8	0.004341
3.475000E-8	0.003806
3.480000E-8	0.003153
3.485000E-8	0.002503
3.490000E-8	0.001756
3.495000E-8	0.001200
3.500000E-8	0.000488
3.505000E-8	0.000213
3.510000E-8	-0.000125
3.515000E-8	-0.000356
3.520000E-8	-0.000303
3.525000E-8	-0.000247
3.530000E-8	-9.062500E-5
3.535000E-8	0.000416
3.540000E-8	0.000844
3.545000E-8	0.001516
3.550000E-8	0.001972
3.555000E-8	0.002659
3.560000E-8	0.003216
3.565000E-8	0.003831
3.570000E-8	0.004284
3.575000E-8	0.004709
3.580000E-8	0.004831
3.585000E-8	0.004794
3.590000E-8	0.004719
3.595000E-8	0.004434
3.600000E-8	0.004063
3.605000E-8	0.003634
3.610000E-8	0.002894
3.615000E-8	0.002481
3.620000E-8	0.001747
3.625000E-8	0.001216
3.630000E-8	0.000616
3.635000E-8	0.000219
3.640000E-8	-0.000150
3.645000E-8	-0.000269
3.650000E-8	-0.000306
3.655000E-8	-0.000294
3.660000E-8	-2.812500E-5
3.665000E-8	0.000209
3.670000E-8	0.000828
3.675000E-8	0.001359
3.680000E-8	0.001988
3.685000E-8	0.002750
3.690000E-8	0.003378
3.695000E-8	0.003891
3.700000E-8	0.004338
3.705000E-8	0.004681
3.710000E-8	0.004831
3.715000E-8	0.004866
3.720000E-8	0.004747
3.725000E-8	0.004528
3.730000E-8	0.004247
3.735000E-8	0.003763
3.740000E-8	0.003141
3.745000E-8	0.002591
3.750000E-8	0.001819
3.755000E-8	0.001406
3.760000E-8	0.000784
3.765000E-8	0.000603
3.770000E-8	0.000253
3.775000E-8	0.000113
3.780000E-8	3.437500E-5
3.785000E-8	0.000113
3.790000E-8	0.000419
3.795000E-8	0.000794
3.800000E-8	0.001184
3.805000E-8	0.001519
3.810000E-8	0.002100
3.815000E-8	0.002681
3.820000E-8	0.003153
3.825000E-8	0.003541
3.830000E-8	0.003903
3.835000E-8	0.004266
3.840000E-8	0.004334
3.845000E-8	0.004372
3.850000E-8	0.004294
3.855000E-8	0.004072
3.860000E-8	0.003697
3.865000E-8	0.003403
3.870000E-8	0.002975
3.875000E-8	0.002569
3.880000E-8	0.001950
3.885000E-8	0.001488
3.890000E-8	0.001069
3.895000E-8	0.000716
3.900000E-8	0.000388
3.905000E-8	9.062500E-5
3.910000E-8	-1.875000E-5
3.915000E-8	-2.500000E-5
3.920000E-8	0.000103
3.925000E-8	0.000375
3.930000E-8	0.000788
3.935000E-8	0.001269
3.940000E-8	0.001778
3.945000E-8	0.002363
3.950000E-8	0.002872
3.955000E-8	0.003419
3.960000E-8	0.003669
3.965000E-8	0.003994
3.970000E-8	0.004059
3.975000E-8	0.004116
3.980000E-8	0.004047
3.985000E-8	0.003950
3.990000E-8	0.003616
3.995000E-8	0.003297
4.000000E-8	0.002869
4.005000E-8	0.002397
4.010000E-8	0.002009
4.015000E-8	0.001616
4.020000E-8	0.001163
4.025000E-8	0.000991
4.030000E-8	0.000691
4.035000E-8	0.000612
4.040000E-8	0.000350
4.045000E-8	0.000484
4.050000E-8	0.000522
4.055000E-8	0.000781
4.060000E-8	0.000978
4.065000E-8	0.001362
4.070000E-8	0.001716
4.075000E-8	0.002087
4.080000E-8	0.002447
4.085000E-8	0.002906
4.090000E-8	0.003331
4.095000E-8	0.003603
4.100000E-8	0.003881
4.105000E-8	0.004106
4.110000E-8	0.004128
4.115000E-8	0.004075
4.120000E-8	0.004047
4.125000E-8	0.003894
4.130000E-8	0.003500
4.135000E-8	0.003391
4.140000E-8	0.002794
4.145000E-8	0.002313
4.150000E-8	0.001806
4.155000E-8	0.001497
4.160000E-8	0.001006
4.165000E-8	0.000763
4.170000E-8	0.000472
4.175000E-8	0.000475
4.180000E-8	0.000444
4.185000E-8	0.000656
4.190000E-8	0.000816
4.195000E-8	0.001216
4.200000E-8	0.001528
4.205000E-8	0.002072
4.210000E-8	0.002434
4.215000E-8	0.002966
4.220000E-8	0.003269
4.225000E-8	0.003663
4.230000E-8	0.003959
4.235000E-8	0.004188
4.240000E-8	0.004244
4.245000E-8	0.004244
4.250000E-8	0.004028
4.255000E-8	0.003853
4.260000E-8	0.003425
4.265000E-8	0.002938
4.270000E-8	0.002456
4.275000E-8	0.001909
4.280000E-8	0.001397
4.285000E-8	0.000894
4.290000E-8	0.000594
4.295000E-8	0.000384
4.300000E-8	0.000247
4.305000E-8	0.000253
4.310000E-8	0.000197
4.315000E-8	0.000519
4.320000E-8	0.000844
4.325000E-8	0.001134
4.330000E-8	0.001481
4.335000E-8	0.001919
4.340000E-8	0.002181
4.345000E-8	0.002719
4.350000E-8	0.003028
4.355000E-8	0.003531
4.360000E-8	0.003778
4.365000E-8	0.004059
4.370000E-8	0.004134
4.375000E-8	0.004244
4.380000E-8	0.004081
4.385000E-8	0.004047
4.390000E-8	0.003797
4.395000E-8	0.003434
4.400000E-8	0.002891
4.405000E-8	0.002538
4.410000E-8	0.001956
4.415000E-8	0.001459
4.420000E-8	0.001012
4.425000E-8	0.000631
4.430000E-8	0.000350
4.435000E-8	0.000272
4.440000E-8	0.000141
4.445000E-8	0.000347
4.450000E-8	0.000494
4.455000E-8	0.000831
4.460000E-8	0.001156
4.465000E-8	0.001641
4.470000E-8	0.002147
4.475000E-8	0.002650
4.480000E-8	0.003153
4.485000E-8	0.003538
4.490000E-8	0.003853
4.495000E-8	0.004016
4.500000E-8	0.004084
4.505000E-8	0.004069
4.510000E-8	0.003878
4.515000E-8	0.003597
4.520000E-8	0.003297
4.525000E-8	0.003038
4.530000E-8	0.002416
4.535000E-8	0.001981
4.540000E-8	0.001538
4.545000E-8	0.001034
4.550000E-8	0.000534
4.555000E-8	0.000450
4.560000E-8	5.312500E-5
4.565000E-8	0.000000
4.570000E-8	-7.187500E-5
4.575000E-8	0.000109
4.580000E-8	0.000263
4.585000E-8	0.000694
4.590000E-8	0.001103
4.595000E-8	0.001666
4.600000E-8	0.002050
4.605000E-8	0.002556
4.610000E-8	0.002931
4.615000E-8	0.003281
4.620000E-8	0.003666
4.625000E-8	0.003919
4.630000E-8	0.003950
4.635000E-8	0.004087
4.640000E-8	0.004050
4.645000E-8	0.003984
4.650000E-8	0.003672
4.655000E-8	0.003316
4.660000E-8	0.003063
4.665000E-8	0.002694
4.670000E-8	0.002222
4.675000E-8	0.001869
4.680000E-8	0.001431
4.685000E-8	0.001213
4.690000E-8	0.000984
4.695000E-8	0.000794
4.700000E-8	0.000709
4.705000E-8	0.000700
4.710000E-8	0.000944
4.715000E-8	0.001144
4.720000E-8	0.001316
4.725000E-8	0.001581
4.730000E-8	0.001991
4.735000E-8	0.002394
4.740000E-8	0.002659
4.745000E-8	0.003003
4.750000E-8	0.003206
4.755000E-8	0.003381
4.760000E-8	0.003434
4.765000E-8	0.003494
4.770000E-8	0.003413
4.775000E-8	0.003191
4.780000E-8	0.002941
4.785000E-8	0.002763
4.790000E-8	0.002444
4.795000E-8	0.002072
4.800000E-8	0.001663
4.805000E-8	0.001319
4.810000E-8	0.000925
4.815000E-8	0.000663
4.820000E-8	0.000453
4.825000E-8	0.000372
4.830000E-8	0.000394
4.835000E-8	0.000572
4.840000E-8	0.000803
4.845000E-8	0.001131
4.850000E-8	0.001391
4.855000E-8	0.001806
4.860000E-8	0.002172
4.865000E-8	0.002512
4.870000E-8	0.002691
4.875000E-8	0.003053
4.880000E-8	0.003247
4.885000E-8	0.003500
4.890000E-8	0.003575
4.895000E-8	0.003556
4.900000E-8	0.003531
4.905000E-8	0.003572
4.910000E-8	0.003372
4.915000E-8	0.003184
4.920000E-8	0.002834
4.925000E-8	0.002634
4.930000E-8	0.002263
4.935000E-8	0.001834
4.940000E-8	0.001406
4.945000E-8	0.001175
4.950000E-8	0.000866
4.955000E-8	0.000713
4.960000E-8	0.000638
4.965000E-8	0.000766
4.970000E-8	0.000806
4.975000E-8	0.001034
4.980000E-8	0.001259
4.985000E-8	0.001622
4.990000E-8	0.002006
4.995000E-8	0.002431
5.000000E-8	0.002800
5.005000E-8	0.003003
5.010000E-8	0.003278
5.015000E-8	0.003484
5.020000E-8	0.003463
5.025000E-8	0.003531
5.030000E-8	0.003375
5.035000E-8	0.003306
5.040000E-8	0.003069
5.045000E-8	0.002809
5.050000E-8	0.002591
5.055000E-8	0.002250
5.060000E-8	0.001894
5.065000E-8	0.001553
5.070000E-8	0.001253
5.075000E-8	0.001000
5.080000E-8	0.000816
5.085000E-8	0.000763
5.090000E-8	0.000619
5.095000E-8	0.000831
5.100000E-8	0.000731
5.105000E-8	0.000950
5.110000E-8	0.001159
5.115000E-8	0.001528
5.120000E-8	0.001763
5.125000E-8	0.002141
5.130000E-8	0.002441
5.135000E-8	0.002788
5.140000E-8	0.002922
5.145000E-8	0.003119
5.150000E-8	0.003303
5.155000E-8	0.003359
5.160000E-8	0.003434
5.165000E-8	0.003378
5.170000E-8	0.003159
5.175000E-8	0.002994
5.180000E-8	0.002656
5.185000E-8	0.002388
5.190000E-8	0.001959
5.195000E-8	0.001725
5.200000E-8	0.001466
5.205000E-8	0.001225
5.210000E-8	0.000916
5.215000E-8	0.000825
5.220000E-8	0.000741
5.225000E-8	0.000809
5.230000E-8	0.000922
5.235000E-8	0.001109
5.240000E-8	0.001347
5.245000E-8	0.001728
5.250000E-8	0.001906
5.255000E-8	0.002056
5.260000E-8	0.002356
5.265000E-8	0.002828
5.270000E-8	0.003072
5.275000E-8	0.003384
5.280000E-8	0.003519
5.285000E-8	0.003747
5.290000E-8	0.003653
5.295000E-8	0.003716
5.300000E-8	0.003572
5.305000E-8	0.003397
5.310000E-8	0.003000
5.315000E-8	0.002688
5.320000E-8	0.002341
5.325000E-8	0.001853
5.330000E-8	0.001397
5.335000E-8	0.001200
5.340000E-8	0.000931
5.345000E-8	0.000747
5.350000E-8	0.000572
5.355000E-8	0.000619
5.360000E-8	0.000828
5.365000E-8	0.001088
5.370000E-8	0.001209
5.375000E-8	0.001622
5.380000E-8	0.001963
5.385000E-8	0.002237
5.390000E-8	0.002541
5.395000E-8	0.003047
5.400000E-8	0.003219
5.405000E-8	0.003322
5.410000E-8	0.003466
5.415000E-8	0.003466
5.420000E-8	0.003434
5.425000E-8	0.003266
5.430000E-8	0.003075
5.435000E-8	0.002900
5.440000E-8	0.002553
5.445000E-8	0.002281
5.450000E-8	0.002128
5.455000E-8	0.001853
5.460000E-8	0.001584
5.465000E-8	0.001319
5.470000E-8	0.001081
5.475000E-8	0.001056
5.480000E-8	0.000850
5.485000E-8	0.000884
5.490000E-8	0.000856
5.495000E-8	0.000953
5.500000E-8	0.001081
5.505000E-8	0.001344
5.510000E-8	0.001691
5.515000E-8	0.001981
5.520000E-8	0.002194
5.525000E-8	0.002675
5.530000E-8	0.002909
5.535000E-8	0.003213
5.540000E-8	0.003322
5.545000E-8	0.003587
5.550000E-8	0.003644
5.555000E-8	0.003678
5.560000E-8	0.003500
5.565000E-8	0.003366
5.570000E-8	0.003034
5.575000E-8	0.002737
5.580000E-8	0.002297
5.585000E-8	0.001947
5.590000E-8	0.001600
5.595000E-8	0.001356
5.600000E-8	0.001069
5.605000E-8	0.000850
5.610000E-8	0.000813
5.615000E-8	0.000794
5.620000E-8	0.000834
5.625000E-8	0.000963
5.630000E-8	0.001159
5.635000E-8	0.001503
5.640000E-8	0.001706
5.645000E-8	0.002113
5.650000E-8	0.002281
5.655000E-8	0.002538
5.660000E-8	0.002691
5.665000E-8	0.002956
5.670000E-8	0.003169
5.675000E-8	0.003269
5.680000E-8	0.003303
5.685000E-8	0.003372
5.690000E-8	0.003303
5.695000E-8	0.003234
5.700000E-8	0.002991
5.705000E-8	0.002644
5.710000E-8	0.002366
5.715000E-8	0.002131
5.720000E-8	0.001766
5.725000E-8	0.001491
5.730000E-8	0.001163
5.735000E-8	0.001106
5.740000E-8	0.000950
5.745000E-8	0.000916
5.750000E-8	0.000950
5.755000E-8	0.001138
5.760000E-8	0.001338
5.765000E-8	0.001606
5.770000E-8	0.001797
5.775000E-8	0.002222
5.780000E-8	0.002544
5.785000E-8	0.002950
5.790000E-8	0.003059
5.795000E-8	0.003297
5.800000E-8	0.003394
5.805000E-8	0.003581
5.810000E-8	0.003634
5.815000E-8	0.003566
5.820000E-8	0.003409
5.825000E-8	0.003250
5.830000E-8	0.003012
5.835000E-8	0.002781
5.840000E-8	0.002469
5.845000E-8	0.002197
5.850000E-8	0.001950
5.855000E-8	0.001756
5.860000E-8	0.001444
5.865000E-8	0.001241
5.870000E-8	0.001097
5.875000E-8	0.001128
5.880000E-8	0.001056
5.885000E-8	0.001078
5.890000E-8	0.001184
5.895000E-8	0.001381
5.900000E-8	0.001491
5.905000E-8	0.001825
5.910000E-8	0.002113
5.915000E-8	0.002331
5.920000E-8	0.002416
5.925000E-8	0.002731
5.930000E-8	0.002775
5.935000E-8	0.002988
5.940000E-8	0.003003
5.945000E-8	0.003072
5.950000E-8	0.002950
5.955000E-8	0.002853
5.960000E-8	0.002688
5.965000E-8	0.002516
5.970000E-8	0.002350
5.975000E-8	0.002188
5.980000E-8	0.001966
5.985000E-8	0.001738
5.990000E-8	0.001484
5.995000E-8	0.001344
6.000000E-8	0.001319
6.005000E-8	0.001328
6.010000E-8	0.001181
6.015000E-8	0.001338
6.020000E-8	0.001478
6.025000E-8	0.001769
6.030000E-8	0.001894
6.035000E-8	0.002128
6.040000E-8	0.002444
6.045000E-8	0.002700
6.050000E-8	0.002881
6.055000E-8	0.003119
6.060000E-8	0.003391
6.065000E-8	0.003431
6.070000E-8	0.003403
6.075000E-8	0.003512
6.080000E-8	0.003391
6.085000E-8	0.003497
6.090000E-8	0.003275
6.095000E-8	0.003047
6.100000E-8	0.002884
6.105000E-8	0.002644
6.110000E-8	0.002434
6.115000E-8	0.002103
6.120000E-8	0.001675
6.125000E-8	0.001463
6.130000E-8	0.001091
6.135000E-8	0.000969
6.140000E-8	0.000844
6.145000E-8	0.000666
6.150000E-8	0.000766
6.155000E-8	0.001091
6.160000E-8	0.001303
6.165000E-8	0.001581
6.170000E-8	0.001944
6.175000E-8	0.002275
6.180000E-8	0.002638
6.185000E-8	0.002966
6.190000E-8	0.003297
6.195000E-8	0.003459
6.200000E-8	0.003472
6.205000E-8	0.003497
6.210000E-8	0.003306
6.215000E-8	0.003353
6.220000E-8	0.003131
6.225000E-8	0.002928
6.230000E-8	0.002619
6.235000E-8	0.002363
6.240000E-8	0.002038
6.245000E-8	0.001847
6.250000E-8	0.001594
6.255000E-8	0.001375
6.260000E-8	0.001075
6.265000E-8	0.001047
6.270000E-8	0.000975
6.275000E-8	0.001072
6.280000E-8	0.000969
6.285000E-8	0.001169
6.290000E-8	0.001291
6.295000E-8	0.001631
6.300000E-8	0.001881
6.305000E-8	0.002244
6.310000E-8	0.002488
6.315000E-8	0.002744
6.320000E-8	0.002916
6.325000E-8	0.003138
6.330000E-8	0.003094
6.335000E-8	0.003297
6.340000E-8	0.003191
6.345000E-8	0.003197
6.350000E-8	0.003094
6.355000E-8	0.002906
6.360000E-8	0.002703
6.365000E-8	0.002522
6.370000E-8	0.002228
6.375000E-8	0.002053
6.380000E-8	0.001853
6.385000E-8	0.001666
6.390000E-8	0.001550
6.395000E-8	0.001525
6.400000E-8	0.001478
6.405000E-8	0.001484
6.410000E-8	0.001475
6.415000E-8	0.001516
6.420000E-8	0.001553
6.425000E-8	0.001809
6.430000E-8	0.001984
6.435000E-8	0.002325
6.440000E-8	0.002459
6.445000E-8	0.002587
6.450000E-8	0.002906
6.455000E-8	0.003125
6.460000E-8	0.003284
6.465000E-8	0.003319
6.470000E-8	0.003209
6.475000E-8	0.003128
6.480000E-8	0.003022
6.485000E-8	0.002800
6.490000E-8	0.002559
6.495000E-8	0.002234
6.500000E-8	0.001838
6.505000E-8	0.001597
6.510000E-8	0.001328
6.515000E-8	0.001116
6.520000E-8	0.000978
6.525000E-8	0.000925
6.530000E-8	0.000956
6.535000E-8	0.001031
6.540000E-8	0.001097
6.545000E-8	0.001225
6.550000E-8	0.001397
6.555000E-8	0.001656
6.560000E-8	0.001844
6.565000E-8	0.002087
6.570000E-8	0.002256
6.575000E-8	0.002525
6.580000E-8	0.002763
6.585000E-8	0.002969
6.590000E-8	0.003081
6.595000E-8	0.003200
6.600000E-8	0.003094
6.605000E-8	0.003128
6.610000E-8	0.002991
6.615000E-8	0.002803
6.620000E-8	0.002547
6.625000E-8	0.002453
6.630000E-8	0.002059
6.635000E-8	0.001813
6.640000E-8	0.001575
6.645000E-8	0.001344
6.650000E-8	0.001131
6.655000E-8	0.001003
6.660000E-8	0.000884
6.665000E-8	0.000950
6.670000E-8	0.000819
6.675000E-8	0.001022
6.680000E-8	0.001181
6.685000E-8	0.001550
6.690000E-8	0.001809
6.695000E-8	0.002162
6.700000E-8	0.002353
6.705000E-8	0.002747
6.710000E-8	0.002934
6.715000E-8	0.003094
6.720000E-8	0.003150
6.725000E-8	0.003153
6.730000E-8	0.003113
6.735000E-8	0.003097
6.740000E-8	0.002872
6.745000E-8	0.002784
6.750000E-8	0.002509
6.755000E-8	0.002406
6.760000E-8	0.002031
6.765000E-8	0.001881
6.770000E-8	0.001687
6.775000E-8	0.001425
6.780000E-8	0.001284
6.785000E-8	0.001191
6.790000E-8	0.001109
6.795000E-8	0.001172
6.800000E-8	0.001041
6.805000E-8	0.001144
6.810000E-8	0.001203
6.815000E-8	0.001506
6.820000E-8	0.001700
6.825000E-8	0.001878
6.830000E-8	0.002056
6.835000E-8	0.002341
6.840000E-8	0.002437
6.845000E-8	0.002475
6.850000E-8	0.002453
6.855000E-8	0.002559
6.860000E-8	0.002522
6.865000E-8	0.002581
6.870000E-8	0.002450
6.875000E-8	0.002441
6.880000E-8	0.002313
6.885000E-8	0.002266
6.890000E-8	0.002228
6.895000E-8	0.002119
6.900000E-8	0.002019
6.905000E-8	0.002019
6.910000E-8	0.002009
6.915000E-8	0.002034
6.920000E-8	0.001800
6.925000E-8	0.001859
6.930000E-8	0.001813
6.935000E-8	0.001922
6.940000E-8	0.001878
6.945000E-8	0.002034
6.950000E-8	0.002209
6.955000E-8	0.002388
6.960000E-8	0.002531
6.965000E-8	0.002578
6.970000E-8	0.002662
6.975000E-8	0.002803
6.980000E-8	0.002813
6.985000E-8	0.002856
6.990000E-8	0.002772
6.995000E-8	0.002844
7.000000E-8	0.002753
7.005000E-8	0.002578
7.010000E-8	0.002484
7.015000E-8	0.002331
7.020000E-8	0.002119
7.025000E-8	0.002031
7.030000E-8	0.001797
7.035000E-8	0.001794
7.040000E-8	0.001700
7.045000E-8	0.001609
7.050000E-8	0.001506
7.055000E-8	0.001600
7.060000E-8	0.001609
7.065000E-8	0.001638
7.070000E-8	0.001800
7.075000E-8	0.001991
7.080000E-8	0.001963
7.085000E-8	0.002031
7.090000E-8	0.002044
7.095000E-8	0.002250
7.100000E-8	0.002331
7.105000E-8	0.002413
7.110000E-8	0.002616
7.115000E-8	0.002741
7.120000E-8	0.002806
7.125000E-8	0.002931
7.130000E-8	0.002925
7.135000E-8	0.002928
7.140000E-8	0.002853
7.145000E-8	0.002766
7.150000E-8	0.002488
7.155000E-8	0.002381
7.160000E-8	0.002094
7.165000E-8	0.001928
7.170000E-8	0.001816
7.175000E-8	0.001706
7.180000E-8	0.001588
7.185000E-8	0.001619
7.190000E-8	0.001638
7.195000E-8	0.001722
7.200000E-8	0.001700
7.205000E-8	0.001897
7.210000E-8	0.001963
7.215000E-8	0.002122
7.220000E-8	0.002216
7.225000E-8	0.002525
7.230000E-8	0.002494
7.235000E-8	0.002578
7.240000E-8	0.002609
7.245000E-8	0.002769
7.250000E-8	0.002794
7.255000E-8	0.002875
7.260000E-8	0.002734
7.265000E-8	0.002747
7.270000E-8	0.002553
7.275000E-8	0.002500
7.280000E-8	0.002331
7.285000E-8	0.002159
7.290000E-8	0.002066
7.295000E-8	0.001838
7.300000E-8	0.001769
7.305000E-8	0.001513
7.310000E-8	0.001413
7.315000E-8	0.001341
7.320000E-8	0.001328
7.325000E-8	0.001400
7.330000E-8	0.001294
7.335000E-8	0.001472
7.340000E-8	0.001503
7.345000E-8	0.001797
7.350000E-8	0.002044
7.355000E-8	0.002313
7.360000E-8	0.002497
7.365000E-8	0.002638
7.370000E-8	0.002756
7.375000E-8	0.002991
7.380000E-8	0.002884
7.385000E-8	0.002863
7.390000E-8	0.002844
7.395000E-8	0.002706
7.400000E-8	0.002481
7.405000E-8	0.002375
7.410000E-8	0.002191
7.415000E-8	0.002197
7.420000E-8	0.002047
7.425000E-8	0.001884
7.430000E-8	0.001788
7.435000E-8	0.001850
7.440000E-8	0.001641
7.445000E-8	0.001559
7.450000E-8	0.001563
7.455000E-8	0.001675
7.460000E-8	0.001519
7.465000E-8	0.001825
7.470000E-8	0.001934
7.475000E-8	0.002100
7.480000E-8	0.002359
7.485000E-8	0.002453
7.490000E-8	0.002753
7.495000E-8	0.002972
7.500000E-8	0.002966
7.505000E-8	0.003141
7.510000E-8	0.003069
7.515000E-8	0.003034
7.520000E-8	0.002994
7.525000E-8	0.002813
7.530000E-8	0.002734
7.535000E-8	0.002644
7.540000E-8	0.002359
7.545000E-8	0.002256
7.550000E-8	0.002019
7.555000E-8	0.001956
7.560000E-8	0.001866
7.565000E-8	0.001856
7.570000E-8	0.001678
7.575000E-8	0.001772
7.580000E-8	0.001750
7.585000E-8	0.001741
7.590000E-8	0.001869
7.595000E-8	0.001884
7.600000E-8	0.001975
7.605000E-8	0.002119
7.610000E-8	0.002259
7.615000E-8	0.002359
7.620000E-8	0.002363
7.625000E-8	0.002400
7.630000E-8	0.002388
7.635000E-8	0.002394
7.640000E-8	0.002459
7.645000E-8	0.002544
7.650000E-8	0.002550
7.655000E-8	0.002519
7.660000E-8	0.002284
7.665000E-8	0.002247
7.670000E-8	0.002119
7.675000E-8	0.002047
7.680000E-8	0.001819
7.685000E-8	0.001684
7.690000E-8	0.001503
7.695000E-8	0.001391
7.700000E-8	0.001322
7.705000E-8	0.001259
7.710000E-8	0.001409
7.715000E-8	0.001466
7.720000E-8	0.001563
7.725000E-8	0.001584
7.730000E-8	0.001753
7.735000E-8	0.001959
7.740000E-8	0.002119
7.745000E-8	0.002256
7.750000E-8	0.002394
7.755000E-8	0.002597
7.760000E-8	0.002591
7.765000E-8	0.002763
7.770000E-8	0.002756
7.775000E-8	0.002838
7.780000E-8	0.002784
7.785000E-8	0.002806
7.790000E-8	0.002694
7.795000E-8	0.002594
7.800000E-8	0.002566
7.805000E-8	0.002391
7.810000E-8	0.002322
7.815000E-8	0.002191
7.820000E-8	0.001953
7.825000E-8	0.002034
7.830000E-8	0.001841
7.835000E-8	0.001884
7.840000E-8	0.001759
7.845000E-8	0.001634
7.850000E-8	0.001528
7.855000E-8	0.001541
7.860000E-8	0.001541
7.865000E-8	0.001575
7.870000E-8	0.001628
7.875000E-8	0.001734
7.880000E-8	0.001884
7.885000E-8	0.002147
7.890000E-8	0.002281
7.895000E-8	0.002641
7.900000E-8	0.002759
7.905000E-8	0.002884
7.910000E-8	0.002834
7.915000E-8	0.002697
7.920000E-8	0.002469
7.925000E-8	0.002366
7.930000E-8	0.002050
7.935000E-8	0.001906
7.940000E-8	0.001606
7.945000E-8	0.001409
7.950000E-8	0.001400
7.955000E-8	0.001428
7.960000E-8	0.001362
7.965000E-8	0.001456
7.970000E-8	0.001463
7.975000E-8	0.001500
7.980000E-8	0.001472
7.985000E-8	0.001591
7.990000E-8	0.001709
7.995000E-8	0.001859
8.000000E-8	0.001850
8.005000E-8	0.002084
8.010000E-8	0.002269
8.015000E-8	0.002472
8.020000E-8	0.002397
8.025000E-8	0.002575
8.030000E-8	0.002534
8.035000E-8	0.002441
8.040000E-8	0.002353
8.045000E-8	0.002444
8.050000E-8	0.002263
8.055000E-8	0.002319
8.060000E-8	0.002237
8.065000E-8	0.002297
8.070000E-8	0.002291
8.075000E-8	0.002250
8.080000E-8	0.002237
8.085000E-8	0.002084
8.090000E-8	0.002047
8.095000E-8	0.002038
8.100000E-8	0.001944
8.105000E-8	0.001909
8.110000E-8	0.001847
8.115000E-8	0.001888
8.120000E-8	0.001878
8.125000E-8	0.001881
8.130000E-8	0.001963
8.135000E-8	0.002153
8.140000E-8	0.002147
8.145000E-8	0.002266
8.150000E-8	0.002419
8.155000E-8	0.002600
8.160000E-8	0.002628
8.165000E-8	0.002609
8.170000E-8	0.002616
8.175000E-8	0.002531
8.180000E-8	0.002456
8.185000E-8	0.002475
8.190000E-8	0.002394
8.195000E-8	0.002316
8.200000E-8	0.002044
8.205000E-8	0.001863
8.210000E-8	0.001809
8.215000E-8	0.001669
8.220000E-8	0.001541
8.225000E-8	0.001437
8.230000E-8	0.001328
8.235000E-8	0.001384
8.240000E-8	0.001375
8.245000E-8	0.001494
8.250000E-8	0.001400
8.255000E-8	0.001638
8.260000E-8	0.001703
8.265000E-8	0.001913
8.270000E-8	0.002100
8.275000E-8	0.002297
8.280000E-8	0.002406
8.285000E-8	0.002625
8.290000E-8	0.002625
8.295000E-8	0.002722
8.300000E-8	0.002675
8.305000E-8	0.002647
8.310000E-8	0.002563
8.315000E-8	0.002572
8.320000E-8	0.002491
8.325000E-8	0.002450
8.330000E-8	0.002263
8.335000E-8	0.002269
8.340000E-8	0.002191
8.345000E-8	0.002159
8.350000E-8	0.002003
8.355000E-8	0.002012
8.360000E-8	0.001888
8.365000E-8	0.001894
8.370000E-8	0.001884
8.375000E-8	0.001894
8.380000E-8	0.001897
8.385000E-8	0.001966
8.390000E-8	0.001897
8.395000E-8	0.002031
8.400000E-8	0.002122
8.405000E-8	0.002247
8.410000E-8	0.002397
8.415000E-8	0.002594
8.420000E-8	0.002691
8.425000E-8	0.002734
8.430000E-8	0.002872
8.435000E-8	0.002963
8.440000E-8	0.002878
8.445000E-8	0.002859
8.450000E-8	0.002737
8.455000E-8	0.002672
8.460000E-8	0.002469
8.465000E-8	0.002191
8.470000E-8	0.002022
8.475000E-8	0.001813
8.480000E-8	0.001641
8.485000E-8	0.001591
8.490000E-8	0.001450
8.495000E-8	0.001541
8.500000E-8	0.001603
8.505000E-8	0.001600
8.510000E-8	0.001609
8.515000E-8	0.001775
8.520000E-8	0.001847
8.525000E-8	0.002059
8.530000E-8	0.002047
8.535000E-8	0.002191
8.540000E-8	0.002181
8.545000E-8	0.002363
8.550000E-8	0.002303
8.555000E-8	0.002331
8.560000E-8	0.002247
8.565000E-8	0.002375
8.570000E-8	0.002228
8.575000E-8	0.002219
8.580000E-8	0.002216
8.585000E-8	0.002222
8.590000E-8	0.002122
8.595000E-8	0.002116
8.600000E-8	0.002019
8.605000E-8	0.002034
8.610000E-8	0.001794
8.615000E-8	0.001694
8.620000E-8	0.001638
8.625000E-8	0.001584
8.630000E-8	0.001437
8.635000E-8	0.001431
8.640000E-8	0.001425
8.645000E-8	0.001522
8.650000E-8	0.001522
8.655000E-8	0.001759
8.660000E-8	0.001900
8.665000E-8	0.002084
8.670000E-8	0.002159
8.675000E-8	0.002334
8.680000E-8	0.002531
8.685000E-8	0.002681
8.690000E-8	0.002703
8.695000E-8	0.002800
8.700000E-8	0.002853
8.705000E-8	0.002713
8.710000E-8	0.002516
8.715000E-8	0.002472
8.720000E-8	0.002316
8.725000E-8	0.002244
8.730000E-8	0.002047
8.735000E-8	0.001878
8.740000E-8	0.001800
8.745000E-8	0.001847
8.750000E-8	0.001747
8.755000E-8	0.001844
8.760000E-8	0.001744
8.765000E-8	0.001763
8.770000E-8	0.001888
8.775000E-8	0.001884
8.780000E-8	0.001875
8.785000E-8	0.002000
8.790000E-8	0.001897
8.795000E-8	0.002006
8.800000E-8	0.002019
8.805000E-8	0.002138
8.810000E-8	0.002097
8.815000E-8	0.002138
8.820000E-8	0.002231
8.825000E-8	0.002303
8.830000E-8	0.002313
8.835000E-8	0.002316
8.840000E-8	0.002291
8.845000E-8	0.002166
8.850000E-8	0.002122
8.855000E-8	0.002059
8.860000E-8	0.001959
8.865000E-8	0.001803
8.870000E-8	0.001747
8.875000E-8	0.001691
8.880000E-8	0.001625
8.885000E-8	0.001572
8.890000E-8	0.001622
8.895000E-8	0.001828
8.900000E-8	0.001844
8.905000E-8	0.002078
8.910000E-8	0.002153
8.915000E-8	0.002450
8.920000E-8	0.002497
8.925000E-8	0.002672
8.930000E-8	0.002597
8.935000E-8	0.002587
8.940000E-8	0.002581
8.945000E-8	0.002384
8.950000E-8	0.002384
8.955000E-8	0.002384
8.960000E-8	0.002294
8.965000E-8	0.002388
8.970000E-8	0.002291
8.975000E-8	0.002278
8.980000E-8	0.002113
8.985000E-8	0.002081
8.990000E-8	0.001928
8.995000E-8	0.001788
9.000000E-8	0.001709
9.005000E-8	0.001584
9.010000E-8	0.001606
9.015000E-8	0.001631
9.020000E-8	0.001500
9.025000E-8	0.001641
9.030000E-8	0.001619
9.035000E-8	0.001756
9.040000E-8	0.001844
9.045000E-8	0.001916
9.050000E-8	0.001925
9.055000E-8	0.002147
9.060000E-8	0.002172
9.065000E-8	0.002372
9.070000E-8	0.002344
9.075000E-8	0.002512
9.080000E-8	0.002563
9.085000E-8	0.002662
9.090000E-8	0.002697
9.095000E-8	0.002697
9.100000E-8	0.002541
9.105000E-8	0.002556
9.110000E-8	0.002444
9.115000E-8	0.002350
9.120000E-8	0.002175
9.125000E-8	0.002094
9.130000E-8	0.001819
9.135000E-8	0.001816
9.140000E-8	0.001581
9.145000E-8	0.001572
9.150000E-8	0.001584
9.155000E-8	0.001694
9.160000E-8	0.001687
9.165000E-8	0.001766
9.170000E-8	0.001859
9.175000E-8	0.002103
9.180000E-8	0.002184
9.185000E-8	0.002281
9.190000E-8	0.002288
9.195000E-8	0.002384
9.200000E-8	0.002388
9.205000E-8	0.002437
9.210000E-8	0.002391
9.215000E-8	0.002447
9.220000E-8	0.002409
9.225000E-8	0.002447
9.230000E-8	0.002469
9.235000E-8	0.002444
9.240000E-8	0.002384
9.245000E-8	0.002397
9.250000E-8	0.002263
9.255000E-8	0.002275
9.260000E-8	0.002122
9.265000E-8	0.002000
9.270000E-8	0.001847
9.275000E-8	0.001834
9.280000E-8	0.001687
9.285000E-8	0.001747
9.290000E-8	0.001725
9.295000E-8	0.001741
9.300000E-8	0.001725
9.305000E-8	0.001906
9.310000E-8	0.001931
9.315000E-8	0.002006
9.320000E-8	0.002162
9.325000E-8	0.002325
9.330000E-8	0.002394
9.335000E-8	0.002484
9.340000E-8	0.002494
9.345000E-8	0.002563
9.350000E-8	0.002544
9.355000E-8	0.002584
9.360000E-8	0.002556
9.365000E-8	0.002578
9.370000E-8	0.002628
9.375000E-8	0.002569
9.380000E-8	0.002441
9.385000E-8	0.002334
9.390000E-8	0.002131
9.395000E-8	0.001950
9.400000E-8	0.001756
9.405000E-8	0.001703
9.410000E-8	0.001625
9.415000E-8	0.001566
9.420000E-8	0.001516
9.425000E-8	0.001616
9.430000E-8	0.001619
9.435000E-8	0.001713
9.440000E-8	0.001784
9.445000E-8	0.001931
9.450000E-8	0.002003
9.455000E-8	0.002119
9.460000E-8	0.002244
9.465000E-8	0.002294
9.470000E-8	0.002244
9.475000E-8	0.002344
9.480000E-8	0.002244
9.485000E-8	0.002225
9.490000E-8	0.002147
9.495000E-8	0.002109
9.500000E-8	0.002069
9.505000E-8	0.002019
9.510000E-8	0.001972
9.515000E-8	0.002078
9.520000E-8	0.001900
9.525000E-8	0.001963
9.530000E-8	0.001994
9.535000E-8	0.002116
9.540000E-8	0.002019
9.545000E-8	0.001994
9.550000E-8	0.002081
9.555000E-8	0.002141
9.560000E-8	0.001969
9.565000E-8	0.002097
9.570000E-8	0.002116
9.575000E-8	0.002153
9.580000E-8	0.002306
9.585000E-8	0.002309
9.590000E-8	0.002241
9.595000E-8	0.002278
9.600000E-8	0.002200
9.605000E-8	0.002247
9.610000E-8	0.002244
9.615000E-8	0.002288
9.620000E-8	0.002166
9.625000E-8	0.002225
9.630000E-8	0.002237
9.635000E-8	0.002253
9.640000E-8	0.002169
9.645000E-8	0.002172
9.650000E-8	0.002050
9.655000E-8	0.002022
9.660000E-8	0.001906
9.665000E-8	0.001900
9.670000E-8	0.001747
9.675000E-8	0.001784
9.680000E-8	0.001766
9.685000E-8	0.001853
9.690000E-8	0.001813
9.695000E-8	0.002025
9.700000E-8	0.001956
9.705000E-8	0.002012
9.710000E-8	0.002056
9.715000E-8	0.001975
9.720000E-8	0.002109
9.725000E-8	0.002181
9.730000E-8	0.002175
9.735000E-8	0.002222
9.740000E-8	0.002141
9.745000E-8	0.002050
9.750000E-8	0.002153
9.755000E-8	0.002169
9.760000E-8	0.001934
9.765000E-8	0.001809
9.770000E-8	0.001847
9.775000E-8	0.001772
9.780000E-8	0.001675
9.785000E-8	0.001841
9.790000E-8	0.001822
9.795000E-8	0.001941
9.800000E-8	0.002034
9.805000E-8	0.002053
9.810000E-8	0.002069
9.815000E-8	0.002138
9.820000E-8	0.002072
9.825000E-8	0.002063
9.830000E-8	0.002050
9.835000E-8	0.002056
9.840000E-8	0.002034
9.845000E-8	0.001928
9.850000E-8	0.002066
9.855000E-8	0.002025
9.860000E-8	0.002022
9.865000E-8	0.002191
9.870000E-8	0.002200
9.875000E-8	0.002334
9.880000E-8	0.002331
9.885000E-8	0.002319
9.890000E-8	0.002372
9.895000E-8	0.002384
9.900000E-8	0.002250
9.905000E-8	0.002156
9.910000E-8	0.002125
9.915000E-8	0.002178
9.920000E-8	0.001913
9.925000E-8	0.001978
9.930000E-8	0.001972
9.935000E-8	0.001963
9.940000E-8	0.001906
9.945000E-8	0.001969
9.950000E-8	0.002028
9.955000E-8	0.002069
9.960000E-8	0.002084
9.965000E-8	0.001988
9.970000E-8	0.001981
9.975000E-8	0.002050
9.980000E-8	0.001919
9.985000E-8	0.001903
9.990000E-8	0.002050
9.995000E-8	0.002069
