LabVIEW Measurement	
Writer_Version	2
Reader_Version	2
Separator	Tab
Decimal_Separator	.
Multi_Headings	No
X_Columns	Multi
Time_Pref	Relative
Operator	TG lab
Date	2015/03/06
Time	18:04:44.2210173606872558594
***End_of_Header***	
	
Channels	1	
Samples	2000	
Date	1903/12/31	
Time	19:00:00	
X_Dimension	Time	
X0	0.0000000000000000E+0	
Delta_X	5.000000E-11	
***End_of_Header***		
X_Value	Untitled	Comment
0.000000	0.002622
5.000000E-11	0.002759
1.000000E-10	0.002622
1.500000E-10	0.002559
2.000000E-10	0.002456
2.500000E-10	0.002531
3.000000E-10	0.002437
3.500000E-10	0.002559
4.000000E-10	0.002425
4.500000E-10	0.002472
5.000000E-10	0.002403
5.500000E-10	0.002469
6.000000E-10	0.002534
6.500000E-10	0.002622
7.000000E-10	0.002559
7.500000E-10	0.002719
8.000000E-10	0.002644
8.500000E-10	0.002700
9.000000E-10	0.002584
9.500000E-10	0.002584
1.000000E-9	0.002431
1.050000E-9	0.002428
1.100000E-9	0.002200
1.150000E-9	0.002297
1.200000E-9	0.002072
1.250000E-9	0.002025
1.300000E-9	0.001881
1.350000E-9	0.001847
1.400000E-9	0.001928
1.450000E-9	0.002003
1.500000E-9	0.001947
1.550000E-9	0.002053
1.600000E-9	0.002019
1.650000E-9	0.002128
1.700000E-9	0.002128
1.750000E-9	0.002006
1.800000E-9	0.001937
1.850000E-9	0.001841
1.900000E-9	0.001806
1.950000E-9	0.001672
2.000000E-9	0.001597
2.050000E-9	0.001772
2.100000E-9	0.001734
2.150000E-9	0.001897
2.200000E-9	0.001866
2.250000E-9	0.001944
2.300000E-9	0.002044
2.350000E-9	0.002125
2.400000E-9	0.002150
2.450000E-9	0.002213
2.500000E-9	0.002266
2.550000E-9	0.002275
2.600000E-9	0.002022
2.650000E-9	0.001991
2.700000E-9	0.002012
2.750000E-9	0.001978
2.800000E-9	0.001806
2.850000E-9	0.001875
2.900000E-9	0.001875
2.950000E-9	0.001772
3.000000E-9	0.001744
3.050000E-9	0.001769
3.100000E-9	0.001794
3.150000E-9	0.001884
3.200000E-9	0.001853
3.250000E-9	0.001866
3.300000E-9	0.001772
3.350000E-9	0.001800
3.400000E-9	0.001653
3.450000E-9	0.001484
3.500000E-9	0.001422
3.550000E-9	0.001400
3.600000E-9	0.001281
3.650000E-9	0.001259
3.700000E-9	0.001288
3.750000E-9	0.001331
3.800000E-9	0.001306
3.850000E-9	0.001397
3.900000E-9	0.001419
3.950000E-9	0.001469
4.000000E-9	0.001481
4.050000E-9	0.001491
4.100000E-9	0.001388
4.150000E-9	0.001466
4.200000E-9	0.001466
4.250000E-9	0.001528
4.300000E-9	0.001600
4.350000E-9	0.001666
4.400000E-9	0.001906
4.450000E-9	0.002106
4.500000E-9	0.002328
4.550000E-9	0.002444
4.600000E-9	0.002600
4.650000E-9	0.002625
4.700000E-9	0.002475
4.750000E-9	0.001934
4.800000E-9	0.000944
4.850000E-9	-0.000541
4.900000E-9	-0.002506
4.950000E-9	-0.004928
5.000000E-9	-0.007888
5.050000E-9	-0.011300
5.100000E-9	-0.015022
5.150000E-9	-0.018816
5.200000E-9	-0.022809
5.250000E-9	-0.026578
5.300000E-9	-0.030125
5.350000E-9	-0.033209
5.400000E-9	-0.035947
5.450000E-9	-0.038178
5.500000E-9	-0.039997
5.550000E-9	-0.041063
5.600000E-9	-0.041978
5.650000E-9	-0.042122
5.700000E-9	-0.041988
5.750000E-9	-0.041209
5.800000E-9	-0.040188
5.850000E-9	-0.038606
5.900000E-9	-0.036775
5.950000E-9	-0.034481
6.000000E-9	-0.032172
6.050000E-9	-0.029681
6.100000E-9	-0.027628
6.150000E-9	-0.025481
6.200000E-9	-0.023797
6.250000E-9	-0.022622
6.300000E-9	-0.021781
6.350000E-9	-0.021469
6.400000E-9	-0.021581
6.450000E-9	-0.021928
6.500000E-9	-0.022772
6.550000E-9	-0.023678
6.600000E-9	-0.024753
6.650000E-9	-0.025609
6.700000E-9	-0.026556
6.750000E-9	-0.027259
6.800000E-9	-0.027744
6.850000E-9	-0.028134
6.900000E-9	-0.028309
6.950000E-9	-0.028053
7.000000E-9	-0.027744
7.050000E-9	-0.027044
7.100000E-9	-0.026013
7.150000E-9	-0.024688
7.200000E-9	-0.023263
7.250000E-9	-0.021541
7.300000E-9	-0.019828
7.350000E-9	-0.018066
7.400000E-9	-0.016303
7.450000E-9	-0.014788
7.500000E-9	-0.013706
7.550000E-9	-0.012703
7.600000E-9	-0.012075
7.650000E-9	-0.011800
7.700000E-9	-0.011888
7.750000E-9	-0.012125
7.800000E-9	-0.012700
7.850000E-9	-0.013353
7.900000E-9	-0.014209
7.950000E-9	-0.014984
8.000000E-9	-0.015875
8.050000E-9	-0.016541
8.100000E-9	-0.017231
8.150000E-9	-0.017597
8.200000E-9	-0.017922
8.250000E-9	-0.017806
8.300000E-9	-0.017525
8.350000E-9	-0.016975
8.400000E-9	-0.016150
8.450000E-9	-0.015106
8.500000E-9	-0.013966
8.550000E-9	-0.012638
8.600000E-9	-0.011409
8.650000E-9	-0.010156
8.700000E-9	-0.008956
8.750000E-9	-0.007834
8.800000E-9	-0.006919
8.850000E-9	-0.006103
8.900000E-9	-0.005484
8.950000E-9	-0.005163
9.000000E-9	-0.005225
9.050000E-9	-0.005444
9.100000E-9	-0.005938
9.150000E-9	-0.006588
9.200000E-9	-0.007628
9.250000E-9	-0.008472
9.300000E-9	-0.009534
9.350000E-9	-0.010313
9.400000E-9	-0.011269
9.450000E-9	-0.011813
9.500000E-9	-0.012353
9.550000E-9	-0.012538
9.600000E-9	-0.012572
9.650000E-9	-0.012356
9.700000E-9	-0.012066
9.750000E-9	-0.011341
9.800000E-9	-0.010584
9.850000E-9	-0.009550
9.900000E-9	-0.008428
9.950000E-9	-0.007213
1.000000E-8	-0.006131
1.005000E-8	-0.004981
1.010000E-8	-0.003972
1.015000E-8	-0.003216
1.020000E-8	-0.002763
1.025000E-8	-0.002309
1.030000E-8	-0.002169
1.035000E-8	-0.002078
1.040000E-8	-0.002459
1.045000E-8	-0.002900
1.050000E-8	-0.003441
1.055000E-8	-0.004025
1.060000E-8	-0.004819
1.065000E-8	-0.005697
1.070000E-8	-0.006434
1.075000E-8	-0.007050
1.080000E-8	-0.007716
1.085000E-8	-0.008144
1.090000E-8	-0.008378
1.095000E-8	-0.008422
1.100000E-8	-0.008169
1.105000E-8	-0.007697
1.110000E-8	-0.007241
1.115000E-8	-0.006325
1.120000E-8	-0.005506
1.125000E-8	-0.004472
1.130000E-8	-0.003497
1.135000E-8	-0.002503
1.140000E-8	-0.001563
1.145000E-8	-0.000756
1.150000E-8	-0.000119
1.155000E-8	0.000291
1.160000E-8	0.000463
1.165000E-8	0.000428
1.170000E-8	0.000228
1.175000E-8	-4.375000E-5
1.180000E-8	-0.000691
1.185000E-8	-0.001322
1.190000E-8	-0.002044
1.195000E-8	-0.002947
1.200000E-8	-0.003859
1.205000E-8	-0.004588
1.210000E-8	-0.005416
1.215000E-8	-0.005981
1.220000E-8	-0.006400
1.225000E-8	-0.006497
1.230000E-8	-0.006584
1.235000E-8	-0.006344
1.240000E-8	-0.005909
1.245000E-8	-0.005159
1.250000E-8	-0.004450
1.255000E-8	-0.003553
1.260000E-8	-0.002619
1.265000E-8	-0.001494
1.270000E-8	-0.000563
1.275000E-8	0.000403
1.280000E-8	0.001112
1.285000E-8	0.001903
1.290000E-8	0.002181
1.295000E-8	0.002413
1.300000E-8	0.002225
1.305000E-8	0.002109
1.310000E-8	0.001612
1.315000E-8	0.000969
1.320000E-8	5.937500E-5
1.325000E-8	-0.000794
1.330000E-8	-0.001806
1.335000E-8	-0.002641
1.340000E-8	-0.003478
1.345000E-8	-0.004156
1.350000E-8	-0.004781
1.355000E-8	-0.005078
1.360000E-8	-0.005319
1.365000E-8	-0.005013
1.370000E-8	-0.004628
1.375000E-8	-0.004081
1.380000E-8	-0.003313
1.385000E-8	-0.002347
1.390000E-8	-0.001388
1.395000E-8	-0.000319
1.400000E-8	0.000781
1.405000E-8	0.001791
1.410000E-8	0.002728
1.415000E-8	0.003506
1.420000E-8	0.003853
1.425000E-8	0.004128
1.430000E-8	0.004188
1.435000E-8	0.004056
1.440000E-8	0.003497
1.445000E-8	0.002784
1.450000E-8	0.001884
1.455000E-8	0.000809
1.460000E-8	-0.000388
1.465000E-8	-0.001441
1.470000E-8	-0.002541
1.475000E-8	-0.003394
1.480000E-8	-0.004094
1.485000E-8	-0.004547
1.490000E-8	-0.004716
1.495000E-8	-0.004525
1.500000E-8	-0.004159
1.505000E-8	-0.003534
1.510000E-8	-0.002756
1.515000E-8	-0.001656
1.520000E-8	-0.000556
1.525000E-8	0.000578
1.530000E-8	0.001700
1.535000E-8	0.002769
1.540000E-8	0.003525
1.545000E-8	0.004309
1.550000E-8	0.004687
1.555000E-8	0.004903
1.560000E-8	0.004806
1.565000E-8	0.004631
1.570000E-8	0.004050
1.575000E-8	0.003338
1.580000E-8	0.002466
1.585000E-8	0.001428
1.590000E-8	0.000328
1.595000E-8	-0.000684
1.600000E-8	-0.001706
1.605000E-8	-0.002597
1.610000E-8	-0.003228
1.615000E-8	-0.003684
1.620000E-8	-0.003781
1.625000E-8	-0.003556
1.630000E-8	-0.003284
1.635000E-8	-0.002553
1.640000E-8	-0.001666
1.645000E-8	-0.000622
1.650000E-8	0.000412
1.655000E-8	0.001775
1.660000E-8	0.002891
1.665000E-8	0.004056
1.670000E-8	0.004853
1.675000E-8	0.005619
1.680000E-8	0.006013
1.685000E-8	0.006253
1.690000E-8	0.005944
1.695000E-8	0.005672
1.700000E-8	0.005063
1.705000E-8	0.004219
1.710000E-8	0.003228
1.715000E-8	0.002309
1.720000E-8	0.001175
1.725000E-8	0.000156
1.730000E-8	-0.000834
1.735000E-8	-0.001684
1.740000E-8	-0.002303
1.745000E-8	-0.002741
1.750000E-8	-0.002950
1.755000E-8	-0.002803
1.760000E-8	-0.002572
1.765000E-8	-0.002044
1.770000E-8	-0.001300
1.775000E-8	-0.000431
1.780000E-8	0.000653
1.785000E-8	0.001603
1.790000E-8	0.002566
1.795000E-8	0.003600
1.800000E-8	0.004394
1.805000E-8	0.005150
1.810000E-8	0.005419
1.815000E-8	0.005575
1.820000E-8	0.005387
1.825000E-8	0.005106
1.830000E-8	0.004469
1.835000E-8	0.003744
1.840000E-8	0.002928
1.845000E-8	0.002072
1.850000E-8	0.001000
1.855000E-8	8.750000E-5
1.860000E-8	-0.000850
1.865000E-8	-0.001409
1.870000E-8	-0.002000
1.875000E-8	-0.002266
1.880000E-8	-0.002400
1.885000E-8	-0.002216
1.890000E-8	-0.001922
1.895000E-8	-0.001481
1.900000E-8	-0.000841
1.905000E-8	-3.125000E-6
1.910000E-8	0.000825
1.915000E-8	0.001772
1.920000E-8	0.002741
1.925000E-8	0.003750
1.930000E-8	0.004578
1.935000E-8	0.005256
1.940000E-8	0.005728
1.945000E-8	0.006066
1.950000E-8	0.006153
1.955000E-8	0.005969
1.960000E-8	0.005491
1.965000E-8	0.004856
1.970000E-8	0.003994
1.975000E-8	0.003216
1.980000E-8	0.002131
1.985000E-8	0.001284
1.990000E-8	0.000291
1.995000E-8	-0.000484
2.000000E-8	-0.001038
2.005000E-8	-0.001444
2.010000E-8	-0.001591
2.015000E-8	-0.001522
2.020000E-8	-0.001313
2.025000E-8	-0.000963
2.030000E-8	-0.000303
2.035000E-8	0.000347
2.040000E-8	0.001063
2.045000E-8	0.001950
2.050000E-8	0.002656
2.055000E-8	0.003475
2.060000E-8	0.004075
2.065000E-8	0.004666
2.070000E-8	0.004959
2.075000E-8	0.005172
2.080000E-8	0.005175
2.085000E-8	0.005191
2.090000E-8	0.004941
2.095000E-8	0.004391
2.100000E-8	0.003772
2.105000E-8	0.003153
2.110000E-8	0.002328
2.115000E-8	0.001612
2.120000E-8	0.000766
2.125000E-8	0.000100
2.130000E-8	-0.000675
2.135000E-8	-0.001028
2.140000E-8	-0.001238
2.145000E-8	-0.001362
2.150000E-8	-0.001400
2.155000E-8	-0.000953
2.160000E-8	-0.000537
2.165000E-8	7.500000E-5
2.170000E-8	0.000834
2.175000E-8	0.001609
2.180000E-8	0.002428
2.185000E-8	0.003306
2.190000E-8	0.004019
2.195000E-8	0.004766
2.200000E-8	0.005294
2.205000E-8	0.005653
2.210000E-8	0.005903
2.215000E-8	0.005997
2.220000E-8	0.005734
2.225000E-8	0.005466
2.230000E-8	0.004806
2.235000E-8	0.004191
2.240000E-8	0.003391
2.245000E-8	0.002503
2.250000E-8	0.001538
2.255000E-8	0.000834
2.260000E-8	-5.000000E-5
2.265000E-8	-0.000506
2.270000E-8	-0.001075
2.275000E-8	-0.001334
2.280000E-8	-0.001375
2.285000E-8	-0.001081
2.290000E-8	-0.000684
2.295000E-8	-0.000169
2.300000E-8	0.000284
2.305000E-8	0.001106
2.310000E-8	0.002003
2.315000E-8	0.002847
2.320000E-8	0.003638
2.325000E-8	0.004316
2.330000E-8	0.004822
2.335000E-8	0.005347
2.340000E-8	0.005509
2.345000E-8	0.005684
2.350000E-8	0.005531
2.355000E-8	0.005344
2.360000E-8	0.004700
2.365000E-8	0.004066
2.370000E-8	0.003334
2.375000E-8	0.002609
2.380000E-8	0.001894
2.385000E-8	0.001078
2.390000E-8	0.000278
2.395000E-8	-0.000241
2.400000E-8	-0.000681
2.405000E-8	-0.001009
2.410000E-8	-0.001012
2.415000E-8	-0.000809
2.420000E-8	-0.000438
2.425000E-8	0.000150
2.430000E-8	0.000903
2.435000E-8	0.001772
2.440000E-8	0.002494
2.445000E-8	0.003325
2.450000E-8	0.003988
2.455000E-8	0.004681
2.460000E-8	0.005181
2.465000E-8	0.005719
2.470000E-8	0.005869
2.475000E-8	0.005897
2.480000E-8	0.005641
2.485000E-8	0.005413
2.490000E-8	0.004881
2.495000E-8	0.004441
2.500000E-8	0.003659
2.505000E-8	0.003003
2.510000E-8	0.002209
2.515000E-8	0.001444
2.520000E-8	0.000594
2.525000E-8	-5.625000E-5
2.530000E-8	-0.000494
2.535000E-8	-0.000831
2.540000E-8	-0.001128
2.545000E-8	-0.001050
2.550000E-8	-0.000616
2.555000E-8	3.125000E-6
2.560000E-8	0.000469
2.565000E-8	0.001291
2.570000E-8	0.002116
2.575000E-8	0.002969
2.580000E-8	0.003775
2.585000E-8	0.004431
2.590000E-8	0.004984
2.595000E-8	0.005481
2.600000E-8	0.005734
2.605000E-8	0.005844
2.610000E-8	0.005681
2.615000E-8	0.005247
2.620000E-8	0.004625
2.625000E-8	0.004044
2.630000E-8	0.003278
2.635000E-8	0.002559
2.640000E-8	0.001547
2.645000E-8	0.000763
2.650000E-8	7.500000E-5
2.655000E-8	-0.000369
2.660000E-8	-0.000828
2.665000E-8	-0.001025
2.670000E-8	-0.001091
2.675000E-8	-0.000841
2.680000E-8	-0.000659
2.685000E-8	-9.687500E-5
2.690000E-8	0.000547
2.695000E-8	0.001362
2.700000E-8	0.002225
2.705000E-8	0.003194
2.710000E-8	0.003962
2.715000E-8	0.004825
2.720000E-8	0.005456
2.725000E-8	0.006081
2.730000E-8	0.006328
2.735000E-8	0.006497
2.740000E-8	0.006234
2.745000E-8	0.005928
2.750000E-8	0.005381
2.755000E-8	0.004653
2.760000E-8	0.003772
2.765000E-8	0.002875
2.770000E-8	0.002063
2.775000E-8	0.001219
2.780000E-8	0.000528
2.785000E-8	7.500000E-5
2.790000E-8	-0.000397
2.795000E-8	-0.000525
2.800000E-8	-0.000663
2.805000E-8	-0.000397
2.810000E-8	-0.000144
2.815000E-8	0.000378
2.820000E-8	0.000925
2.825000E-8	0.001713
2.830000E-8	0.002453
2.835000E-8	0.003259
2.840000E-8	0.004044
2.845000E-8	0.004753
2.850000E-8	0.005297
2.855000E-8	0.005744
2.860000E-8	0.005994
2.865000E-8	0.006112
2.870000E-8	0.005975
2.875000E-8	0.005691
2.880000E-8	0.005219
2.885000E-8	0.004734
2.890000E-8	0.004075
2.895000E-8	0.003256
2.900000E-8	0.002459
2.905000E-8	0.001788
2.910000E-8	0.001088
2.915000E-8	0.000600
2.920000E-8	5.937500E-5
2.925000E-8	-0.000194
2.930000E-8	-0.000341
2.935000E-8	-0.000313
2.940000E-8	2.187500E-5
2.945000E-8	0.000409
2.950000E-8	0.000866
2.955000E-8	0.001528
2.960000E-8	0.002178
2.965000E-8	0.002934
2.970000E-8	0.003453
2.975000E-8	0.004147
2.980000E-8	0.004687
2.985000E-8	0.005197
2.990000E-8	0.005447
2.995000E-8	0.005519
3.000000E-8	0.005303
3.005000E-8	0.005178
3.010000E-8	0.004800
3.015000E-8	0.004303
3.020000E-8	0.003575
3.025000E-8	0.002888
3.030000E-8	0.002197
3.035000E-8	0.001444
3.040000E-8	0.000772
3.045000E-8	0.000322
3.050000E-8	-7.500000E-5
3.055000E-8	-0.000313
3.060000E-8	-0.000394
3.065000E-8	-0.000231
3.070000E-8	-0.000156
3.075000E-8	0.000319
3.080000E-8	0.000888
3.085000E-8	0.001381
3.090000E-8	0.001994
3.095000E-8	0.002731
3.100000E-8	0.003297
3.105000E-8	0.003909
3.110000E-8	0.004334
3.115000E-8	0.004863
3.120000E-8	0.005016
3.125000E-8	0.005250
3.130000E-8	0.005263
3.135000E-8	0.005091
3.140000E-8	0.004856
3.145000E-8	0.004459
3.150000E-8	0.003894
3.155000E-8	0.003313
3.160000E-8	0.002625
3.165000E-8	0.002056
3.170000E-8	0.001531
3.175000E-8	0.001066
3.180000E-8	0.000491
3.185000E-8	0.000253
3.190000E-8	-5.937500E-5
3.195000E-8	3.750000E-5
3.200000E-8	-4.375000E-5
3.205000E-8	0.000322
3.210000E-8	0.000575
3.215000E-8	0.001012
3.220000E-8	0.001594
3.225000E-8	0.002291
3.230000E-8	0.002919
3.235000E-8	0.003628
3.240000E-8	0.004059
3.245000E-8	0.004747
3.250000E-8	0.005094
3.255000E-8	0.005344
3.260000E-8	0.005409
3.265000E-8	0.005456
3.270000E-8	0.005191
3.275000E-8	0.004825
3.280000E-8	0.004281
3.285000E-8	0.003750
3.290000E-8	0.003097
3.295000E-8	0.002434
3.300000E-8	0.001778
3.305000E-8	0.001281
3.310000E-8	0.000772
3.315000E-8	0.000472
3.320000E-8	0.000172
3.325000E-8	5.000000E-5
3.330000E-8	0.000150
3.335000E-8	0.000388
3.340000E-8	0.000669
3.345000E-8	0.001156
3.350000E-8	0.001622
3.355000E-8	0.002150
3.360000E-8	0.002700
3.365000E-8	0.003456
3.370000E-8	0.003900
3.375000E-8	0.004341
3.380000E-8	0.004616
3.385000E-8	0.005013
3.390000E-8	0.005003
3.395000E-8	0.005028
3.400000E-8	0.004828
3.405000E-8	0.004575
3.410000E-8	0.004228
3.415000E-8	0.003734
3.420000E-8	0.003188
3.425000E-8	0.002706
3.430000E-8	0.002119
3.435000E-8	0.001566
3.440000E-8	0.001044
3.445000E-8	0.000650
3.450000E-8	0.000259
3.455000E-8	0.000100
3.460000E-8	5.937500E-5
3.465000E-8	0.000159
3.470000E-8	0.000316
3.475000E-8	0.000734
3.480000E-8	0.001091
3.485000E-8	0.001669
3.490000E-8	0.002266
3.495000E-8	0.002922
3.500000E-8	0.003506
3.505000E-8	0.004106
3.510000E-8	0.004466
3.515000E-8	0.004934
3.520000E-8	0.005144
3.525000E-8	0.005159
3.530000E-8	0.005022
3.535000E-8	0.004784
3.540000E-8	0.004281
3.545000E-8	0.003897
3.550000E-8	0.003147
3.555000E-8	0.002534
3.560000E-8	0.001941
3.565000E-8	0.001247
3.570000E-8	0.000716
3.575000E-8	0.000412
3.580000E-8	2.187500E-5
3.585000E-8	-6.875000E-5
3.590000E-8	7.500000E-5
3.595000E-8	0.000219
3.600000E-8	0.000506
3.605000E-8	0.001094
3.610000E-8	0.001616
3.615000E-8	0.002197
3.620000E-8	0.002775
3.625000E-8	0.003394
3.630000E-8	0.004006
3.635000E-8	0.004556
3.640000E-8	0.004916
3.645000E-8	0.005188
3.650000E-8	0.005288
3.655000E-8	0.005328
3.660000E-8	0.005119
3.665000E-8	0.004844
3.670000E-8	0.004350
3.675000E-8	0.003847
3.680000E-8	0.003181
3.685000E-8	0.002594
3.690000E-8	0.001997
3.695000E-8	0.001534
3.700000E-8	0.000925
3.705000E-8	0.000519
3.710000E-8	0.000216
3.715000E-8	0.000138
3.720000E-8	9.687500E-5
3.725000E-8	0.000334
3.730000E-8	0.000581
3.735000E-8	0.000956
3.740000E-8	0.001422
3.745000E-8	0.002125
3.750000E-8	0.002594
3.755000E-8	0.003278
3.760000E-8	0.003728
3.765000E-8	0.004341
3.770000E-8	0.004619
3.775000E-8	0.004897
3.780000E-8	0.005022
3.785000E-8	0.005156
3.790000E-8	0.005019
3.795000E-8	0.004800
3.800000E-8	0.004472
3.805000E-8	0.004019
3.810000E-8	0.003563
3.815000E-8	0.003025
3.820000E-8	0.002403
3.825000E-8	0.001800
3.830000E-8	0.001350
3.835000E-8	0.001044
3.840000E-8	0.000625
3.845000E-8	0.000388
3.850000E-8	0.000375
3.855000E-8	0.000500
3.860000E-8	0.000797
3.865000E-8	0.001022
3.870000E-8	0.001344
3.875000E-8	0.001891
3.880000E-8	0.002259
3.885000E-8	0.002828
3.890000E-8	0.003294
3.895000E-8	0.003825
3.900000E-8	0.004172
3.905000E-8	0.004591
3.910000E-8	0.004716
3.915000E-8	0.004903
3.920000E-8	0.004819
3.925000E-8	0.004753
3.930000E-8	0.004444
3.935000E-8	0.004147
3.940000E-8	0.003678
3.945000E-8	0.003153
3.950000E-8	0.002613
3.955000E-8	0.002113
3.960000E-8	0.001697
3.965000E-8	0.001397
3.970000E-8	0.001022
3.975000E-8	0.000913
3.980000E-8	0.000822
3.985000E-8	0.000878
3.990000E-8	0.000950
3.995000E-8	0.001241
4.000000E-8	0.001478
4.005000E-8	0.002038
4.010000E-8	0.002372
4.015000E-8	0.002859
4.020000E-8	0.003178
4.025000E-8	0.003606
4.030000E-8	0.004112
4.035000E-8	0.004369
4.040000E-8	0.004447
4.045000E-8	0.004613
4.050000E-8	0.004644
4.055000E-8	0.004500
4.060000E-8	0.004247
4.065000E-8	0.003969
4.070000E-8	0.003422
4.075000E-8	0.002991
4.080000E-8	0.002422
4.085000E-8	0.002116
4.090000E-8	0.001681
4.095000E-8	0.001322
4.100000E-8	0.001056
4.105000E-8	0.000900
4.110000E-8	0.000822
4.115000E-8	0.001053
4.120000E-8	0.001203
4.125000E-8	0.001469
4.130000E-8	0.001722
4.135000E-8	0.002141
4.140000E-8	0.002650
4.145000E-8	0.003128
4.150000E-8	0.003422
4.155000E-8	0.003819
4.160000E-8	0.004144
4.165000E-8	0.004475
4.170000E-8	0.004687
4.175000E-8	0.004809
4.180000E-8	0.004728
4.185000E-8	0.004638
4.190000E-8	0.004391
4.195000E-8	0.004103
4.200000E-8	0.003569
4.205000E-8	0.003184
4.210000E-8	0.002656
4.215000E-8	0.002259
4.220000E-8	0.001734
4.225000E-8	0.001359
4.230000E-8	0.001100
4.235000E-8	0.000791
4.240000E-8	0.000681
4.245000E-8	0.000678
4.250000E-8	0.000716
4.255000E-8	0.000978
4.260000E-8	0.001259
4.265000E-8	0.001713
4.270000E-8	0.002184
4.275000E-8	0.002597
4.280000E-8	0.003116
4.285000E-8	0.003569
4.290000E-8	0.003894
4.295000E-8	0.004259
4.300000E-8	0.004394
4.305000E-8	0.004456
4.310000E-8	0.004447
4.315000E-8	0.004413
4.320000E-8	0.004044
4.325000E-8	0.003941
4.330000E-8	0.003609
4.335000E-8	0.003184
4.340000E-8	0.002650
4.345000E-8	0.002313
4.350000E-8	0.001900
4.355000E-8	0.001581
4.360000E-8	0.001231
4.365000E-8	0.001088
4.370000E-8	0.000888
4.375000E-8	0.000753
4.380000E-8	0.000831
4.385000E-8	0.001063
4.390000E-8	0.001269
4.395000E-8	0.001656
4.400000E-8	0.002022
4.405000E-8	0.002478
4.410000E-8	0.002875
4.415000E-8	0.003416
4.420000E-8	0.003894
4.425000E-8	0.004284
4.430000E-8	0.004416
4.435000E-8	0.004469
4.440000E-8	0.004481
4.445000E-8	0.004681
4.450000E-8	0.004416
4.455000E-8	0.004306
4.460000E-8	0.003931
4.465000E-8	0.003509
4.470000E-8	0.002966
4.475000E-8	0.002516
4.480000E-8	0.001975
4.485000E-8	0.001600
4.490000E-8	0.001197
4.495000E-8	0.000978
4.500000E-8	0.000834
4.505000E-8	0.000741
4.510000E-8	0.000803
4.515000E-8	0.001053
4.520000E-8	0.001284
4.525000E-8	0.001641
4.530000E-8	0.002022
4.535000E-8	0.002491
4.540000E-8	0.002891
4.545000E-8	0.003497
4.550000E-8	0.003841
4.555000E-8	0.004103
4.560000E-8	0.004338
4.565000E-8	0.004537
4.570000E-8	0.004609
4.575000E-8	0.004591
4.580000E-8	0.004363
4.585000E-8	0.004131
4.590000E-8	0.003894
4.595000E-8	0.003497
4.600000E-8	0.003075
4.605000E-8	0.002578
4.610000E-8	0.002006
4.615000E-8	0.001725
4.620000E-8	0.001281
4.625000E-8	0.001072
4.630000E-8	0.000884
4.635000E-8	0.000919
4.640000E-8	0.000825
4.645000E-8	0.001009
4.650000E-8	0.001231
4.655000E-8	0.001663
4.660000E-8	0.002050
4.665000E-8	0.002444
4.670000E-8	0.002803
4.675000E-8	0.003234
4.680000E-8	0.003559
4.685000E-8	0.003894
4.690000E-8	0.004169
4.695000E-8	0.004331
4.700000E-8	0.004394
4.705000E-8	0.004241
4.710000E-8	0.004097
4.715000E-8	0.004013
4.720000E-8	0.003625
4.725000E-8	0.003256
4.730000E-8	0.002781
4.735000E-8	0.002453
4.740000E-8	0.001919
4.745000E-8	0.001588
4.750000E-8	0.001194
4.755000E-8	0.001000
4.760000E-8	0.000756
4.765000E-8	0.000716
4.770000E-8	0.000647
4.775000E-8	0.000853
4.780000E-8	0.001069
4.785000E-8	0.001488
4.790000E-8	0.001828
4.795000E-8	0.002231
4.800000E-8	0.002719
4.805000E-8	0.003113
4.810000E-8	0.003484
4.815000E-8	0.003725
4.820000E-8	0.003947
4.825000E-8	0.004188
4.830000E-8	0.004247
4.835000E-8	0.004169
4.840000E-8	0.004025
4.845000E-8	0.003850
4.850000E-8	0.003503
4.855000E-8	0.003256
4.860000E-8	0.002778
4.865000E-8	0.002506
4.870000E-8	0.002231
4.875000E-8	0.001959
4.880000E-8	0.001600
4.885000E-8	0.001334
4.890000E-8	0.001116
4.895000E-8	0.001075
4.900000E-8	0.001097
4.905000E-8	0.001250
4.910000E-8	0.001447
4.915000E-8	0.001656
4.920000E-8	0.002000
4.925000E-8	0.002284
4.930000E-8	0.002691
4.935000E-8	0.003059
4.940000E-8	0.003291
4.945000E-8	0.003684
4.950000E-8	0.003878
4.955000E-8	0.003956
4.960000E-8	0.003994
4.965000E-8	0.004022
4.970000E-8	0.003950
4.975000E-8	0.003859
4.980000E-8	0.003622
4.985000E-8	0.003419
4.990000E-8	0.003197
4.995000E-8	0.002756
5.000000E-8	0.002372
5.005000E-8	0.002131
5.010000E-8	0.001906
5.015000E-8	0.001644
5.020000E-8	0.001447
5.025000E-8	0.001391
5.030000E-8	0.001391
5.035000E-8	0.001525
5.040000E-8	0.001603
5.045000E-8	0.001803
5.050000E-8	0.002141
5.055000E-8	0.002363
5.060000E-8	0.002609
5.065000E-8	0.002941
5.070000E-8	0.003266
5.075000E-8	0.003606
5.080000E-8	0.003713
5.085000E-8	0.003859
5.090000E-8	0.003884
5.095000E-8	0.003991
5.100000E-8	0.003906
5.105000E-8	0.003734
5.110000E-8	0.003475
5.115000E-8	0.003209
5.120000E-8	0.002769
5.125000E-8	0.002534
5.130000E-8	0.002197
5.135000E-8	0.001888
5.140000E-8	0.001597
5.145000E-8	0.001450
5.150000E-8	0.001256
5.155000E-8	0.001481
5.160000E-8	0.001400
5.165000E-8	0.001547
5.170000E-8	0.001681
5.175000E-8	0.001950
5.180000E-8	0.002109
5.185000E-8	0.002369
5.190000E-8	0.002444
5.195000E-8	0.002819
5.200000E-8	0.003044
5.205000E-8	0.003272
5.210000E-8	0.003428
5.215000E-8	0.003700
5.220000E-8	0.003834
5.225000E-8	0.003947
5.230000E-8	0.003956
5.235000E-8	0.004038
5.240000E-8	0.003809
5.245000E-8	0.003659
5.250000E-8	0.003384
5.255000E-8	0.003022
5.260000E-8	0.002722
5.265000E-8	0.002381
5.270000E-8	0.001947
5.275000E-8	0.001678
5.280000E-8	0.001503
5.285000E-8	0.001309
5.290000E-8	0.001141
5.295000E-8	0.001241
5.300000E-8	0.001288
5.305000E-8	0.001569
5.310000E-8	0.001744
5.315000E-8	0.002150
5.320000E-8	0.002231
5.325000E-8	0.002697
5.330000E-8	0.003044
5.335000E-8	0.003438
5.340000E-8	0.003553
5.345000E-8	0.004019
5.350000E-8	0.004006
5.355000E-8	0.004209
5.360000E-8	0.004084
5.365000E-8	0.004128
5.370000E-8	0.003891
5.375000E-8	0.003622
5.380000E-8	0.003181
5.385000E-8	0.002844
5.390000E-8	0.002481
5.395000E-8	0.002162
5.400000E-8	0.001753
5.405000E-8	0.001400
5.410000E-8	0.001097
5.415000E-8	0.000931
5.420000E-8	0.000894
5.425000E-8	0.000959
5.430000E-8	0.001059
5.435000E-8	0.001294
5.440000E-8	0.001434
5.445000E-8	0.001831
5.450000E-8	0.002113
5.455000E-8	0.002556
5.460000E-8	0.002869
5.465000E-8	0.003244
5.470000E-8	0.003438
5.475000E-8	0.003700
5.480000E-8	0.003794
5.485000E-8	0.003831
5.490000E-8	0.003778
5.495000E-8	0.003744
5.500000E-8	0.003594
5.505000E-8	0.003341
5.510000E-8	0.003122
5.515000E-8	0.003016
5.520000E-8	0.002788
5.525000E-8	0.002619
5.530000E-8	0.002400
5.535000E-8	0.002106
5.540000E-8	0.001937
5.545000E-8	0.001838
5.550000E-8	0.001703
5.555000E-8	0.001728
5.560000E-8	0.001700
5.565000E-8	0.001784
5.570000E-8	0.001888
5.575000E-8	0.002094
5.580000E-8	0.002288
5.585000E-8	0.002541
5.590000E-8	0.002922
5.595000E-8	0.003134
5.600000E-8	0.003219
5.605000E-8	0.003506
5.610000E-8	0.003688
5.615000E-8	0.003750
5.620000E-8	0.003666
5.625000E-8	0.003631
5.630000E-8	0.003491
5.635000E-8	0.003391
5.640000E-8	0.003128
5.645000E-8	0.002956
5.650000E-8	0.002694
5.655000E-8	0.002512
5.660000E-8	0.002216
5.665000E-8	0.001916
5.670000E-8	0.001706
5.675000E-8	0.001550
5.680000E-8	0.001459
5.685000E-8	0.001362
5.690000E-8	0.001369
5.695000E-8	0.001456
5.700000E-8	0.001684
5.705000E-8	0.002009
5.710000E-8	0.002216
5.715000E-8	0.002525
5.720000E-8	0.002688
5.725000E-8	0.003034
5.730000E-8	0.003259
5.735000E-8	0.003478
5.740000E-8	0.003663
5.745000E-8	0.003791
5.750000E-8	0.003731
5.755000E-8	0.003663
5.760000E-8	0.003569
5.765000E-8	0.003541
5.770000E-8	0.003350
5.775000E-8	0.003100
5.780000E-8	0.002844
5.785000E-8	0.002631
5.790000E-8	0.002356
5.795000E-8	0.002188
5.800000E-8	0.001981
5.805000E-8	0.001875
5.810000E-8	0.001647
5.815000E-8	0.001859
5.820000E-8	0.001863
5.825000E-8	0.001956
5.830000E-8	0.001966
5.835000E-8	0.002306
5.840000E-8	0.002491
5.845000E-8	0.002700
5.850000E-8	0.002788
5.855000E-8	0.002966
5.860000E-8	0.003106
5.865000E-8	0.003259
5.870000E-8	0.003338
5.875000E-8	0.003363
5.880000E-8	0.003409
5.885000E-8	0.003388
5.890000E-8	0.003319
5.895000E-8	0.003306
5.900000E-8	0.003144
5.905000E-8	0.003028
5.910000E-8	0.002706
5.915000E-8	0.002544
5.920000E-8	0.002269
5.925000E-8	0.002053
5.930000E-8	0.001897
5.935000E-8	0.001794
5.940000E-8	0.001719
5.945000E-8	0.001738
5.950000E-8	0.001709
5.955000E-8	0.001791
5.960000E-8	0.001969
5.965000E-8	0.002234
5.970000E-8	0.002372
5.975000E-8	0.002581
5.980000E-8	0.002806
5.985000E-8	0.003000
5.990000E-8	0.003156
5.995000E-8	0.003334
6.000000E-8	0.003378
6.005000E-8	0.003456
6.010000E-8	0.003534
6.015000E-8	0.003684
6.020000E-8	0.003453
6.025000E-8	0.003400
6.030000E-8	0.003241
6.035000E-8	0.003219
6.040000E-8	0.002906
6.045000E-8	0.002653
6.050000E-8	0.002506
6.055000E-8	0.002406
6.060000E-8	0.002141
6.065000E-8	0.002069
6.070000E-8	0.001981
6.075000E-8	0.002031
6.080000E-8	0.001966
6.085000E-8	0.002106
6.090000E-8	0.002206
6.095000E-8	0.002341
6.100000E-8	0.002497
6.105000E-8	0.002638
6.110000E-8	0.002713
6.115000E-8	0.002922
6.120000E-8	0.002844
6.125000E-8	0.002950
6.130000E-8	0.003003
6.135000E-8	0.003038
6.140000E-8	0.003213
6.145000E-8	0.003272
6.150000E-8	0.003178
6.155000E-8	0.003300
6.160000E-8	0.003241
6.165000E-8	0.003294
6.170000E-8	0.003056
6.175000E-8	0.002872
6.180000E-8	0.002575
6.185000E-8	0.002350
6.190000E-8	0.002078
6.195000E-8	0.001866
6.200000E-8	0.001678
6.205000E-8	0.001534
6.210000E-8	0.001513
6.215000E-8	0.001575
6.220000E-8	0.001672
6.225000E-8	0.001856
6.230000E-8	0.002044
6.235000E-8	0.002297
6.240000E-8	0.002463
6.245000E-8	0.002769
6.250000E-8	0.003050
6.255000E-8	0.003231
6.260000E-8	0.003284
6.265000E-8	0.003313
6.270000E-8	0.003406
6.275000E-8	0.003581
6.280000E-8	0.003322
6.285000E-8	0.003369
6.290000E-8	0.003162
6.295000E-8	0.003109
6.300000E-8	0.002919
6.305000E-8	0.002716
6.310000E-8	0.002512
6.315000E-8	0.002372
6.320000E-8	0.002306
6.325000E-8	0.002281
6.330000E-8	0.002178
6.335000E-8	0.002169
6.340000E-8	0.002131
6.345000E-8	0.002172
6.350000E-8	0.002338
6.355000E-8	0.002488
6.360000E-8	0.002500
6.365000E-8	0.002619
6.370000E-8	0.002759
6.375000E-8	0.003006
6.380000E-8	0.003156
6.385000E-8	0.003272
6.390000E-8	0.003359
6.395000E-8	0.003528
6.400000E-8	0.003697
6.405000E-8	0.003719
6.410000E-8	0.003781
6.415000E-8	0.003766
6.420000E-8	0.003594
6.425000E-8	0.003406
6.430000E-8	0.003272
6.435000E-8	0.003006
6.440000E-8	0.002703
6.445000E-8	0.002450
6.450000E-8	0.002266
6.455000E-8	0.002081
6.460000E-8	0.001903
6.465000E-8	0.001775
6.470000E-8	0.001769
6.475000E-8	0.001816
6.480000E-8	0.001863
6.485000E-8	0.001941
6.490000E-8	0.002056
6.495000E-8	0.002319
6.500000E-8	0.002441
6.505000E-8	0.002603
6.510000E-8	0.002825
6.515000E-8	0.003075
6.520000E-8	0.003125
6.525000E-8	0.003350
6.530000E-8	0.003491
6.535000E-8	0.003563
6.540000E-8	0.003512
6.545000E-8	0.003609
6.550000E-8	0.003316
6.555000E-8	0.003225
6.560000E-8	0.003047
6.565000E-8	0.002800
6.570000E-8	0.002553
6.575000E-8	0.002363
6.580000E-8	0.002075
6.585000E-8	0.002003
6.590000E-8	0.001841
6.595000E-8	0.001828
6.600000E-8	0.001803
6.605000E-8	0.001878
6.610000E-8	0.001963
6.615000E-8	0.002091
6.620000E-8	0.002134
6.625000E-8	0.002356
6.630000E-8	0.002463
6.635000E-8	0.002644
6.640000E-8	0.002697
6.645000E-8	0.003012
6.650000E-8	0.003116
6.655000E-8	0.003234
6.660000E-8	0.003300
6.665000E-8	0.003463
6.670000E-8	0.003316
6.675000E-8	0.003344
6.680000E-8	0.003184
6.685000E-8	0.003038
6.690000E-8	0.002916
6.695000E-8	0.002769
6.700000E-8	0.002575
6.705000E-8	0.002531
6.710000E-8	0.002372
6.715000E-8	0.002256
6.720000E-8	0.002063
6.725000E-8	0.001906
6.730000E-8	0.001753
6.735000E-8	0.001825
6.740000E-8	0.001825
6.745000E-8	0.001984
6.750000E-8	0.002128
6.755000E-8	0.002272
6.760000E-8	0.002559
6.765000E-8	0.002734
6.770000E-8	0.002938
6.775000E-8	0.003150
6.780000E-8	0.003209
6.785000E-8	0.003313
6.790000E-8	0.003466
6.795000E-8	0.003447
6.800000E-8	0.003322
6.805000E-8	0.003306
6.810000E-8	0.003063
6.815000E-8	0.002963
6.820000E-8	0.002734
6.825000E-8	0.002734
6.830000E-8	0.002563
6.835000E-8	0.002434
6.840000E-8	0.002300
6.845000E-8	0.002344
6.850000E-8	0.002188
6.855000E-8	0.002231
6.860000E-8	0.002159
6.865000E-8	0.002250
6.870000E-8	0.002219
6.875000E-8	0.002294
6.880000E-8	0.002328
6.885000E-8	0.002409
6.890000E-8	0.002534
6.895000E-8	0.002672
6.900000E-8	0.002838
6.905000E-8	0.002944
6.910000E-8	0.003122
6.915000E-8	0.003325
6.920000E-8	0.003444
6.925000E-8	0.003550
6.930000E-8	0.003484
6.935000E-8	0.003497
6.940000E-8	0.003297
6.945000E-8	0.003241
6.950000E-8	0.002969
6.955000E-8	0.002819
6.960000E-8	0.002628
6.965000E-8	0.002616
6.970000E-8	0.002466
6.975000E-8	0.002416
6.980000E-8	0.002247
6.985000E-8	0.002247
6.990000E-8	0.002169
6.995000E-8	0.002219
7.000000E-8	0.002222
7.005000E-8	0.002347
7.010000E-8	0.002278
7.015000E-8	0.002350
7.020000E-8	0.002344
7.025000E-8	0.002447
7.030000E-8	0.002506
7.035000E-8	0.002569
7.040000E-8	0.002634
7.045000E-8	0.002838
7.050000E-8	0.002866
7.055000E-8	0.003012
7.060000E-8	0.003022
7.065000E-8	0.003225
7.070000E-8	0.003147
7.075000E-8	0.003234
7.080000E-8	0.003075
7.085000E-8	0.003000
7.090000E-8	0.002838
7.095000E-8	0.002737
7.100000E-8	0.002613
7.105000E-8	0.002534
7.110000E-8	0.002459
7.115000E-8	0.002397
7.120000E-8	0.002334
7.125000E-8	0.002400
7.130000E-8	0.002553
7.135000E-8	0.002587
7.140000E-8	0.002578
7.145000E-8	0.002750
7.150000E-8	0.002866
7.155000E-8	0.002909
7.160000E-8	0.002972
7.165000E-8	0.003087
7.170000E-8	0.003072
7.175000E-8	0.003200
7.180000E-8	0.003319
7.185000E-8	0.003438
7.190000E-8	0.003481
7.195000E-8	0.003619
7.200000E-8	0.003481
7.205000E-8	0.003434
7.210000E-8	0.003500
7.215000E-8	0.003453
7.220000E-8	0.003241
7.225000E-8	0.003188
7.230000E-8	0.003053
7.235000E-8	0.002884
7.240000E-8	0.002603
7.245000E-8	0.002534
7.250000E-8	0.002463
7.255000E-8	0.002356
7.260000E-8	0.002381
7.265000E-8	0.002400
7.270000E-8	0.002375
7.275000E-8	0.002378
7.280000E-8	0.002453
7.285000E-8	0.002641
7.290000E-8	0.002713
7.295000E-8	0.002763
7.300000E-8	0.002913
7.305000E-8	0.003172
7.310000E-8	0.003103
7.315000E-8	0.003263
7.320000E-8	0.003225
7.325000E-8	0.003288
7.330000E-8	0.003181
7.335000E-8	0.003219
7.340000E-8	0.003009
7.345000E-8	0.002925
7.350000E-8	0.002750
7.355000E-8	0.002675
7.360000E-8	0.002597
7.365000E-8	0.002475
7.370000E-8	0.002328
7.375000E-8	0.002250
7.380000E-8	0.002162
7.385000E-8	0.002178
7.390000E-8	0.002200
7.395000E-8	0.002231
7.400000E-8	0.002313
7.405000E-8	0.002431
7.410000E-8	0.002528
7.415000E-8	0.002684
7.420000E-8	0.002769
7.425000E-8	0.002891
7.430000E-8	0.003075
7.435000E-8	0.003138
7.440000E-8	0.003041
7.445000E-8	0.003206
7.450000E-8	0.003119
7.455000E-8	0.003188
7.460000E-8	0.003091
7.465000E-8	0.003041
7.470000E-8	0.002825
7.475000E-8	0.002763
7.480000E-8	0.002512
7.485000E-8	0.002397
7.490000E-8	0.002206
7.495000E-8	0.002216
7.500000E-8	0.002191
7.505000E-8	0.002225
7.510000E-8	0.002200
7.515000E-8	0.002291
7.520000E-8	0.002325
7.525000E-8	0.002369
7.530000E-8	0.002419
7.535000E-8	0.002547
7.540000E-8	0.002641
7.545000E-8	0.002813
7.550000E-8	0.002728
7.555000E-8	0.002900
7.560000E-8	0.002913
7.565000E-8	0.003028
7.570000E-8	0.003069
7.575000E-8	0.003100
7.580000E-8	0.003138
7.585000E-8	0.003156
7.590000E-8	0.003084
7.595000E-8	0.003078
7.600000E-8	0.003041
7.605000E-8	0.002916
7.610000E-8	0.002800
7.615000E-8	0.002819
7.620000E-8	0.002544
7.625000E-8	0.002419
7.630000E-8	0.002344
7.635000E-8	0.002266
7.640000E-8	0.002144
7.645000E-8	0.002156
7.650000E-8	0.002100
7.655000E-8	0.002131
7.660000E-8	0.002184
7.665000E-8	0.002356
7.670000E-8	0.002534
7.675000E-8	0.002672
7.680000E-8	0.002678
7.685000E-8	0.002825
7.690000E-8	0.002847
7.695000E-8	0.002913
7.700000E-8	0.002913
7.705000E-8	0.003097
7.710000E-8	0.003019
7.715000E-8	0.003053
7.720000E-8	0.002934
7.725000E-8	0.003050
7.730000E-8	0.002975
7.735000E-8	0.002897
7.740000E-8	0.002881
7.745000E-8	0.002744
7.750000E-8	0.002734
7.755000E-8	0.002656
7.760000E-8	0.002566
7.765000E-8	0.002641
7.770000E-8	0.002559
7.775000E-8	0.002422
7.780000E-8	0.002400
7.785000E-8	0.002447
7.790000E-8	0.002450
7.795000E-8	0.002444
7.800000E-8	0.002606
7.805000E-8	0.002756
7.810000E-8	0.002825
7.815000E-8	0.002853
7.820000E-8	0.002934
7.825000E-8	0.003128
7.830000E-8	0.003194
7.835000E-8	0.003247
7.840000E-8	0.003325
7.845000E-8	0.003359
7.850000E-8	0.003234
7.855000E-8	0.003322
7.860000E-8	0.003141
7.865000E-8	0.003072
7.870000E-8	0.002972
7.875000E-8	0.002875
7.880000E-8	0.002688
7.885000E-8	0.002550
7.890000E-8	0.002388
7.895000E-8	0.002328
7.900000E-8	0.002172
7.905000E-8	0.002181
7.910000E-8	0.002069
7.915000E-8	0.002247
7.920000E-8	0.002303
7.925000E-8	0.002413
7.930000E-8	0.002478
7.935000E-8	0.002547
7.940000E-8	0.002644
7.945000E-8	0.002863
7.950000E-8	0.002894
7.955000E-8	0.003022
7.960000E-8	0.002994
7.965000E-8	0.002997
7.970000E-8	0.003038
7.975000E-8	0.003078
7.980000E-8	0.003050
7.985000E-8	0.003056
7.990000E-8	0.002913
7.995000E-8	0.002963
8.000000E-8	0.002803
8.005000E-8	0.002747
8.010000E-8	0.002709
8.015000E-8	0.002791
8.020000E-8	0.002706
8.025000E-8	0.002719
8.030000E-8	0.002678
8.035000E-8	0.002713
8.040000E-8	0.002784
8.045000E-8	0.002706
8.050000E-8	0.002625
8.055000E-8	0.002581
8.060000E-8	0.002644
8.065000E-8	0.002681
8.070000E-8	0.002713
8.075000E-8	0.002613
8.080000E-8	0.002606
8.085000E-8	0.002794
8.090000E-8	0.002891
8.095000E-8	0.003066
8.100000E-8	0.003069
8.105000E-8	0.003194
8.110000E-8	0.003087
8.115000E-8	0.003081
8.120000E-8	0.002909
8.125000E-8	0.002791
8.130000E-8	0.002622
8.135000E-8	0.002647
8.140000E-8	0.002494
8.145000E-8	0.002447
8.150000E-8	0.002359
8.155000E-8	0.002306
8.160000E-8	0.002259
8.165000E-8	0.002216
8.170000E-8	0.002147
8.175000E-8	0.002203
8.180000E-8	0.002184
8.185000E-8	0.002313
8.190000E-8	0.002344
8.195000E-8	0.002447
8.200000E-8	0.002428
8.205000E-8	0.002647
8.210000E-8	0.002728
8.215000E-8	0.002866
8.220000E-8	0.002872
8.225000E-8	0.002925
8.230000E-8	0.002847
8.235000E-8	0.002881
8.240000E-8	0.002863
8.245000E-8	0.002822
8.250000E-8	0.002781
8.255000E-8	0.002713
8.260000E-8	0.002728
8.265000E-8	0.002694
8.270000E-8	0.002584
8.275000E-8	0.002581
8.280000E-8	0.002609
8.285000E-8	0.002512
8.290000E-8	0.002478
8.295000E-8	0.002388
8.300000E-8	0.002272
8.305000E-8	0.002266
8.310000E-8	0.002203
8.315000E-8	0.002363
8.320000E-8	0.002403
8.325000E-8	0.002500
8.330000E-8	0.002531
8.335000E-8	0.002700
8.340000E-8	0.002791
8.345000E-8	0.002881
8.350000E-8	0.003041
8.355000E-8	0.003128
8.360000E-8	0.003191
8.365000E-8	0.003253
8.370000E-8	0.003213
8.375000E-8	0.003225
8.380000E-8	0.003012
8.385000E-8	0.003006
8.390000E-8	0.002769
8.395000E-8	0.002716
8.400000E-8	0.002538
8.405000E-8	0.002544
8.410000E-8	0.002375
8.415000E-8	0.002306
8.420000E-8	0.002162
8.425000E-8	0.002197
8.430000E-8	0.002206
8.435000E-8	0.002278
8.440000E-8	0.002162
8.445000E-8	0.002363
8.450000E-8	0.002325
8.455000E-8	0.002419
8.460000E-8	0.002494
8.465000E-8	0.002706
8.470000E-8	0.002819
8.475000E-8	0.002872
8.480000E-8	0.002888
8.485000E-8	0.002931
8.490000E-8	0.002959
8.495000E-8	0.002800
8.500000E-8	0.002747
8.505000E-8	0.002713
8.510000E-8	0.002728
8.515000E-8	0.002728
8.520000E-8	0.002603
8.525000E-8	0.002719
8.530000E-8	0.002744
8.535000E-8	0.002666
8.540000E-8	0.002688
8.545000E-8	0.002706
8.550000E-8	0.002600
8.555000E-8	0.002616
8.560000E-8	0.002566
8.565000E-8	0.002572
8.570000E-8	0.002619
8.575000E-8	0.002631
8.580000E-8	0.002538
8.585000E-8	0.002709
8.590000E-8	0.002878
8.595000E-8	0.002988
8.600000E-8	0.003166
8.605000E-8	0.003219
8.610000E-8	0.003234
8.615000E-8	0.003284
8.620000E-8	0.003334
8.625000E-8	0.003394
8.630000E-8	0.003350
8.635000E-8	0.003256
8.640000E-8	0.003219
8.645000E-8	0.003141
8.650000E-8	0.003016
8.655000E-8	0.002903
8.660000E-8	0.002741
8.665000E-8	0.002794
8.670000E-8	0.002656
8.675000E-8	0.002619
8.680000E-8	0.002500
8.685000E-8	0.002512
8.690000E-8	0.002522
8.695000E-8	0.002606
8.700000E-8	0.002434
8.705000E-8	0.002484
8.710000E-8	0.002600
8.715000E-8	0.002681
8.720000E-8	0.002684
8.725000E-8	0.002800
8.730000E-8	0.002819
8.735000E-8	0.002884
8.740000E-8	0.002966
8.745000E-8	0.003019
8.750000E-8	0.003044
8.755000E-8	0.002984
8.760000E-8	0.002897
8.765000E-8	0.002834
8.770000E-8	0.002688
8.775000E-8	0.002644
8.780000E-8	0.002556
8.785000E-8	0.002603
8.790000E-8	0.002544
8.795000E-8	0.002616
8.800000E-8	0.002572
8.805000E-8	0.002594
8.810000E-8	0.002544
8.815000E-8	0.002563
8.820000E-8	0.002659
8.825000E-8	0.002659
8.830000E-8	0.002628
8.835000E-8	0.002797
8.840000E-8	0.002747
8.845000E-8	0.002825
8.850000E-8	0.002847
8.855000E-8	0.002791
8.860000E-8	0.002806
8.865000E-8	0.002953
8.870000E-8	0.002778
8.875000E-8	0.002794
8.880000E-8	0.002850
8.885000E-8	0.002941
8.890000E-8	0.002906
8.895000E-8	0.002891
8.900000E-8	0.002934
8.905000E-8	0.002875
8.910000E-8	0.002822
8.915000E-8	0.002916
8.920000E-8	0.002913
8.925000E-8	0.002903
8.930000E-8	0.002956
8.935000E-8	0.002916
8.940000E-8	0.002859
8.945000E-8	0.002713
8.950000E-8	0.002716
8.955000E-8	0.002791
8.960000E-8	0.002681
8.965000E-8	0.002791
8.970000E-8	0.002825
8.975000E-8	0.002841
8.980000E-8	0.002969
8.985000E-8	0.003066
8.990000E-8	0.003031
8.995000E-8	0.003075
9.000000E-8	0.002925
9.005000E-8	0.002931
9.010000E-8	0.002819
9.015000E-8	0.002788
9.020000E-8	0.002597
9.025000E-8	0.002538
9.030000E-8	0.002494
9.035000E-8	0.002638
9.040000E-8	0.002575
9.045000E-8	0.002613
9.050000E-8	0.002662
9.055000E-8	0.002850
9.060000E-8	0.002822
9.065000E-8	0.002878
9.070000E-8	0.002809
9.075000E-8	0.002741
9.080000E-8	0.002672
9.085000E-8	0.002747
9.090000E-8	0.002697
9.095000E-8	0.002619
9.100000E-8	0.002597
9.105000E-8	0.002647
9.110000E-8	0.002534
9.115000E-8	0.002719
9.120000E-8	0.002606
9.125000E-8	0.002753
9.130000E-8	0.002756
9.135000E-8	0.002913
9.140000E-8	0.002994
9.145000E-8	0.003025
9.150000E-8	0.002991
9.155000E-8	0.003075
9.160000E-8	0.002966
9.165000E-8	0.002975
9.170000E-8	0.002869
9.175000E-8	0.002959
9.180000E-8	0.002809
9.185000E-8	0.002822
9.190000E-8	0.002638
9.195000E-8	0.002709
9.200000E-8	0.002631
9.205000E-8	0.002603
9.210000E-8	0.002606
9.215000E-8	0.002769
9.220000E-8	0.002756
9.225000E-8	0.002906
9.230000E-8	0.002697
9.235000E-8	0.002725
9.240000E-8	0.002734
9.245000E-8	0.002741
9.250000E-8	0.002813
9.255000E-8	0.002984
9.260000E-8	0.002931
9.265000E-8	0.003022
9.270000E-8	0.002972
9.275000E-8	0.003006
9.280000E-8	0.002956
9.285000E-8	0.002972
9.290000E-8	0.002825
9.295000E-8	0.002863
9.300000E-8	0.002750
9.305000E-8	0.002737
9.310000E-8	0.002572
9.315000E-8	0.002634
9.320000E-8	0.002413
9.325000E-8	0.002250
9.330000E-8	0.002203
9.335000E-8	0.002256
9.340000E-8	0.002206
9.345000E-8	0.002181
9.350000E-8	0.002166
9.355000E-8	0.002291
9.360000E-8	0.002300
9.365000E-8	0.002422
9.370000E-8	0.002388
9.375000E-8	0.002512
9.380000E-8	0.002531
9.385000E-8	0.002653
9.390000E-8	0.002625
9.395000E-8	0.002756
9.400000E-8	0.002656
9.405000E-8	0.002641
9.410000E-8	0.002722
9.415000E-8	0.002713
9.420000E-8	0.002759
9.425000E-8	0.002863
9.430000E-8	0.002872
9.435000E-8	0.002831
9.440000E-8	0.002753
9.445000E-8	0.002734
9.450000E-8	0.002784
9.455000E-8	0.002772
9.460000E-8	0.002806
9.465000E-8	0.002741
9.470000E-8	0.002672
9.475000E-8	0.002666
9.480000E-8	0.002766
9.485000E-8	0.002703
9.490000E-8	0.002581
9.495000E-8	0.002737
9.500000E-8	0.002622
9.505000E-8	0.002647
9.510000E-8	0.002675
9.515000E-8	0.002869
9.520000E-8	0.002803
9.525000E-8	0.002913
9.530000E-8	0.003038
9.535000E-8	0.002947
9.540000E-8	0.003047
9.545000E-8	0.003012
9.550000E-8	0.002922
9.555000E-8	0.002872
9.560000E-8	0.002650
9.565000E-8	0.002594
9.570000E-8	0.002538
9.575000E-8	0.002484
9.580000E-8	0.002300
9.585000E-8	0.002309
9.590000E-8	0.002269
9.595000E-8	0.002197
9.600000E-8	0.002347
9.605000E-8	0.002341
9.610000E-8	0.002419
9.615000E-8	0.002578
9.620000E-8	0.002581
9.625000E-8	0.002697
9.630000E-8	0.002662
9.635000E-8	0.002878
9.640000E-8	0.002838
9.645000E-8	0.002966
9.650000E-8	0.002984
9.655000E-8	0.002903
9.660000E-8	0.002869
9.665000E-8	0.002953
9.670000E-8	0.002775
9.675000E-8	0.002653
9.680000E-8	0.002559
9.685000E-8	0.002609
9.690000E-8	0.002559
9.695000E-8	0.002519
9.700000E-8	0.002584
9.705000E-8	0.002597
9.710000E-8	0.002650
9.715000E-8	0.002728
9.720000E-8	0.002581
9.725000E-8	0.002550
9.730000E-8	0.002516
9.735000E-8	0.002597
9.740000E-8	0.002572
9.745000E-8	0.002625
9.750000E-8	0.002547
9.755000E-8	0.002484
9.760000E-8	0.002388
9.765000E-8	0.002400
9.770000E-8	0.002309
9.775000E-8	0.002500
9.780000E-8	0.002353
9.785000E-8	0.002600
9.790000E-8	0.002703
9.795000E-8	0.002691
9.800000E-8	0.002681
9.805000E-8	0.002737
9.810000E-8	0.002809
9.815000E-8	0.002828
9.820000E-8	0.002853
9.825000E-8	0.002978
9.830000E-8	0.002881
9.835000E-8	0.002916
9.840000E-8	0.002731
9.845000E-8	0.002772
9.850000E-8	0.002725
9.855000E-8	0.002769
9.860000E-8	0.002713
9.865000E-8	0.002794
9.870000E-8	0.002772
9.875000E-8	0.002734
9.880000E-8	0.002650
9.885000E-8	0.002656
9.890000E-8	0.002662
9.895000E-8	0.002634
9.900000E-8	0.002638
9.905000E-8	0.002659
9.910000E-8	0.002709
9.915000E-8	0.002803
9.920000E-8	0.002722
9.925000E-8	0.002806
9.930000E-8	0.002809
9.935000E-8	0.002884
9.940000E-8	0.002750
9.945000E-8	0.002872
9.950000E-8	0.002809
9.955000E-8	0.002841
9.960000E-8	0.002703
9.965000E-8	0.002678
9.970000E-8	0.002572
9.975000E-8	0.002566
9.980000E-8	0.002500
9.985000E-8	0.002447
9.990000E-8	0.002288
9.995000E-8	0.002356
