LabVIEW Measurement	
Writer_Version	2
Reader_Version	2
Separator	Tab
Decimal_Separator	.
Multi_Headings	No
X_Columns	Multi
Time_Pref	Relative
Operator	TG lab
Date	2015/03/06
Time	18:25:43.9020667076110839844
***End_of_Header***	
	
Channels	1	
Samples	2000	
Date	1903/12/31	
Time	19:00:00	
X_Dimension	Time	
X0	0.0000000000000000E+0	
Delta_X	5.000000E-11	
***End_of_Header***		
X_Value	Untitled	Comment
0.000000	0.001727
5.000000E-11	0.002008
1.000000E-10	0.001844
1.500000E-10	0.001953
2.000000E-10	0.001945
2.500000E-10	0.001977
3.000000E-10	0.001844
3.500000E-10	0.001813
4.000000E-10	0.001852
4.500000E-10	0.001977
5.000000E-10	0.002031
5.500000E-10	0.002023
6.000000E-10	0.002039
6.500000E-10	0.001992
7.000000E-10	0.001945
7.500000E-10	0.001961
8.000000E-10	0.002195
8.500000E-10	0.002141
9.000000E-10	0.002109
9.500000E-10	0.002344
1.000000E-9	0.002312
1.050000E-9	0.002367
1.100000E-9	0.002375
1.150000E-9	0.002477
1.200000E-9	0.002398
1.250000E-9	0.002398
1.300000E-9	0.002352
1.350000E-9	0.002266
1.400000E-9	0.002242
1.450000E-9	0.002359
1.500000E-9	0.002227
1.550000E-9	0.002297
1.600000E-9	0.002297
1.650000E-9	0.002344
1.700000E-9	0.002312
1.750000E-9	0.002352
1.800000E-9	0.002273
1.850000E-9	0.002156
1.900000E-9	0.002242
1.950000E-9	0.002500
2.000000E-9	0.002430
2.050000E-9	0.002422
2.100000E-9	0.002477
2.150000E-9	0.002695
2.200000E-9	0.002680
2.250000E-9	0.002828
2.300000E-9	0.002914
2.350000E-9	0.002922
2.400000E-9	0.002844
2.450000E-9	0.002992
2.500000E-9	0.002805
2.550000E-9	0.002797
2.600000E-9	0.002898
2.650000E-9	0.002984
2.700000E-9	0.002836
2.750000E-9	0.003117
2.800000E-9	0.002938
2.850000E-9	0.003383
2.900000E-9	0.003156
2.950000E-9	0.003406
3.000000E-9	0.003133
3.050000E-9	0.003180
3.100000E-9	0.003195
3.150000E-9	0.003227
3.200000E-9	0.002914
3.250000E-9	0.003031
3.300000E-9	0.003023
3.350000E-9	0.003148
3.400000E-9	0.003172
3.450000E-9	0.003289
3.500000E-9	0.003523
3.550000E-9	0.003563
3.600000E-9	0.003680
3.650000E-9	0.003531
3.700000E-9	0.003461
3.750000E-9	0.003898
3.800000E-9	0.003617
3.850000E-9	0.003781
3.900000E-9	0.003867
3.950000E-9	0.004078
4.000000E-9	0.004258
4.050000E-9	0.004609
4.100000E-9	0.004734
4.150000E-9	0.005086
4.200000E-9	0.005375
4.250000E-9	0.005914
4.300000E-9	0.006305
4.350000E-9	0.007023
4.400000E-9	0.007703
4.450000E-9	0.008688
4.500000E-9	0.009914
4.550000E-9	0.011312
4.600000E-9	0.012578
4.650000E-9	0.014203
4.700000E-9	0.015586
4.750000E-9	0.017328
4.800000E-9	0.019047
4.850000E-9	0.020938
4.900000E-9	0.022633
4.950000E-9	0.024703
5.000000E-9	0.026445
5.050000E-9	0.028336
5.100000E-9	0.030242
5.150000E-9	0.032625
5.200000E-9	0.034516
5.250000E-9	0.036375
5.300000E-9	0.038125
5.350000E-9	0.039805
5.400000E-9	0.041047
5.450000E-9	0.042258
5.500000E-9	0.042984
5.550000E-9	0.043438
5.600000E-9	0.043563
5.650000E-9	0.043539
5.700000E-9	0.043156
5.750000E-9	0.042539
5.800000E-9	0.041359
5.850000E-9	0.040008
5.900000E-9	0.038156
5.950000E-9	0.036102
6.000000E-9	0.033609
6.050000E-9	0.031375
6.100000E-9	0.028844
6.150000E-9	0.026719
6.200000E-9	0.024992
6.250000E-9	0.023781
6.300000E-9	0.022969
6.350000E-9	0.022617
6.400000E-9	0.022562
6.450000E-9	0.023156
6.500000E-9	0.023813
6.550000E-9	0.024961
6.600000E-9	0.025930
6.650000E-9	0.026859
6.700000E-9	0.027203
6.750000E-9	0.028141
6.800000E-9	0.028609
6.850000E-9	0.028813
6.900000E-9	0.028711
6.950000E-9	0.028445
7.000000E-9	0.028180
7.050000E-9	0.027727
7.100000E-9	0.026734
7.150000E-9	0.025719
7.200000E-9	0.024461
7.250000E-9	0.023203
7.300000E-9	0.021477
7.350000E-9	0.020258
7.400000E-9	0.018586
7.450000E-9	0.017352
7.500000E-9	0.016219
7.550000E-9	0.015352
7.600000E-9	0.015023
7.650000E-9	0.014406
7.700000E-9	0.014375
7.750000E-9	0.014820
7.800000E-9	0.015148
7.850000E-9	0.015789
7.900000E-9	0.016445
7.950000E-9	0.017313
8.000000E-9	0.018133
8.050000E-9	0.018930
8.100000E-9	0.019586
8.150000E-9	0.020141
8.200000E-9	0.020852
8.250000E-9	0.021016
8.300000E-9	0.020797
8.350000E-9	0.020609
8.400000E-9	0.019828
8.450000E-9	0.018891
8.500000E-9	0.017367
8.550000E-9	0.016414
8.600000E-9	0.014914
8.650000E-9	0.013484
8.700000E-9	0.012203
8.750000E-9	0.011156
8.800000E-9	0.010406
8.850000E-9	0.009727
8.900000E-9	0.008906
8.950000E-9	0.008813
9.000000E-9	0.008570
9.050000E-9	0.008953
9.100000E-9	0.009234
9.150000E-9	0.009961
9.200000E-9	0.010328
9.250000E-9	0.011258
9.300000E-9	0.011961
9.350000E-9	0.012742
9.400000E-9	0.013406
9.450000E-9	0.014164
9.500000E-9	0.014555
9.550000E-9	0.015195
9.600000E-9	0.015141
9.650000E-9	0.015047
9.700000E-9	0.014594
9.750000E-9	0.014016
9.800000E-9	0.013328
9.850000E-9	0.012414
9.900000E-9	0.011297
9.950000E-9	0.010211
1.000000E-8	0.009047
1.005000E-8	0.008219
1.010000E-8	0.007281
1.015000E-8	0.006703
1.020000E-8	0.006008
1.025000E-8	0.005656
1.030000E-8	0.005438
1.035000E-8	0.005711
1.040000E-8	0.006000
1.045000E-8	0.006578
1.050000E-8	0.006898
1.055000E-8	0.007875
1.060000E-8	0.008695
1.065000E-8	0.009477
1.070000E-8	0.009992
1.075000E-8	0.010625
1.080000E-8	0.011086
1.085000E-8	0.011586
1.090000E-8	0.011719
1.095000E-8	0.011836
1.100000E-8	0.011430
1.105000E-8	0.011242
1.110000E-8	0.010648
1.115000E-8	0.010297
1.120000E-8	0.009352
1.125000E-8	0.008438
1.130000E-8	0.007602
1.135000E-8	0.006570
1.140000E-8	0.005672
1.145000E-8	0.005070
1.150000E-8	0.004430
1.155000E-8	0.004172
1.160000E-8	0.003656
1.165000E-8	0.003453
1.170000E-8	0.003695
1.175000E-8	0.003969
1.180000E-8	0.004562
1.185000E-8	0.005164
1.190000E-8	0.005984
1.195000E-8	0.006797
1.200000E-8	0.007438
1.205000E-8	0.008484
1.210000E-8	0.008922
1.215000E-8	0.009656
1.220000E-8	0.010063
1.225000E-8	0.010336
1.230000E-8	0.010258
1.235000E-8	0.010297
1.240000E-8	0.009758
1.245000E-8	0.009367
1.250000E-8	0.008344
1.255000E-8	0.007492
1.260000E-8	0.006477
1.265000E-8	0.005359
1.270000E-8	0.004594
1.275000E-8	0.003672
1.280000E-8	0.002906
1.285000E-8	0.002148
1.290000E-8	0.001750
1.295000E-8	0.001727
1.300000E-8	0.001813
1.305000E-8	0.002086
1.310000E-8	0.002648
1.315000E-8	0.003320
1.320000E-8	0.004047
1.325000E-8	0.005008
1.330000E-8	0.005914
1.335000E-8	0.006938
1.340000E-8	0.007719
1.345000E-8	0.008477
1.350000E-8	0.008953
1.355000E-8	0.009195
1.360000E-8	0.009062
1.365000E-8	0.008969
1.370000E-8	0.008617
1.375000E-8	0.008125
1.380000E-8	0.007180
1.385000E-8	0.006344
1.390000E-8	0.005461
1.395000E-8	0.004672
1.400000E-8	0.003656
1.405000E-8	0.002859
1.410000E-8	0.002133
1.415000E-8	0.001703
1.420000E-8	0.001063
1.425000E-8	0.000820
1.430000E-8	0.000844
1.435000E-8	0.001055
1.440000E-8	0.001234
1.445000E-8	0.002070
1.450000E-8	0.003016
1.455000E-8	0.003984
1.460000E-8	0.004727
1.465000E-8	0.005578
1.470000E-8	0.006328
1.475000E-8	0.007383
1.480000E-8	0.007906
1.485000E-8	0.008227
1.490000E-8	0.008289
1.495000E-8	0.008125
1.500000E-8	0.007641
1.505000E-8	0.007273
1.510000E-8	0.006234
1.515000E-8	0.005594
1.520000E-8	0.004578
1.525000E-8	0.003453
1.530000E-8	0.002633
1.535000E-8	0.001766
1.540000E-8	0.000820
1.545000E-8	0.000234
1.550000E-8	-0.000430
1.555000E-8	-0.000430
1.560000E-8	-0.000641
1.565000E-8	-0.000375
1.570000E-8	8.593750E-5
1.575000E-8	0.000750
1.580000E-8	0.001633
1.585000E-8	0.002484
1.590000E-8	0.003312
1.595000E-8	0.004594
1.600000E-8	0.005219
1.605000E-8	0.006055
1.610000E-8	0.006445
1.615000E-8	0.007125
1.620000E-8	0.007250
1.625000E-8	0.007375
1.630000E-8	0.006945
1.635000E-8	0.006414
1.640000E-8	0.005664
1.645000E-8	0.004992
1.650000E-8	0.004070
1.655000E-8	0.003156
1.660000E-8	0.001813
1.665000E-8	0.001055
1.670000E-8	0.000297
1.675000E-8	-0.000250
1.680000E-8	-0.000414
1.685000E-8	-0.000711
1.690000E-8	-0.000695
1.695000E-8	-0.000570
1.700000E-8	-0.000164
1.705000E-8	0.000516
1.710000E-8	0.001289
1.715000E-8	0.002328
1.720000E-8	0.003055
1.725000E-8	0.004047
1.730000E-8	0.004734
1.735000E-8	0.005555
1.740000E-8	0.005992
1.745000E-8	0.006258
1.750000E-8	0.006555
1.755000E-8	0.006461
1.760000E-8	0.006172
1.765000E-8	0.005648
1.770000E-8	0.005031
1.775000E-8	0.004156
1.780000E-8	0.003266
1.785000E-8	0.002484
1.790000E-8	0.001273
1.795000E-8	0.000727
1.800000E-8	-0.000180
1.805000E-8	-0.000750
1.810000E-8	-0.001211
1.815000E-8	-0.001516
1.820000E-8	-0.001641
1.825000E-8	-0.001234
1.830000E-8	-0.000609
1.835000E-8	-2.343750E-5
1.840000E-8	0.000805
1.845000E-8	0.001508
1.850000E-8	0.002133
1.855000E-8	0.003039
1.860000E-8	0.003758
1.865000E-8	0.004453
1.870000E-8	0.005164
1.875000E-8	0.005914
1.880000E-8	0.006023
1.885000E-8	0.006172
1.890000E-8	0.006039
1.895000E-8	0.005891
1.900000E-8	0.005250
1.905000E-8	0.004266
1.910000E-8	0.003391
1.915000E-8	0.002625
1.920000E-8	0.001578
1.925000E-8	0.000758
1.930000E-8	-0.000133
1.935000E-8	-0.000742
1.940000E-8	-0.001086
1.945000E-8	-0.001086
1.950000E-8	-0.001141
1.955000E-8	-0.000703
1.960000E-8	-0.000445
1.965000E-8	-7.812500E-6
1.970000E-8	0.000484
1.975000E-8	0.001391
1.980000E-8	0.001969
1.985000E-8	0.003023
1.990000E-8	0.003609
1.995000E-8	0.004359
2.000000E-8	0.004938
2.005000E-8	0.005281
2.010000E-8	0.005242
2.015000E-8	0.005305
2.020000E-8	0.005203
2.025000E-8	0.004852
2.030000E-8	0.004359
2.035000E-8	0.004008
2.040000E-8	0.003023
2.045000E-8	0.002477
2.050000E-8	0.001531
2.055000E-8	0.000984
2.060000E-8	6.250000E-5
2.065000E-8	-0.000313
2.070000E-8	-0.000828
2.075000E-8	-0.001047
2.080000E-8	-0.000930
2.085000E-8	-0.000828
2.090000E-8	-0.000523
2.095000E-8	-2.343750E-5
2.100000E-8	0.000391
2.105000E-8	0.001000
2.110000E-8	0.001930
2.115000E-8	0.002656
2.120000E-8	0.003281
2.125000E-8	0.003844
2.130000E-8	0.004156
2.135000E-8	0.004570
2.140000E-8	0.004711
2.145000E-8	0.004961
2.150000E-8	0.004859
2.155000E-8	0.004758
2.160000E-8	0.004328
2.165000E-8	0.003797
2.170000E-8	0.003102
2.175000E-8	0.002758
2.180000E-8	0.001961
2.185000E-8	0.001344
2.190000E-8	0.000648
2.195000E-8	6.250000E-5
2.200000E-8	-0.000531
2.205000E-8	-0.000875
2.210000E-8	-0.001164
2.215000E-8	-0.001016
2.220000E-8	-0.001086
2.225000E-8	-0.000609
2.230000E-8	0.000102
2.235000E-8	0.000727
2.240000E-8	0.001617
2.245000E-8	0.002516
2.250000E-8	0.003211
2.255000E-8	0.003867
2.260000E-8	0.004391
2.265000E-8	0.004836
2.270000E-8	0.004984
2.275000E-8	0.005148
2.280000E-8	0.004945
2.285000E-8	0.004797
2.290000E-8	0.004438
2.295000E-8	0.004047
2.300000E-8	0.003516
2.305000E-8	0.002891
2.310000E-8	0.002070
2.315000E-8	0.001469
2.320000E-8	0.000664
2.325000E-8	0.000266
2.330000E-8	-0.000531
2.335000E-8	-0.000742
2.340000E-8	-0.001164
2.345000E-8	-0.000992
2.350000E-8	-0.001031
2.355000E-8	-0.000734
2.360000E-8	-0.000273
2.365000E-8	0.000484
2.370000E-8	0.000992
2.375000E-8	0.001891
2.380000E-8	0.002297
2.385000E-8	0.003172
2.390000E-8	0.003797
2.395000E-8	0.004477
2.400000E-8	0.004609
2.405000E-8	0.004898
2.410000E-8	0.004805
2.415000E-8	0.004766
2.420000E-8	0.004570
2.425000E-8	0.004180
2.430000E-8	0.003742
2.435000E-8	0.003250
2.440000E-8	0.002461
2.445000E-8	0.001719
2.450000E-8	0.001000
2.455000E-8	0.000148
2.460000E-8	-0.000687
2.465000E-8	-0.001063
2.470000E-8	-0.001141
2.475000E-8	-0.001336
2.480000E-8	-0.001500
2.485000E-8	-0.000922
2.490000E-8	-0.000453
2.495000E-8	0.000414
2.500000E-8	0.000961
2.505000E-8	0.001937
2.510000E-8	0.002797
2.515000E-8	0.003797
2.520000E-8	0.004086
2.525000E-8	0.004789
2.530000E-8	0.005141
2.535000E-8	0.005352
2.540000E-8	0.005219
2.545000E-8	0.005148
2.550000E-8	0.004805
2.555000E-8	0.004359
2.560000E-8	0.003797
2.565000E-8	0.003016
2.570000E-8	0.002344
2.575000E-8	0.001531
2.580000E-8	0.000984
2.585000E-8	0.000531
2.590000E-8	-0.000273
2.595000E-8	-0.000703
2.600000E-8	-0.001148
2.605000E-8	-0.001133
2.610000E-8	-0.001258
2.615000E-8	-0.000766
2.620000E-8	-0.000523
2.625000E-8	-7.812500E-6
2.630000E-8	0.000602
2.635000E-8	0.001398
2.640000E-8	0.002219
2.645000E-8	0.003133
2.650000E-8	0.003711
2.655000E-8	0.004359
2.660000E-8	0.004680
2.665000E-8	0.005008
2.670000E-8	0.005023
2.675000E-8	0.004953
2.680000E-8	0.004469
2.685000E-8	0.004227
2.690000E-8	0.003430
2.695000E-8	0.003031
2.700000E-8	0.002047
2.705000E-8	0.001477
2.710000E-8	0.000641
2.715000E-8	1.562500E-5
2.720000E-8	-0.000625
2.725000E-8	-0.000898
2.730000E-8	-0.001375
2.735000E-8	-0.001219
2.740000E-8	-0.001469
2.745000E-8	-0.001039
2.750000E-8	-0.000664
2.755000E-8	6.250000E-5
2.760000E-8	0.000586
2.765000E-8	0.001398
2.770000E-8	0.001891
2.775000E-8	0.002797
2.780000E-8	0.003438
2.785000E-8	0.004109
2.790000E-8	0.004422
2.795000E-8	0.004609
2.800000E-8	0.004773
2.805000E-8	0.004797
2.810000E-8	0.004328
2.815000E-8	0.003953
2.820000E-8	0.003344
2.825000E-8	0.002844
2.830000E-8	0.002328
2.835000E-8	0.001648
2.840000E-8	0.001016
2.845000E-8	0.000414
2.850000E-8	1.562500E-5
2.855000E-8	-0.000195
2.860000E-8	-0.000563
2.865000E-8	-0.000469
2.870000E-8	-0.000469
2.875000E-8	-0.000375
2.880000E-8	-9.375000E-5
2.885000E-8	0.000492
2.890000E-8	0.000875
2.895000E-8	0.001633
2.900000E-8	0.002250
2.905000E-8	0.002969
2.910000E-8	0.003344
2.915000E-8	0.004242
2.920000E-8	0.004258
2.925000E-8	0.004609
2.930000E-8	0.004938
2.935000E-8	0.004844
2.940000E-8	0.004344
2.945000E-8	0.003945
2.950000E-8	0.003328
2.955000E-8	0.002742
2.960000E-8	0.002094
2.965000E-8	0.001219
2.970000E-8	0.000875
2.975000E-8	0.000422
2.980000E-8	-7.812500E-5
2.985000E-8	-0.000367
2.990000E-8	-0.000820
2.995000E-8	-0.000758
3.000000E-8	-0.000891
3.005000E-8	-0.000508
3.010000E-8	-0.000289
3.015000E-8	0.000234
3.020000E-8	0.000563
3.025000E-8	0.001414
3.030000E-8	0.001633
3.035000E-8	0.002305
3.040000E-8	0.002898
3.045000E-8	0.003375
3.050000E-8	0.003602
3.055000E-8	0.004102
3.060000E-8	0.004180
3.065000E-8	0.004203
3.070000E-8	0.003875
3.075000E-8	0.003695
3.080000E-8	0.003289
3.085000E-8	0.002859
3.090000E-8	0.002516
3.095000E-8	0.001906
3.100000E-8	0.001320
3.105000E-8	0.000703
3.110000E-8	0.000336
3.115000E-8	-9.375000E-5
3.120000E-8	-0.000555
3.125000E-8	-0.000477
3.130000E-8	-0.000687
3.135000E-8	-0.000398
3.140000E-8	-0.000180
3.145000E-8	0.000297
3.150000E-8	0.000828
3.155000E-8	0.001508
3.160000E-8	0.001844
3.165000E-8	0.002508
3.170000E-8	0.003117
3.175000E-8	0.003570
3.180000E-8	0.003852
3.185000E-8	0.004305
3.190000E-8	0.004258
3.195000E-8	0.004484
3.200000E-8	0.004250
3.205000E-8	0.003828
3.210000E-8	0.003500
3.215000E-8	0.003156
3.220000E-8	0.002484
3.225000E-8	0.002063
3.230000E-8	0.001445
3.235000E-8	0.001086
3.240000E-8	0.000523
3.245000E-8	7.031250E-5
3.250000E-8	-0.000133
3.255000E-8	-0.000367
3.260000E-8	-0.000133
3.265000E-8	-0.000281
3.270000E-8	2.343750E-5
3.275000E-8	0.000289
3.280000E-8	0.000789
3.285000E-8	0.001336
3.290000E-8	0.001852
3.295000E-8	0.002461
3.300000E-8	0.003000
3.305000E-8	0.003508
3.310000E-8	0.003648
3.315000E-8	0.004063
3.320000E-8	0.004266
3.325000E-8	0.003953
3.330000E-8	0.003945
3.335000E-8	0.003664
3.340000E-8	0.003352
3.345000E-8	0.003016
3.350000E-8	0.002727
3.355000E-8	0.002289
3.360000E-8	0.001742
3.365000E-8	0.001187
3.370000E-8	0.000555
3.375000E-8	0.000352
3.380000E-8	-0.000141
3.385000E-8	-0.000297
3.390000E-8	-0.000508
3.395000E-8	-0.000508
3.400000E-8	-0.000391
3.405000E-8	-0.000266
3.410000E-8	2.343750E-5
3.415000E-8	0.000664
3.420000E-8	0.001305
3.425000E-8	0.001883
3.430000E-8	0.002477
3.435000E-8	0.003125
3.440000E-8	0.003609
3.445000E-8	0.004023
3.450000E-8	0.004188
3.455000E-8	0.004320
3.460000E-8	0.004133
3.465000E-8	0.004125
3.470000E-8	0.003531
3.475000E-8	0.003156
3.480000E-8	0.002789
3.485000E-8	0.002102
3.490000E-8	0.001375
3.495000E-8	0.001008
3.500000E-8	0.000234
3.505000E-8	3.125000E-5
3.510000E-8	-0.000219
3.515000E-8	-0.000609
3.520000E-8	-0.000523
3.525000E-8	-0.000484
3.530000E-8	-0.000367
3.535000E-8	0.000234
3.540000E-8	0.000477
3.545000E-8	0.001078
3.550000E-8	0.001500
3.555000E-8	0.002203
3.560000E-8	0.002398
3.565000E-8	0.002969
3.570000E-8	0.003398
3.575000E-8	0.003703
3.580000E-8	0.004227
3.585000E-8	0.004258
3.590000E-8	0.004375
3.595000E-8	0.003914
3.600000E-8	0.003547
3.605000E-8	0.003180
3.610000E-8	0.002516
3.615000E-8	0.002133
3.620000E-8	0.001477
3.625000E-8	0.001047
3.630000E-8	0.000492
3.635000E-8	3.906250E-5
3.640000E-8	-0.000477
3.645000E-8	-0.000547
3.650000E-8	-0.000680
3.655000E-8	-0.000633
3.660000E-8	-0.000414
3.665000E-8	-5.468750E-5
3.670000E-8	0.000148
3.675000E-8	0.000547
3.680000E-8	0.001086
3.685000E-8	0.001539
3.690000E-8	0.001953
3.695000E-8	0.002563
3.700000E-8	0.002805
3.705000E-8	0.003305
3.710000E-8	0.003500
3.715000E-8	0.003828
3.720000E-8	0.003867
3.725000E-8	0.003773
3.730000E-8	0.003594
3.735000E-8	0.003188
3.740000E-8	0.002555
3.745000E-8	0.002141
3.750000E-8	0.001648
3.755000E-8	0.001273
3.760000E-8	0.000500
3.765000E-8	0.000180
3.770000E-8	0.000195
3.775000E-8	-0.000250
3.780000E-8	-0.000406
3.785000E-8	-0.000352
3.790000E-8	-0.000320
3.795000E-8	0.000148
3.800000E-8	0.000687
3.805000E-8	0.001344
3.810000E-8	0.001711
3.815000E-8	0.002188
3.820000E-8	0.002648
3.825000E-8	0.003227
3.830000E-8	0.003500
3.835000E-8	0.003711
3.840000E-8	0.004008
3.845000E-8	0.003914
3.850000E-8	0.003953
3.855000E-8	0.003703
3.860000E-8	0.003172
3.865000E-8	0.002953
3.870000E-8	0.002523
3.875000E-8	0.001984
3.880000E-8	0.001422
3.885000E-8	0.001094
3.890000E-8	0.000531
3.895000E-8	0.000445
3.900000E-8	7.031250E-5
3.905000E-8	0.000117
3.910000E-8	-0.000367
3.915000E-8	-0.000234
3.920000E-8	-1.562500E-5
3.925000E-8	0.000227
3.930000E-8	0.000328
3.935000E-8	0.000742
3.940000E-8	0.001070
3.945000E-8	0.001672
3.950000E-8	0.001953
3.955000E-8	0.002469
3.960000E-8	0.002672
3.965000E-8	0.003117
3.970000E-8	0.003336
3.975000E-8	0.003664
3.980000E-8	0.003492
3.985000E-8	0.003555
3.990000E-8	0.003438
3.995000E-8	0.003086
4.000000E-8	0.002766
4.005000E-8	0.002508
4.010000E-8	0.001984
4.015000E-8	0.001477
4.020000E-8	0.000984
4.025000E-8	0.000680
4.030000E-8	0.000273
4.035000E-8	0.000102
4.040000E-8	-0.000203
4.045000E-8	-0.000172
4.050000E-8	7.812500E-6
4.055000E-8	0.000125
4.060000E-8	0.000133
4.065000E-8	0.000773
4.070000E-8	0.001070
4.075000E-8	0.001586
4.080000E-8	0.002219
4.085000E-8	0.002547
4.090000E-8	0.002883
4.095000E-8	0.003289
4.100000E-8	0.003305
4.105000E-8	0.003391
4.110000E-8	0.003391
4.115000E-8	0.003688
4.120000E-8	0.003492
4.125000E-8	0.003383
4.130000E-8	0.003117
4.135000E-8	0.002961
4.140000E-8	0.002352
4.145000E-8	0.002031
4.150000E-8	0.001609
4.155000E-8	0.001328
4.160000E-8	0.000844
4.165000E-8	0.000594
4.170000E-8	0.000211
4.175000E-8	-0.000141
4.180000E-8	-4.687500E-5
4.185000E-8	-6.250000E-5
4.190000E-8	0.000180
4.195000E-8	0.000570
4.200000E-8	0.000609
4.205000E-8	0.001172
4.210000E-8	0.001516
4.215000E-8	0.001961
4.220000E-8	0.002312
4.225000E-8	0.002898
4.230000E-8	0.003141
4.235000E-8	0.003555
4.240000E-8	0.003516
4.245000E-8	0.003398
4.250000E-8	0.003328
4.255000E-8	0.003203
4.260000E-8	0.002594
4.265000E-8	0.002492
4.270000E-8	0.002039
4.275000E-8	0.001672
4.280000E-8	0.001289
4.285000E-8	0.001109
4.290000E-8	0.000789
4.295000E-8	0.000516
4.300000E-8	0.000133
4.305000E-8	0.000156
4.310000E-8	0.000000
4.315000E-8	0.000156
4.320000E-8	0.000281
4.325000E-8	0.000500
4.330000E-8	0.000547
4.335000E-8	0.001016
4.340000E-8	0.001164
4.345000E-8	0.001930
4.350000E-8	0.002297
4.355000E-8	0.002750
4.360000E-8	0.003172
4.365000E-8	0.003328
4.370000E-8	0.003430
4.375000E-8	0.003742
4.380000E-8	0.003453
4.385000E-8	0.003492
4.390000E-8	0.003219
4.395000E-8	0.002945
4.400000E-8	0.002437
4.405000E-8	0.002016
4.410000E-8	0.001430
4.415000E-8	0.001195
4.420000E-8	0.000867
4.425000E-8	0.000367
4.430000E-8	-2.343750E-5
4.435000E-8	7.031250E-5
4.440000E-8	-0.000141
4.445000E-8	5.468750E-5
4.450000E-8	4.687500E-5
4.455000E-8	0.000547
4.460000E-8	0.000570
4.465000E-8	0.001180
4.470000E-8	0.001352
4.475000E-8	0.001805
4.480000E-8	0.002211
4.485000E-8	0.002641
4.490000E-8	0.002766
4.495000E-8	0.003070
4.500000E-8	0.003305
4.505000E-8	0.003672
4.510000E-8	0.003602
4.515000E-8	0.003500
4.520000E-8	0.003297
4.525000E-8	0.003094
4.530000E-8	0.002625
4.535000E-8	0.002188
4.540000E-8	0.001617
4.545000E-8	0.001102
4.550000E-8	0.000625
4.555000E-8	0.000453
4.560000E-8	-0.000203
4.565000E-8	-0.000289
4.570000E-8	-0.000352
4.575000E-8	-0.000125
4.580000E-8	3.125000E-5
4.585000E-8	0.000273
4.590000E-8	0.000570
4.595000E-8	0.001187
4.600000E-8	0.001563
4.605000E-8	0.002102
4.610000E-8	0.002578
4.615000E-8	0.003016
4.620000E-8	0.003117
4.625000E-8	0.003320
4.630000E-8	0.003367
4.635000E-8	0.003281
4.640000E-8	0.003242
4.645000E-8	0.003117
4.650000E-8	0.003086
4.655000E-8	0.002859
4.660000E-8	0.002570
4.665000E-8	0.002148
4.670000E-8	0.001805
4.675000E-8	0.001500
4.680000E-8	0.001039
4.685000E-8	0.000773
4.690000E-8	0.000281
4.695000E-8	0.000117
4.700000E-8	4.687500E-5
4.705000E-8	0.000172
4.710000E-8	0.000328
4.715000E-8	0.000211
4.720000E-8	0.000227
4.725000E-8	0.000695
4.730000E-8	0.000906
4.735000E-8	0.001531
4.740000E-8	0.001742
4.745000E-8	0.002273
4.750000E-8	0.002492
4.755000E-8	0.003031
4.760000E-8	0.003117
4.765000E-8	0.003320
4.770000E-8	0.003367
4.775000E-8	0.003383
4.780000E-8	0.003047
4.785000E-8	0.002828
4.790000E-8	0.002516
4.795000E-8	0.002188
4.800000E-8	0.001828
4.805000E-8	0.001508
4.810000E-8	0.001094
4.815000E-8	0.000844
4.820000E-8	0.000367
4.825000E-8	7.812500E-5
4.830000E-8	-1.562500E-5
4.835000E-8	6.250000E-5
4.840000E-8	-0.000117
4.845000E-8	0.000242
4.850000E-8	0.000430
4.855000E-8	0.000969
4.860000E-8	0.001297
4.865000E-8	0.001664
4.870000E-8	0.001953
4.875000E-8	0.002414
4.880000E-8	0.002531
4.885000E-8	0.002711
4.890000E-8	0.003188
4.895000E-8	0.003211
4.900000E-8	0.003359
4.905000E-8	0.003211
4.910000E-8	0.003133
4.915000E-8	0.002992
4.920000E-8	0.002516
4.925000E-8	0.002219
4.930000E-8	0.001766
4.935000E-8	0.001664
4.940000E-8	0.001227
4.945000E-8	0.001000
4.950000E-8	0.000586
4.955000E-8	0.000508
4.960000E-8	0.000320
4.965000E-8	0.000297
4.970000E-8	0.000297
4.975000E-8	0.000453
4.980000E-8	0.000523
4.985000E-8	0.001000
4.990000E-8	0.001336
4.995000E-8	0.001680
5.000000E-8	0.002023
5.005000E-8	0.002516
5.010000E-8	0.002609
5.015000E-8	0.002883
5.020000E-8	0.002859
5.025000E-8	0.003008
5.030000E-8	0.002797
5.035000E-8	0.002664
5.040000E-8	0.002656
5.045000E-8	0.002531
5.050000E-8	0.002289
5.055000E-8	0.001961
5.060000E-8	0.001414
5.065000E-8	0.001445
5.070000E-8	0.000984
5.075000E-8	0.001031
5.080000E-8	0.000852
5.085000E-8	0.000687
5.090000E-8	0.000445
5.095000E-8	0.000523
5.100000E-8	0.000414
5.105000E-8	0.000633
5.110000E-8	0.000734
5.115000E-8	0.001250
5.120000E-8	0.001477
5.125000E-8	0.001789
5.130000E-8	0.001930
5.135000E-8	0.002367
5.140000E-8	0.002430
5.145000E-8	0.002711
5.150000E-8	0.002680
5.155000E-8	0.002828
5.160000E-8	0.002953
5.165000E-8	0.002750
5.170000E-8	0.002633
5.175000E-8	0.002648
5.180000E-8	0.002453
5.185000E-8	0.002227
5.190000E-8	0.002023
5.195000E-8	0.001914
5.200000E-8	0.001547
5.205000E-8	0.001195
5.210000E-8	0.000820
5.215000E-8	0.000727
5.220000E-8	0.000492
5.225000E-8	0.000484
5.230000E-8	0.000320
5.235000E-8	0.000578
5.240000E-8	0.000773
5.245000E-8	0.000992
5.250000E-8	0.001094
5.255000E-8	0.001555
5.260000E-8	0.001695
5.265000E-8	0.002148
5.270000E-8	0.002273
5.275000E-8	0.002508
5.280000E-8	0.002633
5.285000E-8	0.002922
5.290000E-8	0.002914
5.295000E-8	0.003016
5.300000E-8	0.002820
5.305000E-8	0.002766
5.310000E-8	0.002648
5.315000E-8	0.002406
5.320000E-8	0.001883
5.325000E-8	0.001789
5.330000E-8	0.001602
5.335000E-8	0.001484
5.340000E-8	0.000914
5.345000E-8	0.000867
5.350000E-8	0.000672
5.355000E-8	0.000563
5.360000E-8	0.000547
5.365000E-8	0.000633
5.370000E-8	0.000594
5.375000E-8	0.001031
5.380000E-8	0.001023
5.385000E-8	0.001328
5.390000E-8	0.001352
5.395000E-8	0.001719
5.400000E-8	0.002117
5.405000E-8	0.002539
5.410000E-8	0.002531
5.415000E-8	0.002945
5.420000E-8	0.002992
5.425000E-8	0.003086
5.430000E-8	0.002922
5.435000E-8	0.003016
5.440000E-8	0.002734
5.445000E-8	0.002445
5.450000E-8	0.002109
5.455000E-8	0.002125
5.460000E-8	0.001563
5.465000E-8	0.001203
5.470000E-8	0.000875
5.475000E-8	0.000727
5.480000E-8	0.000258
5.485000E-8	0.000469
5.490000E-8	0.000484
5.495000E-8	0.000445
5.500000E-8	0.000461
5.505000E-8	0.000719
5.510000E-8	0.000719
5.515000E-8	0.001187
5.520000E-8	0.001328
5.525000E-8	0.001859
5.530000E-8	0.002000
5.535000E-8	0.002258
5.540000E-8	0.002352
5.545000E-8	0.002594
5.550000E-8	0.002672
5.555000E-8	0.002836
5.560000E-8	0.002617
5.565000E-8	0.002648
5.570000E-8	0.002516
5.575000E-8	0.002414
5.580000E-8	0.002117
5.585000E-8	0.002023
5.590000E-8	0.001656
5.595000E-8	0.001484
5.600000E-8	0.000906
5.605000E-8	0.000750
5.610000E-8	0.000531
5.615000E-8	0.000687
5.620000E-8	0.000328
5.625000E-8	0.000555
5.630000E-8	0.000523
5.635000E-8	0.000680
5.640000E-8	0.000875
5.645000E-8	0.001219
5.650000E-8	0.001492
5.655000E-8	0.001781
5.660000E-8	0.001836
5.665000E-8	0.002203
5.670000E-8	0.002539
5.675000E-8	0.002656
5.680000E-8	0.002703
5.685000E-8	0.002688
5.690000E-8	0.002531
5.695000E-8	0.002719
5.700000E-8	0.002414
5.705000E-8	0.002227
5.710000E-8	0.001883
5.715000E-8	0.001805
5.720000E-8	0.001477
5.725000E-8	0.001406
5.730000E-8	0.001000
5.735000E-8	0.001000
5.740000E-8	0.000984
5.745000E-8	0.000844
5.750000E-8	0.000789
5.755000E-8	0.000875
5.760000E-8	0.000898
5.765000E-8	0.000914
5.770000E-8	0.001094
5.775000E-8	0.001445
5.780000E-8	0.001422
5.785000E-8	0.001734
5.790000E-8	0.001734
5.795000E-8	0.002164
5.800000E-8	0.002312
5.805000E-8	0.002477
5.810000E-8	0.002516
5.815000E-8	0.002672
5.820000E-8	0.002539
5.825000E-8	0.002469
5.830000E-8	0.002227
5.835000E-8	0.002297
5.840000E-8	0.002250
5.845000E-8	0.001977
5.850000E-8	0.001828
5.855000E-8	0.001687
5.860000E-8	0.001313
5.865000E-8	0.001055
5.870000E-8	0.000656
5.875000E-8	0.000734
5.880000E-8	0.000547
5.885000E-8	0.000641
5.890000E-8	0.000492
5.895000E-8	0.000820
5.900000E-8	0.000844
5.905000E-8	0.000883
5.910000E-8	0.001172
5.915000E-8	0.001469
5.920000E-8	0.001578
5.925000E-8	0.001820
5.930000E-8	0.001898
5.935000E-8	0.002359
5.940000E-8	0.002508
5.945000E-8	0.002891
5.950000E-8	0.002789
5.955000E-8	0.003008
5.960000E-8	0.002836
5.965000E-8	0.002750
5.970000E-8	0.002359
5.975000E-8	0.002016
5.980000E-8	0.001602
5.985000E-8	0.001492
5.990000E-8	0.001289
5.995000E-8	0.001313
6.000000E-8	0.001258
6.005000E-8	0.001000
6.010000E-8	0.000852
6.015000E-8	0.000820
6.020000E-8	0.000984
6.025000E-8	0.001172
6.030000E-8	0.001211
6.035000E-8	0.001258
6.040000E-8	0.001281
6.045000E-8	0.001430
6.050000E-8	0.001531
6.055000E-8	0.001875
6.060000E-8	0.001867
6.065000E-8	0.002297
6.070000E-8	0.002586
6.075000E-8	0.002563
6.080000E-8	0.002570
6.085000E-8	0.002773
6.090000E-8	0.002539
6.095000E-8	0.002469
6.100000E-8	0.002234
6.105000E-8	0.001969
6.110000E-8	0.001687
6.115000E-8	0.001227
6.120000E-8	0.000992
6.125000E-8	0.000727
6.130000E-8	0.000648
6.135000E-8	0.000695
6.140000E-8	0.000563
6.145000E-8	0.000648
6.150000E-8	0.000531
6.155000E-8	0.000813
6.160000E-8	0.000906
6.165000E-8	0.001016
6.170000E-8	0.001211
6.175000E-8	0.001328
6.180000E-8	0.001453
6.185000E-8	0.001477
6.190000E-8	0.001695
6.195000E-8	0.001672
6.200000E-8	0.001711
6.205000E-8	0.002055
6.210000E-8	0.002023
6.215000E-8	0.002102
6.220000E-8	0.001977
6.225000E-8	0.001992
6.230000E-8	0.001828
6.235000E-8	0.001617
6.240000E-8	0.001680
6.245000E-8	0.001437
6.250000E-8	0.001297
6.255000E-8	0.001109
6.260000E-8	0.001063
6.265000E-8	0.001039
6.270000E-8	0.000828
6.275000E-8	0.000742
6.280000E-8	0.000758
6.285000E-8	0.000977
6.290000E-8	0.001000
6.295000E-8	0.001055
6.300000E-8	0.001227
6.305000E-8	0.001422
6.310000E-8	0.001539
6.315000E-8	0.001875
6.320000E-8	0.002039
6.325000E-8	0.002391
6.330000E-8	0.002453
6.335000E-8	0.002781
6.340000E-8	0.002727
6.345000E-8	0.002844
6.350000E-8	0.002547
6.355000E-8	0.002594
6.360000E-8	0.002281
6.365000E-8	0.002281
6.370000E-8	0.001883
6.375000E-8	0.001711
6.380000E-8	0.001586
6.385000E-8	0.001469
6.390000E-8	0.001250
6.395000E-8	0.001141
6.400000E-8	0.000898
6.405000E-8	0.000727
6.410000E-8	0.000773
6.415000E-8	0.000805
6.420000E-8	0.000727
6.425000E-8	0.000813
6.430000E-8	0.001234
6.435000E-8	0.001484
6.440000E-8	0.001766
6.445000E-8	0.001977
6.450000E-8	0.002086
6.455000E-8	0.002211
6.460000E-8	0.002172
6.465000E-8	0.002391
6.470000E-8	0.002422
6.475000E-8	0.002133
6.480000E-8	0.002023
6.485000E-8	0.001969
6.490000E-8	0.001922
6.495000E-8	0.001945
6.500000E-8	0.001617
6.505000E-8	0.001500
6.510000E-8	0.001242
6.515000E-8	0.001133
6.520000E-8	0.001164
6.525000E-8	0.001352
6.530000E-8	0.001133
6.535000E-8	0.001172
6.540000E-8	0.001203
6.545000E-8	0.001352
6.550000E-8	0.001305
6.555000E-8	0.001422
6.560000E-8	0.001492
6.565000E-8	0.001742
6.570000E-8	0.001836
6.575000E-8	0.001977
6.580000E-8	0.001891
6.585000E-8	0.002117
6.590000E-8	0.002156
6.595000E-8	0.002164
6.600000E-8	0.002258
6.605000E-8	0.002023
6.610000E-8	0.001758
6.615000E-8	0.001992
6.620000E-8	0.001727
6.625000E-8	0.001797
6.630000E-8	0.001758
6.635000E-8	0.001867
6.640000E-8	0.001867
6.645000E-8	0.001789
6.650000E-8	0.001594
6.655000E-8	0.001484
6.660000E-8	0.001336
6.665000E-8	0.001398
6.670000E-8	0.001234
6.675000E-8	0.001234
6.680000E-8	0.001055
6.685000E-8	0.001477
6.690000E-8	0.001539
6.695000E-8	0.001531
6.700000E-8	0.001477
6.705000E-8	0.001992
6.710000E-8	0.002086
6.715000E-8	0.002312
6.720000E-8	0.002352
6.725000E-8	0.002312
6.730000E-8	0.002375
6.735000E-8	0.002516
6.740000E-8	0.002406
6.745000E-8	0.002375
6.750000E-8	0.002219
6.755000E-8	0.002000
6.760000E-8	0.001711
6.765000E-8	0.001617
6.770000E-8	0.001297
6.775000E-8	0.001336
6.780000E-8	0.001117
6.785000E-8	0.001281
6.790000E-8	0.001094
6.795000E-8	0.001266
6.800000E-8	0.001172
6.805000E-8	0.001352
6.810000E-8	0.001313
6.815000E-8	0.001391
6.820000E-8	0.001328
6.825000E-8	0.001734
6.830000E-8	0.001727
6.835000E-8	0.002031
6.840000E-8	0.001984
6.845000E-8	0.002164
6.850000E-8	0.002133
6.855000E-8	0.002031
6.860000E-8	0.002172
6.865000E-8	0.002375
6.870000E-8	0.002234
6.875000E-8	0.002281
6.880000E-8	0.002008
6.885000E-8	0.002063
6.890000E-8	0.002125
6.895000E-8	0.002109
6.900000E-8	0.001836
6.905000E-8	0.001797
6.910000E-8	0.001633
6.915000E-8	0.001563
6.920000E-8	0.001375
6.925000E-8	0.001281
6.930000E-8	0.001055
6.935000E-8	0.001234
6.940000E-8	0.001031
6.945000E-8	0.001117
6.950000E-8	0.001164
6.955000E-8	0.001172
6.960000E-8	0.001234
6.965000E-8	0.001711
6.970000E-8	0.001727
6.975000E-8	0.002039
6.980000E-8	0.002172
6.985000E-8	0.002578
6.990000E-8	0.002547
6.995000E-8	0.002750
7.000000E-8	0.002805
7.005000E-8	0.002703
7.010000E-8	0.002391
7.015000E-8	0.002312
7.020000E-8	0.002094
7.025000E-8	0.002125
7.030000E-8	0.001828
7.035000E-8	0.001586
7.040000E-8	0.001391
7.045000E-8	0.001305
7.050000E-8	0.001016
7.055000E-8	0.001187
7.060000E-8	0.001133
7.065000E-8	0.001375
7.070000E-8	0.001281
7.075000E-8	0.001258
7.080000E-8	0.001281
7.085000E-8	0.001508
7.090000E-8	0.001781
7.095000E-8	0.001789
7.100000E-8	0.001922
7.105000E-8	0.002188
7.110000E-8	0.002094
7.115000E-8	0.002320
7.120000E-8	0.002297
7.125000E-8	0.002469
7.130000E-8	0.002437
7.135000E-8	0.002492
7.140000E-8	0.002375
7.145000E-8	0.002375
7.150000E-8	0.002156
7.155000E-8	0.002344
7.160000E-8	0.002125
7.165000E-8	0.002219
7.170000E-8	0.002031
7.175000E-8	0.002063
7.180000E-8	0.001914
7.185000E-8	0.001914
7.190000E-8	0.001820
7.195000E-8	0.001695
7.200000E-8	0.001563
7.205000E-8	0.001680
7.210000E-8	0.001555
7.215000E-8	0.001766
7.220000E-8	0.001828
7.225000E-8	0.001820
7.230000E-8	0.001695
7.235000E-8	0.001836
7.240000E-8	0.001820
7.245000E-8	0.002000
7.250000E-8	0.001969
7.255000E-8	0.002102
7.260000E-8	0.002102
7.265000E-8	0.002102
7.270000E-8	0.002039
7.275000E-8	0.002164
7.280000E-8	0.001937
7.285000E-8	0.001703
7.290000E-8	0.001672
7.295000E-8	0.001586
7.300000E-8	0.001453
7.305000E-8	0.001523
7.310000E-8	0.001391
7.315000E-8	0.001398
7.320000E-8	0.001000
7.325000E-8	0.000891
7.330000E-8	0.000953
7.335000E-8	0.001063
7.340000E-8	0.000992
7.345000E-8	0.001187
7.350000E-8	0.001141
7.355000E-8	0.001258
7.360000E-8	0.001328
7.365000E-8	0.001695
7.370000E-8	0.001961
7.375000E-8	0.002305
7.380000E-8	0.002414
7.385000E-8	0.002625
7.390000E-8	0.002336
7.395000E-8	0.002492
7.400000E-8	0.002422
7.405000E-8	0.002453
7.410000E-8	0.002516
7.415000E-8	0.002516
7.420000E-8	0.002375
7.425000E-8	0.002242
7.430000E-8	0.001969
7.435000E-8	0.001914
7.440000E-8	0.001602
7.445000E-8	0.001484
7.450000E-8	0.001313
7.455000E-8	0.001414
7.460000E-8	0.001352
7.465000E-8	0.001250
7.470000E-8	0.001109
7.475000E-8	0.001344
7.480000E-8	0.001156
7.485000E-8	0.001469
7.490000E-8	0.001547
7.495000E-8	0.002070
7.500000E-8	0.002117
7.505000E-8	0.002305
7.510000E-8	0.002320
7.515000E-8	0.002531
7.520000E-8	0.002398
7.525000E-8	0.002727
7.530000E-8	0.002406
7.535000E-8	0.002344
7.540000E-8	0.002180
7.545000E-8	0.002109
7.550000E-8	0.001789
7.555000E-8	0.001805
7.560000E-8	0.001672
7.565000E-8	0.001383
7.570000E-8	0.001430
7.575000E-8	0.001344
7.580000E-8	0.001305
7.585000E-8	0.001250
7.590000E-8	0.001078
7.595000E-8	0.001422
7.600000E-8	0.001531
7.605000E-8	0.001820
7.610000E-8	0.001727
7.615000E-8	0.001883
7.620000E-8	0.001844
7.625000E-8	0.001773
7.630000E-8	0.001703
7.635000E-8	0.001977
7.640000E-8	0.002086
7.645000E-8	0.002289
7.650000E-8	0.002266
7.655000E-8	0.002273
7.660000E-8	0.002055
7.665000E-8	0.002273
7.670000E-8	0.001992
7.675000E-8	0.001914
7.680000E-8	0.001750
7.685000E-8	0.001695
7.690000E-8	0.001609
7.695000E-8	0.001398
7.700000E-8	0.001367
7.705000E-8	0.001266
7.710000E-8	0.001273
7.715000E-8	0.001430
7.720000E-8	0.001180
7.725000E-8	0.001477
7.730000E-8	0.001672
7.735000E-8	0.001773
7.740000E-8	0.001781
7.745000E-8	0.001891
7.750000E-8	0.001852
7.755000E-8	0.001852
7.760000E-8	0.001836
7.765000E-8	0.001984
7.770000E-8	0.002078
7.775000E-8	0.002086
7.780000E-8	0.002141
7.785000E-8	0.002195
7.790000E-8	0.002375
7.795000E-8	0.002672
7.800000E-8	0.002492
7.805000E-8	0.002281
7.810000E-8	0.002172
7.815000E-8	0.002039
7.820000E-8	0.001813
7.825000E-8	0.001805
7.830000E-8	0.001758
7.835000E-8	0.001687
7.840000E-8	0.001555
7.845000E-8	0.001375
7.850000E-8	0.001391
7.855000E-8	0.001492
7.860000E-8	0.001508
7.865000E-8	0.001453
7.870000E-8	0.001695
7.875000E-8	0.001836
7.880000E-8	0.001898
7.885000E-8	0.001836
7.890000E-8	0.001945
7.895000E-8	0.002188
7.900000E-8	0.002094
7.905000E-8	0.002125
7.910000E-8	0.001977
7.915000E-8	0.002070
7.920000E-8	0.002055
7.925000E-8	0.001992
7.930000E-8	0.001750
7.935000E-8	0.001805
7.940000E-8	0.001680
7.945000E-8	0.001734
7.950000E-8	0.001469
7.955000E-8	0.001539
7.960000E-8	0.001414
7.965000E-8	0.001492
7.970000E-8	0.001516
7.975000E-8	0.001508
7.980000E-8	0.001406
7.985000E-8	0.001594
7.990000E-8	0.001734
7.995000E-8	0.001805
8.000000E-8	0.001844
8.005000E-8	0.001891
8.010000E-8	0.001906
8.015000E-8	0.002055
8.020000E-8	0.002094
8.025000E-8	0.002172
8.030000E-8	0.002125
8.035000E-8	0.002164
8.040000E-8	0.002188
8.045000E-8	0.002133
8.050000E-8	0.001945
8.055000E-8	0.002109
8.060000E-8	0.001805
8.065000E-8	0.001883
8.070000E-8	0.001953
8.075000E-8	0.001836
8.080000E-8	0.001719
8.085000E-8	0.001828
8.090000E-8	0.001625
8.095000E-8	0.001742
8.100000E-8	0.001750
8.105000E-8	0.001750
8.110000E-8	0.001703
8.115000E-8	0.001672
8.120000E-8	0.001437
8.125000E-8	0.001563
8.130000E-8	0.001617
8.135000E-8	0.001672
8.140000E-8	0.001570
8.145000E-8	0.001758
8.150000E-8	0.001797
8.155000E-8	0.001852
8.160000E-8	0.001930
8.165000E-8	0.001977
8.170000E-8	0.001937
8.175000E-8	0.001875
8.180000E-8	0.001891
8.185000E-8	0.002109
8.190000E-8	0.002156
8.195000E-8	0.002172
8.200000E-8	0.001859
8.205000E-8	0.002070
8.210000E-8	0.001937
8.215000E-8	0.001844
8.220000E-8	0.001633
8.225000E-8	0.001602
8.230000E-8	0.001508
8.235000E-8	0.001531
8.240000E-8	0.001516
8.245000E-8	0.001609
8.250000E-8	0.001555
8.255000E-8	0.001547
8.260000E-8	0.001484
8.265000E-8	0.001664
8.270000E-8	0.001484
8.275000E-8	0.001500
8.280000E-8	0.001695
8.285000E-8	0.001742
8.290000E-8	0.001781
8.295000E-8	0.001750
8.300000E-8	0.001789
8.305000E-8	0.002023
8.310000E-8	0.002125
8.315000E-8	0.002203
8.320000E-8	0.002148
8.325000E-8	0.002070
8.330000E-8	0.001805
8.335000E-8	0.001656
8.340000E-8	0.001414
8.345000E-8	0.001633
8.350000E-8	0.001758
8.355000E-8	0.001687
8.360000E-8	0.001406
8.365000E-8	0.001531
8.370000E-8	0.001602
8.375000E-8	0.001727
8.380000E-8	0.001625
8.385000E-8	0.001492
8.390000E-8	0.001344
8.395000E-8	0.001391
8.400000E-8	0.001297
8.405000E-8	0.001305
8.410000E-8	0.001492
8.415000E-8	0.001469
8.420000E-8	0.001695
8.425000E-8	0.002031
8.430000E-8	0.001820
8.435000E-8	0.002078
8.440000E-8	0.001953
8.445000E-8	0.002234
8.450000E-8	0.002094
8.455000E-8	0.002250
8.460000E-8	0.001969
8.465000E-8	0.001922
8.470000E-8	0.001672
8.475000E-8	0.001883
8.480000E-8	0.001492
8.485000E-8	0.001617
8.490000E-8	0.001406
8.495000E-8	0.001391
8.500000E-8	0.001148
8.505000E-8	0.001070
8.510000E-8	0.000891
8.515000E-8	0.001117
8.520000E-8	0.000984
8.525000E-8	0.001109
8.530000E-8	0.001227
8.535000E-8	0.001453
8.540000E-8	0.001539
8.545000E-8	0.001695
8.550000E-8	0.001625
8.555000E-8	0.001813
8.560000E-8	0.001836
8.565000E-8	0.002086
8.570000E-8	0.001984
8.575000E-8	0.002031
8.580000E-8	0.001930
8.585000E-8	0.001602
8.590000E-8	0.001703
8.595000E-8	0.001797
8.600000E-8	0.001672
8.605000E-8	0.001547
8.610000E-8	0.001375
8.615000E-8	0.001422
8.620000E-8	0.001430
8.625000E-8	0.001344
8.630000E-8	0.001352
8.635000E-8	0.001445
8.640000E-8	0.001328
8.645000E-8	0.001344
8.650000E-8	0.001336
8.655000E-8	0.001398
8.660000E-8	0.001336
8.665000E-8	0.001523
8.670000E-8	0.001609
8.675000E-8	0.001719
8.680000E-8	0.001930
8.685000E-8	0.001969
8.690000E-8	0.002078
8.695000E-8	0.002063
8.700000E-8	0.001891
8.705000E-8	0.002008
8.710000E-8	0.001789
8.715000E-8	0.001680
8.720000E-8	0.001656
8.725000E-8	0.001625
8.730000E-8	0.001437
8.735000E-8	0.001273
8.740000E-8	0.001102
8.745000E-8	0.001219
8.750000E-8	0.001250
8.755000E-8	0.001336
8.760000E-8	0.001125
8.765000E-8	0.001414
8.770000E-8	0.001172
8.775000E-8	0.001289
8.780000E-8	0.001641
8.785000E-8	0.001672
8.790000E-8	0.001602
8.795000E-8	0.001727
8.800000E-8	0.001852
8.805000E-8	0.001898
8.810000E-8	0.001937
8.815000E-8	0.002039
8.820000E-8	0.001930
8.825000E-8	0.001969
8.830000E-8	0.002055
8.835000E-8	0.002047
8.840000E-8	0.001867
8.845000E-8	0.001867
8.850000E-8	0.001906
8.855000E-8	0.001961
8.860000E-8	0.001828
8.865000E-8	0.001930
8.870000E-8	0.001867
8.875000E-8	0.001984
8.880000E-8	0.001781
8.885000E-8	0.001609
8.890000E-8	0.001500
8.895000E-8	0.001859
8.900000E-8	0.001750
8.905000E-8	0.001750
8.910000E-8	0.001523
8.915000E-8	0.001773
8.920000E-8	0.001789
8.925000E-8	0.001781
8.930000E-8	0.001711
8.935000E-8	0.001891
8.940000E-8	0.001852
8.945000E-8	0.002141
8.950000E-8	0.001773
8.955000E-8	0.002156
8.960000E-8	0.002008
8.965000E-8	0.002016
8.970000E-8	0.001781
8.975000E-8	0.001625
8.980000E-8	0.001711
8.985000E-8	0.001844
8.990000E-8	0.001602
8.995000E-8	0.001625
9.000000E-8	0.001711
9.005000E-8	0.001664
9.010000E-8	0.001570
9.015000E-8	0.001547
9.020000E-8	0.001586
9.025000E-8	0.001602
9.030000E-8	0.001578
9.035000E-8	0.001625
9.040000E-8	0.001625
9.045000E-8	0.001609
9.050000E-8	0.001453
9.055000E-8	0.001828
9.060000E-8	0.001563
9.065000E-8	0.001836
9.070000E-8	0.001836
9.075000E-8	0.002250
9.080000E-8	0.002125
9.085000E-8	0.002172
9.090000E-8	0.002055
9.095000E-8	0.002023
9.100000E-8	0.001969
9.105000E-8	0.001828
9.110000E-8	0.001930
9.115000E-8	0.001875
9.120000E-8	0.001945
9.125000E-8	0.001734
9.130000E-8	0.001547
9.135000E-8	0.001563
9.140000E-8	0.001516
9.145000E-8	0.001563
9.150000E-8	0.001383
9.155000E-8	0.001594
9.160000E-8	0.001516
9.165000E-8	0.001570
9.170000E-8	0.001594
9.175000E-8	0.001563
9.180000E-8	0.001375
9.185000E-8	0.001328
9.190000E-8	0.001414
9.195000E-8	0.001617
9.200000E-8	0.001625
9.205000E-8	0.001719
9.210000E-8	0.001703
9.215000E-8	0.001953
9.220000E-8	0.001930
9.225000E-8	0.001977
9.230000E-8	0.001930
9.235000E-8	0.002188
9.240000E-8	0.002031
9.245000E-8	0.001961
9.250000E-8	0.001781
9.255000E-8	0.001727
9.260000E-8	0.001359
9.265000E-8	0.001352
9.270000E-8	0.001156
9.275000E-8	0.001320
9.280000E-8	0.001320
9.285000E-8	0.001391
9.290000E-8	0.001398
9.295000E-8	0.001477
9.300000E-8	0.001359
9.305000E-8	0.001461
9.310000E-8	0.001422
9.315000E-8	0.001547
9.320000E-8	0.001594
9.325000E-8	0.001781
9.330000E-8	0.001703
9.335000E-8	0.001984
9.340000E-8	0.001797
9.345000E-8	0.001937
9.350000E-8	0.001719
9.355000E-8	0.002031
9.360000E-8	0.002047
9.365000E-8	0.002023
9.370000E-8	0.001773
9.375000E-8	0.001937
9.380000E-8	0.001664
9.385000E-8	0.001672
9.390000E-8	0.001687
9.395000E-8	0.001703
9.400000E-8	0.001711
9.405000E-8	0.001500
9.410000E-8	0.001414
9.415000E-8	0.001422
9.420000E-8	0.001359
9.425000E-8	0.001313
9.430000E-8	0.001484
9.435000E-8	0.001422
9.440000E-8	0.001352
9.445000E-8	0.001508
9.450000E-8	0.001531
9.455000E-8	0.001891
9.460000E-8	0.001875
9.465000E-8	0.001906
9.470000E-8	0.001875
9.475000E-8	0.002031
9.480000E-8	0.001734
9.485000E-8	0.001664
9.490000E-8	0.001766
9.495000E-8	0.001891
9.500000E-8	0.001633
9.505000E-8	0.001734
9.510000E-8	0.001547
9.515000E-8	0.001563
9.520000E-8	0.001555
9.525000E-8	0.001531
9.530000E-8	0.001437
9.535000E-8	0.001836
9.540000E-8	0.001859
9.545000E-8	0.001961
9.550000E-8	0.001914
9.555000E-8	0.001828
9.560000E-8	0.001727
9.565000E-8	0.001703
9.570000E-8	0.001617
9.575000E-8	0.001492
9.580000E-8	0.001375
9.585000E-8	0.001383
9.590000E-8	0.001500
9.595000E-8	0.001680
9.600000E-8	0.001641
9.605000E-8	0.001781
9.610000E-8	0.002039
9.615000E-8	0.002117
9.620000E-8	0.002203
9.625000E-8	0.002195
9.630000E-8	0.002219
9.635000E-8	0.002094
9.640000E-8	0.001977
9.645000E-8	0.001906
9.650000E-8	0.001633
9.655000E-8	0.001563
9.660000E-8	0.001477
9.665000E-8	0.001437
9.670000E-8	0.001328
9.675000E-8	0.001273
9.680000E-8	0.001391
9.685000E-8	0.001469
9.690000E-8	0.001391
9.695000E-8	0.001680
9.700000E-8	0.001586
9.705000E-8	0.001477
9.710000E-8	0.001422
9.715000E-8	0.001547
9.720000E-8	0.001406
9.725000E-8	0.001687
9.730000E-8	0.001578
9.735000E-8	0.001695
9.740000E-8	0.001578
9.745000E-8	0.001719
9.750000E-8	0.001930
9.755000E-8	0.001977
9.760000E-8	0.002031
9.765000E-8	0.002047
9.770000E-8	0.002047
9.775000E-8	0.002063
9.780000E-8	0.001906
9.785000E-8	0.002125
9.790000E-8	0.001891
9.795000E-8	0.001695
9.800000E-8	0.001414
9.805000E-8	0.001344
9.810000E-8	0.001406
9.815000E-8	0.001453
9.820000E-8	0.001617
9.825000E-8	0.001742
9.830000E-8	0.001797
9.835000E-8	0.001937
9.840000E-8	0.001789
9.845000E-8	0.002008
9.850000E-8	0.002008
9.855000E-8	0.002250
9.860000E-8	0.002016
9.865000E-8	0.002148
9.870000E-8	0.001883
9.875000E-8	0.002141
9.880000E-8	0.001891
9.885000E-8	0.001898
9.890000E-8	0.001883
9.895000E-8	0.001789
9.900000E-8	0.001695
9.905000E-8	0.001617
9.910000E-8	0.001484
9.915000E-8	0.001398
9.920000E-8	0.001375
9.925000E-8	0.001359
9.930000E-8	0.001148
9.935000E-8	0.001469
9.940000E-8	0.001375
9.945000E-8	0.001273
9.950000E-8	0.001336
9.955000E-8	0.001320
9.960000E-8	0.001242
9.965000E-8	0.001469
9.970000E-8	0.001469
9.975000E-8	0.001805
9.980000E-8	0.001813
9.985000E-8	0.001805
9.990000E-8	0.001883
9.995000E-8	0.002055
