LabVIEW Measurement	
Writer_Version	2
Reader_Version	2
Separator	Tab
Decimal_Separator	.
Multi_Headings	No
X_Columns	Multi
Time_Pref	Relative
Operator	TG lab
Date	2015/03/06
Time	18:25:43.9020667076110839844
***End_of_Header***	
	
Channels	1	
Samples	2000	
Date	2015/03/06	
Time	18:25:43.9020667076110839844	
X_Dimension	Time	
X0	0.0000000000000000E+0	
Delta_X	5.000000E-11	
***End_of_Header***		
X_Value	Untitled	Comment
0.000000	0.001477
5.000000E-11	0.001539
1.000000E-10	0.001328
1.500000E-10	0.001375
2.000000E-10	0.001422
2.500000E-10	0.001602
3.000000E-10	0.001484
3.500000E-10	0.001586
4.000000E-10	0.001695
4.500000E-10	0.001633
5.000000E-10	0.001570
5.500000E-10	0.001750
6.000000E-10	0.001672
6.500000E-10	0.001523
7.000000E-10	0.001437
7.500000E-10	0.001602
8.000000E-10	0.001656
8.500000E-10	0.001453
9.000000E-10	0.001703
9.500000E-10	0.001727
1.000000E-9	0.001609
1.050000E-9	0.001836
1.100000E-9	0.001773
1.150000E-9	0.002000
1.200000E-9	0.001836
1.250000E-9	0.001969
1.300000E-9	0.001977
1.350000E-9	0.002086
1.400000E-9	0.002094
1.450000E-9	0.001961
1.500000E-9	0.001977
1.550000E-9	0.002008
1.600000E-9	0.002164
1.650000E-9	0.002242
1.700000E-9	0.002312
1.750000E-9	0.002437
1.800000E-9	0.002297
1.850000E-9	0.002297
1.900000E-9	0.002344
1.950000E-9	0.002414
2.000000E-9	0.002289
2.050000E-9	0.002398
2.100000E-9	0.002156
2.150000E-9	0.002492
2.200000E-9	0.002406
2.250000E-9	0.002648
2.300000E-9	0.002641
2.350000E-9	0.002844
2.400000E-9	0.003000
2.450000E-9	0.002945
2.500000E-9	0.003063
2.550000E-9	0.003117
2.600000E-9	0.003078
2.650000E-9	0.003125
2.700000E-9	0.003031
2.750000E-9	0.003195
2.800000E-9	0.002828
2.850000E-9	0.002609
2.900000E-9	0.002437
2.950000E-9	0.002711
3.000000E-9	0.002820
3.050000E-9	0.002578
3.100000E-9	0.002586
3.150000E-9	0.002609
3.200000E-9	0.002750
3.250000E-9	0.002789
3.300000E-9	0.002711
3.350000E-9	0.002930
3.400000E-9	0.002977
3.450000E-9	0.002906
3.500000E-9	0.003047
3.550000E-9	0.003031
3.600000E-9	0.003055
3.650000E-9	0.003266
3.700000E-9	0.003094
3.750000E-9	0.003328
3.800000E-9	0.003469
3.850000E-9	0.003773
3.900000E-9	0.003977
3.950000E-9	0.004305
4.000000E-9	0.004367
4.050000E-9	0.004781
4.100000E-9	0.005008
4.150000E-9	0.005523
4.200000E-9	0.005758
4.250000E-9	0.006289
4.300000E-9	0.006773
4.350000E-9	0.007461
4.400000E-9	0.008031
4.450000E-9	0.009203
4.500000E-9	0.010094
4.550000E-9	0.011422
4.600000E-9	0.012711
4.650000E-9	0.014328
4.700000E-9	0.015977
4.750000E-9	0.017680
4.800000E-9	0.019227
4.850000E-9	0.020875
4.900000E-9	0.022586
4.950000E-9	0.024500
5.000000E-9	0.026203
5.050000E-9	0.028383
5.100000E-9	0.030227
5.150000E-9	0.032297
5.200000E-9	0.034336
5.250000E-9	0.036273
5.300000E-9	0.038047
5.350000E-9	0.039625
5.400000E-9	0.041164
5.450000E-9	0.042188
5.500000E-9	0.043031
5.550000E-9	0.043531
5.600000E-9	0.043875
5.650000E-9	0.043867
5.700000E-9	0.043266
5.750000E-9	0.042586
5.800000E-9	0.041531
5.850000E-9	0.039984
5.900000E-9	0.038117
5.950000E-9	0.035875
6.000000E-9	0.033641
6.050000E-9	0.031336
6.100000E-9	0.028883
6.150000E-9	0.027047
6.200000E-9	0.025352
6.250000E-9	0.024094
6.300000E-9	0.023172
6.350000E-9	0.022914
6.400000E-9	0.022750
6.450000E-9	0.022953
6.500000E-9	0.023648
6.550000E-9	0.024320
6.600000E-9	0.025211
6.650000E-9	0.026125
6.700000E-9	0.026859
6.750000E-9	0.027602
6.800000E-9	0.027953
6.850000E-9	0.028539
6.900000E-9	0.028633
6.950000E-9	0.028586
7.000000E-9	0.028180
7.050000E-9	0.027469
7.100000E-9	0.026750
7.150000E-9	0.025742
7.200000E-9	0.024297
7.250000E-9	0.022906
7.300000E-9	0.021281
7.350000E-9	0.019758
7.400000E-9	0.018359
7.450000E-9	0.017023
7.500000E-9	0.015898
7.550000E-9	0.015086
7.600000E-9	0.014523
7.650000E-9	0.014219
7.700000E-9	0.014352
7.750000E-9	0.014664
7.800000E-9	0.015242
7.850000E-9	0.015789
7.900000E-9	0.016602
7.950000E-9	0.017539
8.000000E-9	0.018078
8.050000E-9	0.018961
8.100000E-9	0.019578
8.150000E-9	0.020078
8.200000E-9	0.020398
8.250000E-9	0.020484
8.300000E-9	0.020172
8.350000E-9	0.019984
8.400000E-9	0.018930
8.450000E-9	0.018180
8.500000E-9	0.016977
8.550000E-9	0.015750
8.600000E-9	0.014430
8.650000E-9	0.013320
8.700000E-9	0.012125
8.750000E-9	0.011086
8.800000E-9	0.010203
8.850000E-9	0.009516
8.900000E-9	0.008852
8.950000E-9	0.008586
9.000000E-9	0.008406
9.050000E-9	0.008430
9.100000E-9	0.008789
9.150000E-9	0.009398
9.200000E-9	0.010102
9.250000E-9	0.010938
9.300000E-9	0.011664
9.350000E-9	0.012664
9.400000E-9	0.013281
9.450000E-9	0.013758
9.500000E-9	0.014430
9.550000E-9	0.014695
9.600000E-9	0.014555
9.650000E-9	0.014297
9.700000E-9	0.013750
9.750000E-9	0.013383
9.800000E-9	0.012484
9.850000E-9	0.011750
9.900000E-9	0.010969
9.950000E-9	0.010094
1.000000E-8	0.009031
1.005000E-8	0.008320
1.010000E-8	0.007398
1.015000E-8	0.006797
1.020000E-8	0.006250
1.025000E-8	0.005656
1.030000E-8	0.005484
1.035000E-8	0.005641
1.040000E-8	0.005789
1.045000E-8	0.006172
1.050000E-8	0.006773
1.055000E-8	0.007469
1.060000E-8	0.008203
1.065000E-8	0.009172
1.070000E-8	0.009922
1.075000E-8	0.010602
1.080000E-8	0.011086
1.085000E-8	0.011531
1.090000E-8	0.011922
1.095000E-8	0.011867
1.100000E-8	0.011500
1.105000E-8	0.011367
1.110000E-8	0.010602
1.115000E-8	0.009977
1.120000E-8	0.009156
1.125000E-8	0.008313
1.130000E-8	0.007367
1.135000E-8	0.006547
1.140000E-8	0.005398
1.145000E-8	0.004625
1.150000E-8	0.003852
1.155000E-8	0.003617
1.160000E-8	0.003258
1.165000E-8	0.003125
1.170000E-8	0.003352
1.175000E-8	0.003555
1.180000E-8	0.003969
1.185000E-8	0.004648
1.190000E-8	0.005398
1.195000E-8	0.006273
1.200000E-8	0.006922
1.205000E-8	0.007664
1.210000E-8	0.008336
1.215000E-8	0.009125
1.220000E-8	0.009312
1.225000E-8	0.009367
1.230000E-8	0.009391
1.235000E-8	0.009328
1.240000E-8	0.008797
1.245000E-8	0.008219
1.250000E-8	0.007406
1.255000E-8	0.006719
1.260000E-8	0.005406
1.265000E-8	0.004641
1.270000E-8	0.003812
1.275000E-8	0.003008
1.280000E-8	0.002211
1.285000E-8	0.001820
1.290000E-8	0.001492
1.295000E-8	0.001445
1.300000E-8	0.001742
1.305000E-8	0.001945
1.310000E-8	0.002352
1.315000E-8	0.003008
1.320000E-8	0.003703
1.325000E-8	0.004609
1.330000E-8	0.005352
1.335000E-8	0.006430
1.340000E-8	0.006953
1.345000E-8	0.007703
1.350000E-8	0.008164
1.355000E-8	0.008563
1.360000E-8	0.008859
1.365000E-8	0.008563
1.370000E-8	0.008289
1.375000E-8	0.007891
1.380000E-8	0.007078
1.385000E-8	0.006242
1.390000E-8	0.005477
1.395000E-8	0.004438
1.400000E-8	0.003398
1.405000E-8	0.002617
1.410000E-8	0.001914
1.415000E-8	0.001195
1.420000E-8	0.000703
1.425000E-8	0.000625
1.430000E-8	0.000539
1.435000E-8	0.001055
1.440000E-8	0.001492
1.445000E-8	0.002094
1.450000E-8	0.002805
1.455000E-8	0.003625
1.460000E-8	0.004234
1.465000E-8	0.005188
1.470000E-8	0.006016
1.475000E-8	0.006625
1.480000E-8	0.007148
1.485000E-8	0.007422
1.490000E-8	0.007445
1.495000E-8	0.007445
1.500000E-8	0.007305
1.505000E-8	0.006844
1.510000E-8	0.006023
1.515000E-8	0.005156
1.520000E-8	0.004109
1.525000E-8	0.003125
1.530000E-8	0.002180
1.535000E-8	0.001273
1.540000E-8	0.000313
1.545000E-8	-0.000195
1.550000E-8	-0.000648
1.555000E-8	-0.000742
1.560000E-8	-0.000672
1.565000E-8	-0.000281
1.570000E-8	7.031250E-5
1.575000E-8	0.000914
1.580000E-8	0.001531
1.585000E-8	0.002484
1.590000E-8	0.003453
1.595000E-8	0.004398
1.600000E-8	0.005195
1.605000E-8	0.006156
1.610000E-8	0.006727
1.615000E-8	0.007078
1.620000E-8	0.007375
1.625000E-8	0.007422
1.630000E-8	0.007016
1.635000E-8	0.006687
1.640000E-8	0.005898
1.645000E-8	0.005328
1.650000E-8	0.004195
1.655000E-8	0.003156
1.660000E-8	0.002297
1.665000E-8	0.001695
1.670000E-8	0.000648
1.675000E-8	-0.000188
1.680000E-8	-0.000695
1.685000E-8	-0.000969
1.690000E-8	-0.000906
1.695000E-8	-0.000719
1.700000E-8	-0.000211
1.705000E-8	0.000406
1.710000E-8	0.001164
1.715000E-8	0.002125
1.720000E-8	0.003141
1.725000E-8	0.004148
1.730000E-8	0.004875
1.735000E-8	0.005570
1.740000E-8	0.006172
1.745000E-8	0.006617
1.750000E-8	0.006891
1.755000E-8	0.006578
1.760000E-8	0.006188
1.765000E-8	0.005609
1.770000E-8	0.004883
1.775000E-8	0.004023
1.780000E-8	0.002953
1.785000E-8	0.002125
1.790000E-8	0.001055
1.795000E-8	0.000477
1.800000E-8	-0.000430
1.805000E-8	-0.000820
1.810000E-8	-0.001109
1.815000E-8	-0.001453
1.820000E-8	-0.001500
1.825000E-8	-0.000930
1.830000E-8	-0.000563
1.835000E-8	-0.000172
1.840000E-8	0.000625
1.845000E-8	0.001523
1.850000E-8	0.002422
1.855000E-8	0.003516
1.860000E-8	0.004063
1.865000E-8	0.004898
1.870000E-8	0.005562
1.875000E-8	0.005828
1.880000E-8	0.005867
1.885000E-8	0.005781
1.890000E-8	0.005547
1.895000E-8	0.005242
1.900000E-8	0.004547
1.905000E-8	0.003906
1.910000E-8	0.003195
1.915000E-8	0.002359
1.920000E-8	0.001633
1.925000E-8	0.000711
1.930000E-8	0.000000
1.935000E-8	-0.000461
1.940000E-8	-0.000703
1.945000E-8	-0.000727
1.950000E-8	-0.000695
1.955000E-8	-0.000406
1.960000E-8	-9.375000E-5
1.965000E-8	0.000422
1.970000E-8	0.001219
1.975000E-8	0.001797
1.980000E-8	0.002344
1.985000E-8	0.003188
1.990000E-8	0.003633
1.995000E-8	0.004375
2.000000E-8	0.005102
2.005000E-8	0.005305
2.010000E-8	0.005156
2.015000E-8	0.005445
2.020000E-8	0.005141
2.025000E-8	0.004969
2.030000E-8	0.004406
2.035000E-8	0.003875
2.040000E-8	0.003148
2.045000E-8	0.002344
2.050000E-8	0.001453
2.055000E-8	0.000930
2.060000E-8	0.000172
2.065000E-8	-0.000352
2.070000E-8	-0.000711
2.075000E-8	-0.000891
2.080000E-8	-0.001172
2.085000E-8	-0.001008
2.090000E-8	-0.000789
2.095000E-8	-0.000273
2.100000E-8	0.000164
2.105000E-8	0.000953
2.110000E-8	0.001758
2.115000E-8	0.002398
2.120000E-8	0.003312
2.125000E-8	0.003977
2.130000E-8	0.004281
2.135000E-8	0.004594
2.140000E-8	0.004836
2.145000E-8	0.005227
2.150000E-8	0.005023
2.155000E-8	0.004984
2.160000E-8	0.004375
2.165000E-8	0.003797
2.170000E-8	0.003078
2.175000E-8	0.002547
2.180000E-8	0.001586
2.185000E-8	0.000852
2.190000E-8	0.000367
2.195000E-8	-0.000172
2.200000E-8	-0.000477
2.205000E-8	-0.000539
2.210000E-8	-0.000813
2.215000E-8	-0.000992
2.220000E-8	-0.000875
2.225000E-8	-0.000188
2.230000E-8	0.000188
2.235000E-8	0.000758
2.240000E-8	0.001437
2.245000E-8	0.002133
2.250000E-8	0.002844
2.255000E-8	0.003672
2.260000E-8	0.004281
2.265000E-8	0.004680
2.270000E-8	0.005023
2.275000E-8	0.005070
2.280000E-8	0.005047
2.285000E-8	0.004930
2.290000E-8	0.004523
2.295000E-8	0.004320
2.300000E-8	0.003523
2.305000E-8	0.002945
2.310000E-8	0.002141
2.315000E-8	0.001437
2.320000E-8	0.000773
2.325000E-8	3.906250E-5
2.330000E-8	-0.000422
2.335000E-8	-0.000813
2.340000E-8	-0.001141
2.345000E-8	-0.001031
2.350000E-8	-0.001016
2.355000E-8	-0.000750
2.360000E-8	-0.000117
2.365000E-8	0.000453
2.370000E-8	0.001078
2.375000E-8	0.002086
2.380000E-8	0.002617
2.385000E-8	0.003430
2.390000E-8	0.003812
2.395000E-8	0.004484
2.400000E-8	0.004797
2.405000E-8	0.005094
2.410000E-8	0.004977
2.415000E-8	0.004922
2.420000E-8	0.004664
2.425000E-8	0.004359
2.430000E-8	0.003789
2.435000E-8	0.003000
2.440000E-8	0.001867
2.445000E-8	0.001320
2.450000E-8	0.000555
2.455000E-8	-0.000141
2.460000E-8	-0.000648
2.465000E-8	-0.000859
2.470000E-8	-0.000984
2.475000E-8	-0.001133
2.480000E-8	-0.001086
2.485000E-8	-0.000773
2.490000E-8	-0.000555
2.495000E-8	0.000250
2.500000E-8	0.000727
2.505000E-8	0.001563
2.510000E-8	0.002375
2.515000E-8	0.002969
2.520000E-8	0.003734
2.525000E-8	0.004438
2.530000E-8	0.004750
2.535000E-8	0.005063
2.540000E-8	0.004930
2.545000E-8	0.004859
2.550000E-8	0.004289
2.555000E-8	0.003992
2.560000E-8	0.003250
2.565000E-8	0.002742
2.570000E-8	0.002055
2.575000E-8	0.001211
2.580000E-8	0.000656
2.585000E-8	-8.593750E-5
2.590000E-8	-0.000578
2.595000E-8	-0.001094
2.600000E-8	-0.001336
2.605000E-8	-0.001187
2.610000E-8	-0.001219
2.615000E-8	-0.000797
2.620000E-8	-0.000281
2.625000E-8	0.000375
2.630000E-8	0.000828
2.635000E-8	0.001617
2.640000E-8	0.002227
2.645000E-8	0.003031
2.650000E-8	0.003500
2.655000E-8	0.004008
2.660000E-8	0.004188
2.665000E-8	0.004898
2.670000E-8	0.004961
2.675000E-8	0.004789
2.680000E-8	0.004531
2.685000E-8	0.004086
2.690000E-8	0.003344
2.695000E-8	0.002844
2.700000E-8	0.001914
2.705000E-8	0.001187
2.710000E-8	0.000414
2.715000E-8	-0.000336
2.720000E-8	-0.000867
2.725000E-8	-0.001187
2.730000E-8	-0.001523
2.735000E-8	-0.001656
2.740000E-8	-0.001578
2.745000E-8	-0.000969
2.750000E-8	-0.000461
2.755000E-8	0.000305
2.760000E-8	0.000875
2.765000E-8	0.001430
2.770000E-8	0.002039
2.775000E-8	0.002648
2.780000E-8	0.003172
2.785000E-8	0.003812
2.790000E-8	0.004164
2.795000E-8	0.004719
2.800000E-8	0.004508
2.805000E-8	0.004758
2.810000E-8	0.004445
2.815000E-8	0.004070
2.820000E-8	0.003461
2.825000E-8	0.002742
2.830000E-8	0.002180
2.835000E-8	0.001805
2.840000E-8	0.001031
2.845000E-8	0.000477
2.850000E-8	-0.000227
2.855000E-8	-0.000523
2.860000E-8	-0.000719
2.865000E-8	-0.000758
2.870000E-8	-0.000828
2.875000E-8	-0.000469
2.880000E-8	-0.000156
2.885000E-8	0.000523
2.890000E-8	0.001117
2.895000E-8	0.001563
2.900000E-8	0.002047
2.905000E-8	0.002852
2.910000E-8	0.003219
2.915000E-8	0.003648
2.920000E-8	0.003898
2.925000E-8	0.003883
2.930000E-8	0.004109
2.935000E-8	0.004039
2.940000E-8	0.003625
2.945000E-8	0.003477
2.950000E-8	0.003117
2.955000E-8	0.002500
2.960000E-8	0.001875
2.965000E-8	0.001453
2.970000E-8	0.000844
2.975000E-8	0.000398
2.980000E-8	-0.000141
2.985000E-8	-0.000445
2.990000E-8	-0.000664
2.995000E-8	-0.000695
3.000000E-8	-0.000625
3.005000E-8	-0.000336
3.010000E-8	-0.000211
3.015000E-8	0.000102
3.020000E-8	0.000602
3.025000E-8	0.001008
3.030000E-8	0.001609
3.035000E-8	0.002391
3.040000E-8	0.002898
3.045000E-8	0.003672
3.050000E-8	0.004016
3.055000E-8	0.004250
3.060000E-8	0.004117
3.065000E-8	0.003953
3.070000E-8	0.003563
3.075000E-8	0.003367
3.080000E-8	0.002977
3.085000E-8	0.002664
3.090000E-8	0.001984
3.095000E-8	0.001727
3.100000E-8	0.001148
3.105000E-8	0.000516
3.110000E-8	7.031250E-5
3.115000E-8	-0.000211
3.120000E-8	-0.000711
3.125000E-8	-0.000531
3.130000E-8	-0.000648
3.135000E-8	-0.000320
3.140000E-8	-0.000164
3.145000E-8	0.000375
3.150000E-8	0.000727
3.155000E-8	0.001273
3.160000E-8	0.001695
3.165000E-8	0.002250
3.170000E-8	0.002883
3.175000E-8	0.003406
3.180000E-8	0.003938
3.185000E-8	0.004203
3.190000E-8	0.004039
3.195000E-8	0.004125
3.200000E-8	0.004008
3.205000E-8	0.003734
3.210000E-8	0.003227
3.215000E-8	0.003008
3.220000E-8	0.002414
3.225000E-8	0.001891
3.230000E-8	0.001406
3.235000E-8	0.000875
3.240000E-8	0.000281
3.245000E-8	8.593750E-5
3.250000E-8	-0.000133
3.255000E-8	-0.000422
3.260000E-8	-0.000570
3.265000E-8	-0.000328
3.270000E-8	-0.000172
3.275000E-8	0.000281
3.280000E-8	0.000453
3.285000E-8	0.001109
3.290000E-8	0.001586
3.295000E-8	0.002266
3.300000E-8	0.002602
3.305000E-8	0.003273
3.310000E-8	0.003695
3.315000E-8	0.004078
3.320000E-8	0.004375
3.325000E-8	0.004445
3.330000E-8	0.004109
3.335000E-8	0.003836
3.340000E-8	0.003500
3.345000E-8	0.003180
3.350000E-8	0.002563
3.355000E-8	0.002047
3.360000E-8	0.001531
3.365000E-8	0.001008
3.370000E-8	0.000313
3.375000E-8	-7.031250E-5
3.380000E-8	-0.000391
3.385000E-8	-0.000617
3.390000E-8	-0.000633
3.395000E-8	-0.000578
3.400000E-8	-0.000656
3.405000E-8	-3.906250E-5
3.410000E-8	0.000484
3.415000E-8	0.001187
3.420000E-8	0.001680
3.425000E-8	0.002328
3.430000E-8	0.002742
3.435000E-8	0.003445
3.440000E-8	0.003945
3.445000E-8	0.004258
3.450000E-8	0.004461
3.455000E-8	0.004352
3.460000E-8	0.004227
3.465000E-8	0.003891
3.470000E-8	0.003438
3.475000E-8	0.003281
3.480000E-8	0.002578
3.485000E-8	0.002234
3.490000E-8	0.001500
3.495000E-8	0.001016
3.500000E-8	0.000313
3.505000E-8	8.593750E-5
3.510000E-8	-0.000336
3.515000E-8	-0.000555
3.520000E-8	-0.000563
3.525000E-8	-0.000445
3.530000E-8	-0.000305
3.535000E-8	0.000273
3.540000E-8	0.000383
3.545000E-8	0.001000
3.550000E-8	0.001422
3.555000E-8	0.002070
3.560000E-8	0.002578
3.565000E-8	0.003039
3.570000E-8	0.003391
3.575000E-8	0.003852
3.580000E-8	0.003953
3.585000E-8	0.004328
3.590000E-8	0.004164
3.595000E-8	0.003781
3.600000E-8	0.003461
3.605000E-8	0.002977
3.610000E-8	0.002555
3.615000E-8	0.002070
3.620000E-8	0.001211
3.625000E-8	0.000883
3.630000E-8	0.000398
3.635000E-8	9.375000E-5
3.640000E-8	-0.000180
3.645000E-8	-0.000305
3.650000E-8	-0.000383
3.655000E-8	-0.000250
3.660000E-8	-0.000313
3.665000E-8	-0.000102
3.670000E-8	0.000391
3.675000E-8	0.000742
3.680000E-8	0.001250
3.685000E-8	0.001766
3.690000E-8	0.002328
3.695000E-8	0.002805
3.700000E-8	0.003188
3.705000E-8	0.003484
3.710000E-8	0.003852
3.715000E-8	0.003891
3.720000E-8	0.003961
3.725000E-8	0.004031
3.730000E-8	0.003555
3.735000E-8	0.003570
3.740000E-8	0.002836
3.745000E-8	0.002352
3.750000E-8	0.001687
3.755000E-8	0.001172
3.760000E-8	0.000578
3.765000E-8	-8.593750E-5
3.770000E-8	-0.000602
3.775000E-8	-0.000820
3.780000E-8	-0.000828
3.785000E-8	-0.000883
3.790000E-8	-0.000578
3.795000E-8	-0.000102
3.800000E-8	0.000164
3.805000E-8	0.000586
3.810000E-8	0.001102
3.815000E-8	0.001758
3.820000E-8	0.002227
3.825000E-8	0.002656
3.830000E-8	0.002938
3.835000E-8	0.003375
3.840000E-8	0.003523
3.845000E-8	0.003906
3.850000E-8	0.003930
3.855000E-8	0.003641
3.860000E-8	0.003422
3.865000E-8	0.003297
3.870000E-8	0.002859
3.875000E-8	0.002250
3.880000E-8	0.001836
3.885000E-8	0.001391
3.890000E-8	0.000820
3.895000E-8	0.000789
3.900000E-8	0.000258
3.905000E-8	-4.687500E-5
3.910000E-8	-0.000297
3.915000E-8	-0.000313
3.920000E-8	-0.000359
3.925000E-8	-0.000102
3.930000E-8	0.000117
3.935000E-8	0.000555
3.940000E-8	0.000875
3.945000E-8	0.001391
3.950000E-8	0.001906
3.955000E-8	0.002023
3.960000E-8	0.002383
3.965000E-8	0.002961
3.970000E-8	0.003125
3.975000E-8	0.003438
3.980000E-8	0.003312
3.985000E-8	0.003172
3.990000E-8	0.003023
3.995000E-8	0.002883
4.000000E-8	0.002711
4.005000E-8	0.002219
4.010000E-8	0.001609
4.015000E-8	0.001141
4.020000E-8	0.000375
4.025000E-8	6.250000E-5
4.030000E-8	-0.000250
4.035000E-8	-0.000445
4.040000E-8	-0.000570
4.045000E-8	-0.000539
4.050000E-8	-0.000406
4.055000E-8	-0.000477
4.060000E-8	-0.000180
4.065000E-8	0.000352
4.070000E-8	0.000539
4.075000E-8	0.000937
4.080000E-8	0.001375
4.085000E-8	0.001984
4.090000E-8	0.002484
4.095000E-8	0.002938
4.100000E-8	0.003141
4.105000E-8	0.003336
4.110000E-8	0.003484
4.115000E-8	0.003406
4.120000E-8	0.003258
4.125000E-8	0.003133
4.130000E-8	0.002719
4.135000E-8	0.002375
4.140000E-8	0.001914
4.145000E-8	0.001687
4.150000E-8	0.001297
4.155000E-8	0.000758
4.160000E-8	0.000570
4.165000E-8	0.000258
4.170000E-8	-8.593750E-5
4.175000E-8	1.562500E-5
4.180000E-8	1.562500E-5
4.185000E-8	0.000320
4.190000E-8	0.000695
4.195000E-8	0.000891
4.200000E-8	0.001172
4.205000E-8	0.001375
4.210000E-8	0.001797
4.215000E-8	0.002078
4.220000E-8	0.002430
4.225000E-8	0.002867
4.230000E-8	0.002930
4.235000E-8	0.003047
4.240000E-8	0.003102
4.245000E-8	0.003063
4.250000E-8	0.003047
4.255000E-8	0.003016
4.260000E-8	0.002781
4.265000E-8	0.002508
4.270000E-8	0.002227
4.275000E-8	0.001953
4.280000E-8	0.001422
4.285000E-8	0.001055
4.290000E-8	0.000578
4.295000E-8	0.000227
4.300000E-8	-0.000125
4.305000E-8	-7.812500E-5
4.310000E-8	-0.000359
4.315000E-8	-0.000195
4.320000E-8	0.000109
4.325000E-8	0.000133
4.330000E-8	0.000516
4.335000E-8	0.000859
4.340000E-8	0.001180
4.345000E-8	0.001789
4.350000E-8	0.002242
4.355000E-8	0.002664
4.360000E-8	0.003063
4.365000E-8	0.003289
4.370000E-8	0.003617
4.375000E-8	0.003719
4.380000E-8	0.003586
4.385000E-8	0.003211
4.390000E-8	0.003008
4.395000E-8	0.002570
4.400000E-8	0.002117
4.405000E-8	0.001727
4.410000E-8	0.001320
4.415000E-8	0.000719
4.420000E-8	0.000219
4.425000E-8	0.000141
4.430000E-8	0.000133
4.435000E-8	-2.343750E-5
4.440000E-8	6.250000E-5
4.445000E-8	0.000102
4.450000E-8	0.000164
4.455000E-8	0.000633
4.460000E-8	0.000539
4.465000E-8	0.001016
4.470000E-8	0.001422
4.475000E-8	0.001820
4.480000E-8	0.002227
4.485000E-8	0.002750
4.490000E-8	0.002914
4.495000E-8	0.003320
4.500000E-8	0.003273
4.505000E-8	0.003344
4.510000E-8	0.003367
4.515000E-8	0.003320
4.520000E-8	0.002953
4.525000E-8	0.002734
4.530000E-8	0.002359
4.535000E-8	0.002000
4.540000E-8	0.001547
4.545000E-8	0.001023
4.550000E-8	0.000617
4.555000E-8	0.000172
4.560000E-8	-2.343750E-5
4.565000E-8	-0.000172
4.570000E-8	-0.000227
4.575000E-8	-0.000234
4.580000E-8	-0.000172
4.585000E-8	-8.593750E-5
4.590000E-8	5.468750E-5
4.595000E-8	0.000547
4.600000E-8	0.000969
4.605000E-8	0.001367
4.610000E-8	0.001852
4.615000E-8	0.002305
4.620000E-8	0.002586
4.625000E-8	0.002984
4.630000E-8	0.002969
4.635000E-8	0.003203
4.640000E-8	0.003031
4.645000E-8	0.003109
4.650000E-8	0.003016
4.655000E-8	0.002812
4.660000E-8	0.002516
4.665000E-8	0.002125
4.670000E-8	0.001789
4.675000E-8	0.001336
4.680000E-8	0.000805
4.685000E-8	0.000555
4.690000E-8	0.000328
4.695000E-8	0.000234
4.700000E-8	0.000117
4.705000E-8	0.000258
4.710000E-8	0.000500
4.715000E-8	0.000695
4.720000E-8	0.000781
4.725000E-8	0.001203
4.730000E-8	0.001414
4.735000E-8	0.001781
4.740000E-8	0.002148
4.745000E-8	0.002484
4.750000E-8	0.002852
4.755000E-8	0.002938
4.760000E-8	0.003172
4.765000E-8	0.003172
4.770000E-8	0.003219
4.775000E-8	0.003312
4.780000E-8	0.002992
4.785000E-8	0.002758
4.790000E-8	0.002344
4.795000E-8	0.002047
4.800000E-8	0.001391
4.805000E-8	0.000906
4.810000E-8	0.000555
4.815000E-8	0.000211
4.820000E-8	-1.562500E-5
4.825000E-8	-0.000141
4.830000E-8	7.812500E-6
4.835000E-8	-9.375000E-5
4.840000E-8	-3.906250E-5
4.845000E-8	0.000484
4.850000E-8	0.000430
4.855000E-8	0.000891
4.860000E-8	0.001250
4.865000E-8	0.001664
4.870000E-8	0.002211
4.875000E-8	0.002289
4.880000E-8	0.002508
4.885000E-8	0.002828
4.890000E-8	0.002773
4.895000E-8	0.002844
4.900000E-8	0.002781
4.905000E-8	0.002914
4.910000E-8	0.002516
4.915000E-8	0.002234
4.920000E-8	0.001852
4.925000E-8	0.001750
4.930000E-8	0.001227
4.935000E-8	0.001000
4.940000E-8	0.000609
4.945000E-8	0.000594
4.950000E-8	0.000445
4.955000E-8	0.000227
4.960000E-8	-3.906250E-5
4.965000E-8	-1.562500E-5
4.970000E-8	0.000000
4.975000E-8	0.000336
4.980000E-8	0.000687
4.985000E-8	0.000961
4.990000E-8	0.001109
4.995000E-8	0.001297
5.000000E-8	0.001664
5.005000E-8	0.001953
5.010000E-8	0.002359
5.015000E-8	0.002523
5.020000E-8	0.002695
5.025000E-8	0.002906
5.030000E-8	0.002969
5.035000E-8	0.002766
5.040000E-8	0.002586
5.045000E-8	0.002383
5.050000E-8	0.002188
5.055000E-8	0.001836
5.060000E-8	0.001469
5.065000E-8	0.001250
5.070000E-8	0.001008
5.075000E-8	0.000734
5.080000E-8	0.000594
5.085000E-8	0.000492
5.090000E-8	0.000273
5.095000E-8	0.000375
5.100000E-8	0.000531
5.105000E-8	0.000773
5.110000E-8	0.000766
5.115000E-8	0.000984
5.120000E-8	0.001117
5.125000E-8	0.001484
5.130000E-8	0.001703
5.135000E-8	0.001937
5.140000E-8	0.002164
5.145000E-8	0.002570
5.150000E-8	0.002570
5.155000E-8	0.002820
5.160000E-8	0.002711
5.165000E-8	0.002852
5.170000E-8	0.002656
5.175000E-8	0.002711
5.180000E-8	0.002453
5.185000E-8	0.002156
5.190000E-8	0.001758
5.195000E-8	0.001664
5.200000E-8	0.001070
5.205000E-8	0.001016
5.210000E-8	0.000656
5.215000E-8	0.000516
5.220000E-8	0.000375
5.225000E-8	0.000492
5.230000E-8	0.000125
5.235000E-8	0.000438
5.240000E-8	0.000695
5.245000E-8	0.001000
5.250000E-8	0.001141
5.255000E-8	0.001555
5.260000E-8	0.001836
5.265000E-8	0.002195
5.270000E-8	0.002391
5.275000E-8	0.002703
5.280000E-8	0.002570
5.285000E-8	0.002750
5.290000E-8	0.002734
5.295000E-8	0.002844
5.300000E-8	0.002492
5.305000E-8	0.002406
5.310000E-8	0.002320
5.315000E-8	0.002289
5.320000E-8	0.001828
5.325000E-8	0.001672
5.330000E-8	0.001453
5.335000E-8	0.001352
5.340000E-8	0.001148
5.345000E-8	0.000969
5.350000E-8	0.000727
5.355000E-8	0.000555
5.360000E-8	0.000367
5.365000E-8	0.000594
5.370000E-8	0.000664
5.375000E-8	0.000789
5.380000E-8	0.000992
5.385000E-8	0.001406
5.390000E-8	0.001664
5.395000E-8	0.002078
5.400000E-8	0.002250
5.405000E-8	0.002609
5.410000E-8	0.002883
5.415000E-8	0.003289
5.420000E-8	0.003227
5.425000E-8	0.003281
5.430000E-8	0.003008
5.435000E-8	0.002758
5.440000E-8	0.002406
5.445000E-8	0.002016
5.450000E-8	0.001836
5.455000E-8	0.001656
5.460000E-8	0.001156
5.465000E-8	0.001117
5.470000E-8	0.000914
5.475000E-8	0.000742
5.480000E-8	0.000563
5.485000E-8	0.000273
5.490000E-8	0.000602
5.495000E-8	0.000523
5.500000E-8	0.000492
5.505000E-8	0.000766
5.510000E-8	0.000961
5.515000E-8	0.001328
5.520000E-8	0.001391
5.525000E-8	0.001672
5.530000E-8	0.001930
5.535000E-8	0.002320
5.540000E-8	0.002398
5.545000E-8	0.002437
5.550000E-8	0.002555
5.555000E-8	0.002578
5.560000E-8	0.002203
5.565000E-8	0.002547
5.570000E-8	0.002141
5.575000E-8	0.002094
5.580000E-8	0.001898
5.585000E-8	0.001828
5.590000E-8	0.001687
5.595000E-8	0.001547
5.600000E-8	0.001133
5.605000E-8	0.001078
5.610000E-8	0.000875
5.615000E-8	0.000680
5.620000E-8	0.000508
5.625000E-8	0.000484
5.630000E-8	0.000391
5.635000E-8	0.000570
5.640000E-8	0.000695
5.645000E-8	0.000922
5.650000E-8	0.001156
5.655000E-8	0.001594
5.660000E-8	0.001570
5.665000E-8	0.001969
5.670000E-8	0.002242
5.675000E-8	0.002508
5.680000E-8	0.002570
5.685000E-8	0.002914
5.690000E-8	0.002961
5.695000E-8	0.002969
5.700000E-8	0.002555
5.705000E-8	0.002250
5.710000E-8	0.002328
5.715000E-8	0.001922
5.720000E-8	0.001531
5.725000E-8	0.001297
5.730000E-8	0.001102
5.735000E-8	0.000813
5.740000E-8	0.000500
5.745000E-8	0.000656
5.750000E-8	0.000797
5.755000E-8	0.000766
5.760000E-8	0.000641
5.765000E-8	0.001102
5.770000E-8	0.001383
5.775000E-8	0.001680
5.780000E-8	0.001789
5.785000E-8	0.002375
5.790000E-8	0.002656
5.795000E-8	0.002844
5.800000E-8	0.002719
5.805000E-8	0.002898
5.810000E-8	0.002906
5.815000E-8	0.002930
5.820000E-8	0.002867
5.825000E-8	0.002844
5.830000E-8	0.002633
5.835000E-8	0.002656
5.840000E-8	0.002242
5.845000E-8	0.002109
5.850000E-8	0.001836
5.855000E-8	0.001664
5.860000E-8	0.001336
5.865000E-8	0.001102
5.870000E-8	0.000672
5.875000E-8	0.000656
5.880000E-8	0.000703
5.885000E-8	0.001023
5.890000E-8	0.000977
5.895000E-8	0.001125
5.900000E-8	0.001187
5.905000E-8	0.001492
5.910000E-8	0.001711
5.915000E-8	0.001945
5.920000E-8	0.001758
5.925000E-8	0.002203
5.930000E-8	0.002047
5.935000E-8	0.002266
5.940000E-8	0.002359
5.945000E-8	0.002500
5.950000E-8	0.002422
5.955000E-8	0.002570
5.960000E-8	0.002289
5.965000E-8	0.002133
5.970000E-8	0.002000
5.975000E-8	0.001977
5.980000E-8	0.001633
5.985000E-8	0.001539
5.990000E-8	0.001398
5.995000E-8	0.001156
6.000000E-8	0.000945
6.005000E-8	0.001070
6.010000E-8	0.000984
6.015000E-8	0.001008
6.020000E-8	0.000922
6.025000E-8	0.000937
6.030000E-8	0.001289
6.035000E-8	0.001422
6.040000E-8	0.001500
6.045000E-8	0.001508
6.050000E-8	0.001563
6.055000E-8	0.001992
6.060000E-8	0.002172
6.065000E-8	0.002273
6.070000E-8	0.002125
6.075000E-8	0.002484
6.080000E-8	0.002266
6.085000E-8	0.002437
6.090000E-8	0.002352
6.095000E-8	0.002375
6.100000E-8	0.002148
6.105000E-8	0.001906
6.110000E-8	0.001852
6.115000E-8	0.001602
6.120000E-8	0.001492
6.125000E-8	0.001242
6.130000E-8	0.000852
6.135000E-8	0.000680
6.140000E-8	0.000852
6.145000E-8	0.000586
6.150000E-8	0.000438
6.155000E-8	0.000570
6.160000E-8	0.000555
6.165000E-8	0.000828
6.170000E-8	0.000844
6.175000E-8	0.001008
6.180000E-8	0.001055
6.185000E-8	0.001578
6.190000E-8	0.001813
6.195000E-8	0.001898
6.200000E-8	0.001984
6.205000E-8	0.002273
6.210000E-8	0.002289
6.215000E-8	0.002352
6.220000E-8	0.002141
6.225000E-8	0.002063
6.230000E-8	0.002000
6.235000E-8	0.001828
6.240000E-8	0.001594
6.245000E-8	0.001445
6.250000E-8	0.001320
6.255000E-8	0.001102
6.260000E-8	0.000953
6.265000E-8	0.001063
6.270000E-8	0.001039
6.275000E-8	0.001141
6.280000E-8	0.001187
6.285000E-8	0.001422
6.290000E-8	0.001492
6.295000E-8	0.001500
6.300000E-8	0.001500
6.305000E-8	0.001625
6.310000E-8	0.001563
6.315000E-8	0.001875
6.320000E-8	0.001820
6.325000E-8	0.002133
6.330000E-8	0.002484
6.335000E-8	0.002430
6.340000E-8	0.002430
6.345000E-8	0.002703
6.350000E-8	0.002437
6.355000E-8	0.002367
6.360000E-8	0.002219
6.365000E-8	0.002086
6.370000E-8	0.002000
6.375000E-8	0.002133
6.380000E-8	0.001609
6.385000E-8	0.001570
6.390000E-8	0.001336
6.395000E-8	0.001055
6.400000E-8	0.000750
6.405000E-8	0.000813
6.410000E-8	0.000742
6.415000E-8	0.000813
6.420000E-8	0.000727
6.425000E-8	0.000703
6.430000E-8	0.001016
6.435000E-8	0.001187
6.440000E-8	0.001070
6.445000E-8	0.001383
6.450000E-8	0.001242
6.455000E-8	0.001586
6.460000E-8	0.001773
6.465000E-8	0.002141
6.470000E-8	0.001977
6.475000E-8	0.002195
6.480000E-8	0.002172
6.485000E-8	0.001953
6.490000E-8	0.001844
6.495000E-8	0.001914
6.500000E-8	0.001586
6.505000E-8	0.001656
6.510000E-8	0.001273
6.515000E-8	0.001328
6.520000E-8	0.001219
6.525000E-8	0.000945
6.530000E-8	0.001023
6.535000E-8	0.001031
6.540000E-8	0.000930
6.545000E-8	0.001039
6.550000E-8	0.001336
6.555000E-8	0.001375
6.560000E-8	0.001367
6.565000E-8	0.001578
6.570000E-8	0.001867
6.575000E-8	0.001930
6.580000E-8	0.002094
6.585000E-8	0.002164
6.590000E-8	0.002094
6.595000E-8	0.002320
6.600000E-8	0.002164
6.605000E-8	0.002484
6.610000E-8	0.002234
6.615000E-8	0.002258
6.620000E-8	0.002047
6.625000E-8	0.002023
6.630000E-8	0.001844
6.635000E-8	0.001867
6.640000E-8	0.001531
6.645000E-8	0.001430
6.650000E-8	0.001313
6.655000E-8	0.001234
6.660000E-8	0.001000
6.665000E-8	0.000937
6.670000E-8	0.000937
6.675000E-8	0.000805
6.680000E-8	0.000828
6.685000E-8	0.000961
6.690000E-8	0.001102
6.695000E-8	0.001477
6.700000E-8	0.001531
6.705000E-8	0.002070
6.710000E-8	0.002180
6.715000E-8	0.002133
6.720000E-8	0.002133
6.725000E-8	0.002203
6.730000E-8	0.002195
6.735000E-8	0.002242
6.740000E-8	0.002180
6.745000E-8	0.002023
6.750000E-8	0.001867
6.755000E-8	0.001898
6.760000E-8	0.001719
6.765000E-8	0.001773
6.770000E-8	0.001570
6.775000E-8	0.001594
6.780000E-8	0.001250
6.785000E-8	0.001406
6.790000E-8	0.001352
6.795000E-8	0.001211
6.800000E-8	0.001305
6.805000E-8	0.001125
6.810000E-8	0.001133
6.815000E-8	0.001281
6.820000E-8	0.001203
6.825000E-8	0.001445
6.830000E-8	0.001469
6.835000E-8	0.001539
6.840000E-8	0.001586
6.845000E-8	0.001945
6.850000E-8	0.001937
6.855000E-8	0.001906
6.860000E-8	0.002172
6.865000E-8	0.002281
6.870000E-8	0.002180
6.875000E-8	0.002336
6.880000E-8	0.002133
6.885000E-8	0.001937
6.890000E-8	0.001852
6.895000E-8	0.001578
6.900000E-8	0.001523
6.905000E-8	0.001437
6.910000E-8	0.001211
6.915000E-8	0.001359
6.920000E-8	0.001148
6.925000E-8	0.001195
6.930000E-8	0.001133
6.935000E-8	0.001258
6.940000E-8	0.001250
6.945000E-8	0.001367
6.950000E-8	0.001266
6.955000E-8	0.001766
6.960000E-8	0.001508
6.965000E-8	0.001805
6.970000E-8	0.001703
6.975000E-8	0.001711
6.980000E-8	0.001656
6.985000E-8	0.001852
6.990000E-8	0.001922
6.995000E-8	0.002016
7.000000E-8	0.001961
7.005000E-8	0.001836
7.010000E-8	0.001813
7.015000E-8	0.001984
7.020000E-8	0.001875
7.025000E-8	0.001852
7.030000E-8	0.001617
7.035000E-8	0.001320
7.040000E-8	0.001328
7.045000E-8	0.001445
7.050000E-8	0.001375
7.055000E-8	0.001227
7.060000E-8	0.000914
7.065000E-8	0.001063
7.070000E-8	0.001070
7.075000E-8	0.001203
7.080000E-8	0.001187
7.085000E-8	0.001289
7.090000E-8	0.001258
7.095000E-8	0.001352
7.100000E-8	0.001461
7.105000E-8	0.001758
7.110000E-8	0.001664
7.115000E-8	0.001758
7.120000E-8	0.001836
7.125000E-8	0.002039
7.130000E-8	0.002109
7.135000E-8	0.002117
7.140000E-8	0.002172
7.145000E-8	0.001992
7.150000E-8	0.001961
7.155000E-8	0.001852
7.160000E-8	0.001656
7.165000E-8	0.001719
7.170000E-8	0.001500
7.175000E-8	0.001742
7.180000E-8	0.001336
7.185000E-8	0.001375
7.190000E-8	0.001266
7.195000E-8	0.001430
7.200000E-8	0.001430
7.205000E-8	0.001437
7.210000E-8	0.001391
7.215000E-8	0.001453
7.220000E-8	0.001633
7.225000E-8	0.001672
7.230000E-8	0.001758
7.235000E-8	0.001937
7.240000E-8	0.001969
7.245000E-8	0.002141
7.250000E-8	0.002141
7.255000E-8	0.002422
7.260000E-8	0.002328
7.265000E-8	0.002437
7.270000E-8	0.002336
7.275000E-8	0.002297
7.280000E-8	0.002078
7.285000E-8	0.002188
7.290000E-8	0.001805
7.295000E-8	0.001672
7.300000E-8	0.001492
7.305000E-8	0.001531
7.310000E-8	0.001594
7.315000E-8	0.001500
7.320000E-8	0.001641
7.325000E-8	0.001555
7.330000E-8	0.001492
7.335000E-8	0.001352
7.340000E-8	0.001352
7.345000E-8	0.001414
7.350000E-8	0.001539
7.355000E-8	0.001359
7.360000E-8	0.001367
7.365000E-8	0.001375
7.370000E-8	0.001469
7.375000E-8	0.001773
7.380000E-8	0.001664
7.385000E-8	0.002016
7.390000E-8	0.002000
7.395000E-8	0.002164
7.400000E-8	0.002094
7.405000E-8	0.002180
7.410000E-8	0.001906
7.415000E-8	0.001797
7.420000E-8	0.001734
7.425000E-8	0.001531
7.430000E-8	0.001492
7.435000E-8	0.001352
7.440000E-8	0.001187
7.445000E-8	0.001055
7.450000E-8	0.000891
7.455000E-8	0.001234
7.460000E-8	0.001266
7.465000E-8	0.001328
7.470000E-8	0.001430
7.475000E-8	0.001453
7.480000E-8	0.001523
7.485000E-8	0.001664
7.490000E-8	0.001648
7.495000E-8	0.001875
7.500000E-8	0.001836
7.505000E-8	0.002000
7.510000E-8	0.001953
7.515000E-8	0.001961
7.520000E-8	0.001898
7.525000E-8	0.001883
7.530000E-8	0.001875
7.535000E-8	0.001953
7.540000E-8	0.001883
7.545000E-8	0.002000
7.550000E-8	0.001742
7.555000E-8	0.001891
7.560000E-8	0.001586
7.565000E-8	0.001492
7.570000E-8	0.001469
7.575000E-8	0.001594
7.580000E-8	0.001352
7.585000E-8	0.001477
7.590000E-8	0.001297
7.595000E-8	0.001297
7.600000E-8	0.001258
7.605000E-8	0.001328
7.610000E-8	0.001344
7.615000E-8	0.001383
7.620000E-8	0.001625
7.625000E-8	0.001789
7.630000E-8	0.001937
7.635000E-8	0.002023
7.640000E-8	0.001914
7.645000E-8	0.002172
7.650000E-8	0.002094
7.655000E-8	0.002219
7.660000E-8	0.001859
7.665000E-8	0.001797
7.670000E-8	0.001695
7.675000E-8	0.001594
7.680000E-8	0.001297
7.685000E-8	0.001398
7.690000E-8	0.001109
7.695000E-8	0.001195
7.700000E-8	0.000977
7.705000E-8	0.001148
7.710000E-8	0.001102
7.715000E-8	0.000945
7.720000E-8	0.001227
7.725000E-8	0.001180
7.730000E-8	0.001320
7.735000E-8	0.001563
7.740000E-8	0.001508
7.745000E-8	0.001609
7.750000E-8	0.001641
7.755000E-8	0.001750
7.760000E-8	0.001633
7.765000E-8	0.001969
7.770000E-8	0.001828
7.775000E-8	0.001961
7.780000E-8	0.002023
7.785000E-8	0.001867
7.790000E-8	0.001641
7.795000E-8	0.001703
7.800000E-8	0.001664
7.805000E-8	0.001672
7.810000E-8	0.001516
7.815000E-8	0.001477
7.820000E-8	0.001336
7.825000E-8	0.001266
7.830000E-8	0.001289
7.835000E-8	0.001437
7.840000E-8	0.001320
7.845000E-8	0.001148
7.850000E-8	0.001141
7.855000E-8	0.001234
7.860000E-8	0.001273
7.865000E-8	0.001297
7.870000E-8	0.001398
7.875000E-8	0.001406
7.880000E-8	0.001523
7.885000E-8	0.001563
7.890000E-8	0.001586
7.895000E-8	0.001711
7.900000E-8	0.001609
7.905000E-8	0.001687
7.910000E-8	0.001555
7.915000E-8	0.001617
7.920000E-8	0.001578
7.925000E-8	0.001727
7.930000E-8	0.001594
7.935000E-8	0.001680
7.940000E-8	0.001430
7.945000E-8	0.001711
7.950000E-8	0.001680
7.955000E-8	0.001531
7.960000E-8	0.001344
7.965000E-8	0.001367
7.970000E-8	0.001156
7.975000E-8	0.001141
7.980000E-8	0.000977
7.985000E-8	0.001148
7.990000E-8	0.001102
7.995000E-8	0.001164
8.000000E-8	0.001273
8.005000E-8	0.001406
8.010000E-8	0.001422
8.015000E-8	0.001586
8.020000E-8	0.001711
8.025000E-8	0.001773
8.030000E-8	0.001859
8.035000E-8	0.002008
8.040000E-8	0.001961
8.045000E-8	0.002047
8.050000E-8	0.001898
8.055000E-8	0.002008
8.060000E-8	0.001602
8.065000E-8	0.001617
8.070000E-8	0.001641
8.075000E-8	0.001766
8.080000E-8	0.001367
8.085000E-8	0.001484
8.090000E-8	0.001445
8.095000E-8	0.001687
8.100000E-8	0.001328
8.105000E-8	0.001516
8.110000E-8	0.001555
8.115000E-8	0.001672
8.120000E-8	0.001516
8.125000E-8	0.001570
8.130000E-8	0.001641
8.135000E-8	0.001633
8.140000E-8	0.001664
8.145000E-8	0.001656
8.150000E-8	0.001828
8.155000E-8	0.002047
8.160000E-8	0.001844
8.165000E-8	0.001820
8.170000E-8	0.001805
8.175000E-8	0.001836
8.180000E-8	0.001789
8.185000E-8	0.002000
8.190000E-8	0.001977
8.195000E-8	0.001859
8.200000E-8	0.001711
8.205000E-8	0.001719
8.210000E-8	0.001625
8.215000E-8	0.001359
8.220000E-8	0.001313
8.225000E-8	0.001180
8.230000E-8	0.001055
8.235000E-8	0.001328
8.240000E-8	0.001211
8.245000E-8	0.001344
8.250000E-8	0.001391
8.255000E-8	0.001555
8.260000E-8	0.001492
8.265000E-8	0.001547
8.270000E-8	0.001609
8.275000E-8	0.001758
8.280000E-8	0.001742
8.285000E-8	0.001945
8.290000E-8	0.001820
8.295000E-8	0.002039
8.300000E-8	0.001984
8.305000E-8	0.002320
8.310000E-8	0.002094
8.315000E-8	0.002023
8.320000E-8	0.001805
8.325000E-8	0.002047
8.330000E-8	0.002008
8.335000E-8	0.001945
8.340000E-8	0.001641
8.345000E-8	0.001898
8.350000E-8	0.001742
8.355000E-8	0.001734
8.360000E-8	0.001727
8.365000E-8	0.001695
8.370000E-8	0.001258
8.375000E-8	0.001484
8.380000E-8	0.001484
8.385000E-8	0.001789
8.390000E-8	0.001703
8.395000E-8	0.002008
8.400000E-8	0.001711
8.405000E-8	0.001914
8.410000E-8	0.001953
8.415000E-8	0.002180
8.420000E-8	0.002125
8.425000E-8	0.002273
8.430000E-8	0.002180
8.435000E-8	0.002211
8.440000E-8	0.002063
8.445000E-8	0.001953
8.450000E-8	0.001930
8.455000E-8	0.001852
8.460000E-8	0.001711
8.465000E-8	0.001687
8.470000E-8	0.001516
8.475000E-8	0.001602
8.480000E-8	0.001586
8.485000E-8	0.001586
8.490000E-8	0.001383
8.495000E-8	0.001383
8.500000E-8	0.001359
8.505000E-8	0.001453
8.510000E-8	0.001367
8.515000E-8	0.001422
8.520000E-8	0.001570
8.525000E-8	0.001719
8.530000E-8	0.001805
8.535000E-8	0.001641
8.540000E-8	0.001516
8.545000E-8	0.001563
8.550000E-8	0.001578
8.555000E-8	0.001711
8.560000E-8	0.001641
8.565000E-8	0.001930
8.570000E-8	0.001742
8.575000E-8	0.001805
8.580000E-8	0.001883
8.585000E-8	0.001852
8.590000E-8	0.001922
8.595000E-8	0.001805
8.600000E-8	0.001687
8.605000E-8	0.001578
8.610000E-8	0.001469
8.615000E-8	0.001375
8.620000E-8	0.001156
8.625000E-8	0.001117
8.630000E-8	0.001039
8.635000E-8	0.001227
8.640000E-8	0.001094
8.645000E-8	0.001156
8.650000E-8	0.000961
8.655000E-8	0.001258
8.660000E-8	0.001414
8.665000E-8	0.001563
8.670000E-8	0.001672
8.675000E-8	0.001766
8.680000E-8	0.002016
8.685000E-8	0.002203
8.690000E-8	0.002055
8.695000E-8	0.002211
8.700000E-8	0.001867
8.705000E-8	0.001969
8.710000E-8	0.001742
8.715000E-8	0.001727
8.720000E-8	0.001453
8.725000E-8	0.001469
8.730000E-8	0.001398
8.735000E-8	0.001547
8.740000E-8	0.001602
8.745000E-8	0.001789
8.750000E-8	0.001711
8.755000E-8	0.001602
8.760000E-8	0.001664
8.765000E-8	0.001852
8.770000E-8	0.001750
8.775000E-8	0.001453
8.780000E-8	0.001328
8.785000E-8	0.001422
8.790000E-8	0.001250
8.795000E-8	0.001359
8.800000E-8	0.001211
8.805000E-8	0.001469
8.810000E-8	0.001453
8.815000E-8	0.001516
8.820000E-8	0.001617
8.825000E-8	0.001680
8.830000E-8	0.001789
8.835000E-8	0.002055
8.840000E-8	0.001836
8.845000E-8	0.001727
8.850000E-8	0.001773
8.855000E-8	0.001781
8.860000E-8	0.001703
8.865000E-8	0.001539
8.870000E-8	0.001437
8.875000E-8	0.001289
8.880000E-8	0.001328
8.885000E-8	0.001086
8.890000E-8	0.001086
8.895000E-8	0.001031
8.900000E-8	0.000914
8.905000E-8	0.001133
8.910000E-8	0.001016
8.915000E-8	0.001180
8.920000E-8	0.001086
8.925000E-8	0.001414
8.930000E-8	0.001563
8.935000E-8	0.001703
8.940000E-8	0.001578
8.945000E-8	0.001781
8.950000E-8	0.001711
8.955000E-8	0.002039
8.960000E-8	0.001859
8.965000E-8	0.002180
8.970000E-8	0.002188
8.975000E-8	0.002008
8.980000E-8	0.001820
8.985000E-8	0.001492
8.990000E-8	0.001742
8.995000E-8	0.001766
9.000000E-8	0.001555
9.005000E-8	0.001422
9.010000E-8	0.001187
9.015000E-8	0.001156
9.020000E-8	0.001023
9.025000E-8	0.001203
9.030000E-8	0.001281
9.035000E-8	0.001313
9.040000E-8	0.001391
9.045000E-8	0.001391
9.050000E-8	0.001430
9.055000E-8	0.001398
9.060000E-8	0.001453
9.065000E-8	0.001484
9.070000E-8	0.001336
9.075000E-8	0.001492
9.080000E-8	0.001453
9.085000E-8	0.001648
9.090000E-8	0.001477
9.095000E-8	0.001445
9.100000E-8	0.001586
9.105000E-8	0.001797
9.110000E-8	0.001766
9.115000E-8	0.001805
9.120000E-8	0.001703
9.125000E-8	0.001859
9.130000E-8	0.001523
9.135000E-8	0.001352
9.140000E-8	0.001195
9.145000E-8	0.001344
9.150000E-8	0.001313
9.155000E-8	0.001617
9.160000E-8	0.001602
9.165000E-8	0.001594
9.170000E-8	0.001430
9.175000E-8	0.001500
9.180000E-8	0.001336
9.185000E-8	0.001422
9.190000E-8	0.001500
9.195000E-8	0.001398
9.200000E-8	0.001484
9.205000E-8	0.001508
9.210000E-8	0.001656
9.215000E-8	0.001891
9.220000E-8	0.001953
9.225000E-8	0.002070
9.230000E-8	0.002000
9.235000E-8	0.002125
9.240000E-8	0.002227
9.245000E-8	0.002141
9.250000E-8	0.001914
9.255000E-8	0.001648
9.260000E-8	0.001172
9.265000E-8	0.001187
9.270000E-8	0.000984
9.275000E-8	0.001187
9.280000E-8	0.001086
9.285000E-8	0.001125
9.290000E-8	0.001141
9.295000E-8	0.001086
9.300000E-8	0.001078
9.305000E-8	0.001164
9.310000E-8	0.001320
9.315000E-8	0.001539
9.320000E-8	0.001391
9.325000E-8	0.001469
9.330000E-8	0.001461
9.335000E-8	0.001492
9.340000E-8	0.001383
9.345000E-8	0.001641
9.350000E-8	0.001320
9.355000E-8	0.001508
9.360000E-8	0.001359
9.365000E-8	0.001508
9.370000E-8	0.001563
9.375000E-8	0.001742
9.380000E-8	0.001469
9.385000E-8	0.001492
9.390000E-8	0.001500
9.395000E-8	0.001547
9.400000E-8	0.001289
9.405000E-8	0.001328
9.410000E-8	0.001016
9.415000E-8	0.001219
9.420000E-8	0.001047
9.425000E-8	0.001109
9.430000E-8	0.001016
9.435000E-8	0.001172
9.440000E-8	0.001242
9.445000E-8	0.001281
9.450000E-8	0.001344
9.455000E-8	0.001508
9.460000E-8	0.001422
9.465000E-8	0.001852
9.470000E-8	0.001797
9.475000E-8	0.001914
9.480000E-8	0.001867
9.485000E-8	0.002156
9.490000E-8	0.002078
9.495000E-8	0.001969
9.500000E-8	0.001695
9.505000E-8	0.001633
9.510000E-8	0.001555
9.515000E-8	0.001539
9.520000E-8	0.001672
9.525000E-8	0.001602
9.530000E-8	0.001523
9.535000E-8	0.001633
9.540000E-8	0.001555
9.545000E-8	0.001516
9.550000E-8	0.001352
9.555000E-8	0.001641
9.560000E-8	0.001195
9.565000E-8	0.001547
9.570000E-8	0.001617
9.575000E-8	0.001531
9.580000E-8	0.001375
9.585000E-8	0.001320
9.590000E-8	0.001352
9.595000E-8	0.001547
9.600000E-8	0.001352
9.605000E-8	0.001523
9.610000E-8	0.001563
9.615000E-8	0.001687
9.620000E-8	0.001437
9.625000E-8	0.001578
9.630000E-8	0.001477
9.635000E-8	0.001617
9.640000E-8	0.001508
9.645000E-8	0.001695
9.650000E-8	0.001687
9.655000E-8	0.001687
9.660000E-8	0.001539
9.665000E-8	0.001664
9.670000E-8	0.001492
9.675000E-8	0.001242
9.680000E-8	0.001203
9.685000E-8	0.001273
9.690000E-8	0.001023
9.695000E-8	0.001234
9.700000E-8	0.001109
9.705000E-8	0.001164
9.710000E-8	0.001023
9.715000E-8	0.001445
9.720000E-8	0.001344
9.725000E-8	0.001734
9.730000E-8	0.001836
9.735000E-8	0.002000
9.740000E-8	0.001578
9.745000E-8	0.001734
9.750000E-8	0.001805
9.755000E-8	0.001883
9.760000E-8	0.001711
9.765000E-8	0.001727
9.770000E-8	0.001422
9.775000E-8	0.001383
9.780000E-8	0.001281
9.785000E-8	0.001234
9.790000E-8	0.001234
9.795000E-8	0.000914
9.800000E-8	0.000820
9.805000E-8	0.000953
9.810000E-8	0.001055
9.815000E-8	0.001211
9.820000E-8	0.001367
9.825000E-8	0.001586
9.830000E-8	0.001625
9.835000E-8	0.001805
9.840000E-8	0.001828
9.845000E-8	0.001961
9.850000E-8	0.001992
9.855000E-8	0.002102
9.860000E-8	0.002016
9.865000E-8	0.002008
9.870000E-8	0.002039
9.875000E-8	0.002070
9.880000E-8	0.002102
9.885000E-8	0.002055
9.890000E-8	0.002023
9.895000E-8	0.001891
9.900000E-8	0.001844
9.905000E-8	0.001727
9.910000E-8	0.001648
9.915000E-8	0.001672
9.920000E-8	0.001531
9.925000E-8	0.001508
9.930000E-8	0.001414
9.935000E-8	0.001516
9.940000E-8	0.001172
9.945000E-8	0.001242
9.950000E-8	0.001422
9.955000E-8	0.001648
9.960000E-8	0.001609
9.965000E-8	0.001773
9.970000E-8	0.001789
9.975000E-8	0.001781
9.980000E-8	0.001883
9.985000E-8	0.001977
9.990000E-8	0.001922
9.995000E-8	0.001992
