LabVIEW Measurement	
Writer_Version	2
Reader_Version	2
Separator	Tab
Decimal_Separator	.
Multi_Headings	No
X_Columns	Multi
Time_Pref	Relative
Operator	TG lab
Date	2015/03/06
Time	17:47:17.7841644287109375
***End_of_Header***	
	
Channels	1	
Samples	2000	
Date	1903/12/31	
Time	19:00:00	
X_Dimension	Time	
X0	0.0000000000000000E+0	
Delta_X	5.000000E-11	
***End_of_Header***		
X_Value	Untitled	Comment
0.000000	0.002477
5.000000E-11	0.002531
1.000000E-10	0.002508
1.500000E-10	0.002602
2.000000E-10	0.002547
2.500000E-10	0.002586
3.000000E-10	0.002773
3.500000E-10	0.002820
4.000000E-10	0.002539
4.500000E-10	0.002570
5.000000E-10	0.002375
5.500000E-10	0.002727
6.000000E-10	0.002547
6.500000E-10	0.002836
7.000000E-10	0.002844
7.500000E-10	0.002766
8.000000E-10	0.002711
8.500000E-10	0.002695
9.000000E-10	0.002914
9.500000E-10	0.003086
1.000000E-9	0.002852
1.050000E-9	0.002984
1.100000E-9	0.002867
1.150000E-9	0.002773
1.200000E-9	0.003078
1.250000E-9	0.003188
1.300000E-9	0.002906
1.350000E-9	0.003039
1.400000E-9	0.003070
1.450000E-9	0.003484
1.500000E-9	0.003406
1.550000E-9	0.003484
1.600000E-9	0.003547
1.650000E-9	0.003625
1.700000E-9	0.003438
1.750000E-9	0.003594
1.800000E-9	0.003633
1.850000E-9	0.003609
1.900000E-9	0.003445
1.950000E-9	0.003758
2.000000E-9	0.003711
2.050000E-9	0.003867
2.100000E-9	0.003703
2.150000E-9	0.003789
2.200000E-9	0.003641
2.250000E-9	0.003648
2.300000E-9	0.003547
2.350000E-9	0.003719
2.400000E-9	0.003539
2.450000E-9	0.003711
2.500000E-9	0.003664
2.550000E-9	0.003828
2.600000E-9	0.003773
2.650000E-9	0.003953
2.700000E-9	0.003695
2.750000E-9	0.003852
2.800000E-9	0.003656
2.850000E-9	0.003852
2.900000E-9	0.003547
2.950000E-9	0.003820
3.000000E-9	0.003609
3.050000E-9	0.003680
3.100000E-9	0.003648
3.150000E-9	0.003695
3.200000E-9	0.003633
3.250000E-9	0.003789
3.300000E-9	0.003727
3.350000E-9	0.003805
3.400000E-9	0.003875
3.450000E-9	0.004195
3.500000E-9	0.004195
3.550000E-9	0.004484
3.600000E-9	0.004383
3.650000E-9	0.004430
3.700000E-9	0.004297
3.750000E-9	0.004664
3.800000E-9	0.004773
3.850000E-9	0.005117
3.900000E-9	0.004984
3.950000E-9	0.005414
4.000000E-9	0.005422
4.050000E-9	0.005586
4.100000E-9	0.005766
4.150000E-9	0.006305
4.200000E-9	0.006500
4.250000E-9	0.007250
4.300000E-9	0.007625
4.350000E-9	0.008258
4.400000E-9	0.009031
4.450000E-9	0.010125
4.500000E-9	0.011289
4.550000E-9	0.012742
4.600000E-9	0.014125
4.650000E-9	0.015750
4.700000E-9	0.017344
4.750000E-9	0.019164
4.800000E-9	0.020516
4.850000E-9	0.022000
4.900000E-9	0.023437
4.950000E-9	0.025273
5.000000E-9	0.026992
5.050000E-9	0.029008
5.100000E-9	0.031211
5.150000E-9	0.033438
5.200000E-9	0.036086
5.250000E-9	0.038578
5.300000E-9	0.040961
5.350000E-9	0.043703
5.400000E-9	0.045727
5.450000E-9	0.047711
5.500000E-9	0.049211
5.550000E-9	0.050336
5.600000E-9	0.050836
5.650000E-9	0.051453
5.700000E-9	0.051023
5.750000E-9	0.050023
5.800000E-9	0.048406
5.850000E-9	0.046672
5.900000E-9	0.044445
5.950000E-9	0.042016
6.000000E-9	0.039352
6.050000E-9	0.036859
6.100000E-9	0.034188
6.150000E-9	0.031867
6.200000E-9	0.029953
6.250000E-9	0.028664
6.300000E-9	0.027797
6.350000E-9	0.027531
6.400000E-9	0.027586
6.450000E-9	0.028266
6.500000E-9	0.029180
6.550000E-9	0.030148
6.600000E-9	0.030672
6.650000E-9	0.031734
6.700000E-9	0.032734
6.750000E-9	0.033609
6.800000E-9	0.034125
6.850000E-9	0.034758
6.900000E-9	0.034828
6.950000E-9	0.034734
7.000000E-9	0.034102
7.050000E-9	0.033336
7.100000E-9	0.032414
7.150000E-9	0.031031
7.200000E-9	0.029242
7.250000E-9	0.027625
7.300000E-9	0.025734
7.350000E-9	0.023930
7.400000E-9	0.022070
7.450000E-9	0.020977
7.500000E-9	0.019539
7.550000E-9	0.018430
7.600000E-9	0.018023
7.650000E-9	0.017797
7.700000E-9	0.017758
7.750000E-9	0.018281
7.800000E-9	0.018750
7.850000E-9	0.019547
7.900000E-9	0.020422
7.950000E-9	0.021508
8.000000E-9	0.022227
8.050000E-9	0.023305
8.100000E-9	0.023766
8.150000E-9	0.024500
8.200000E-9	0.024789
8.250000E-9	0.024922
8.300000E-9	0.024422
8.350000E-9	0.024203
8.400000E-9	0.023266
8.450000E-9	0.022320
8.500000E-9	0.021203
8.550000E-9	0.020016
8.600000E-9	0.018437
8.650000E-9	0.016969
8.700000E-9	0.015367
8.750000E-9	0.014039
8.800000E-9	0.012805
8.850000E-9	0.012141
8.900000E-9	0.011352
8.950000E-9	0.011195
9.000000E-9	0.011109
9.050000E-9	0.011203
9.100000E-9	0.011797
9.150000E-9	0.012289
9.200000E-9	0.013094
9.250000E-9	0.014000
9.300000E-9	0.014914
9.350000E-9	0.015852
9.400000E-9	0.016523
9.450000E-9	0.017242
9.500000E-9	0.017672
9.550000E-9	0.018164
9.600000E-9	0.018031
9.650000E-9	0.017852
9.700000E-9	0.017477
9.750000E-9	0.016914
9.800000E-9	0.015914
9.850000E-9	0.015289
9.900000E-9	0.013930
9.950000E-9	0.012945
1.000000E-8	0.011906
1.005000E-8	0.010813
1.010000E-8	0.009664
1.015000E-8	0.008891
1.020000E-8	0.008164
1.025000E-8	0.007641
1.030000E-8	0.007289
1.035000E-8	0.007258
1.040000E-8	0.007375
1.045000E-8	0.008258
1.050000E-8	0.008695
1.055000E-8	0.009578
1.060000E-8	0.010391
1.065000E-8	0.011367
1.070000E-8	0.012180
1.075000E-8	0.013039
1.080000E-8	0.013859
1.085000E-8	0.014477
1.090000E-8	0.014453
1.095000E-8	0.014500
1.100000E-8	0.014125
1.105000E-8	0.013688
1.110000E-8	0.013016
1.115000E-8	0.012359
1.120000E-8	0.011273
1.125000E-8	0.010266
1.130000E-8	0.009180
1.135000E-8	0.008086
1.140000E-8	0.007289
1.145000E-8	0.006344
1.150000E-8	0.005609
1.155000E-8	0.005359
1.160000E-8	0.004742
1.165000E-8	0.004969
1.170000E-8	0.004789
1.175000E-8	0.005305
1.180000E-8	0.005594
1.185000E-8	0.006711
1.190000E-8	0.007211
1.195000E-8	0.007953
1.200000E-8	0.008711
1.205000E-8	0.009703
1.210000E-8	0.010563
1.215000E-8	0.011375
1.220000E-8	0.011898
1.225000E-8	0.012266
1.230000E-8	0.012211
1.235000E-8	0.012039
1.240000E-8	0.011453
1.245000E-8	0.010844
1.250000E-8	0.009781
1.255000E-8	0.009000
1.260000E-8	0.007789
1.265000E-8	0.006789
1.270000E-8	0.005820
1.275000E-8	0.004672
1.280000E-8	0.003688
1.285000E-8	0.003203
1.290000E-8	0.002656
1.295000E-8	0.002758
1.300000E-8	0.002555
1.305000E-8	0.002930
1.310000E-8	0.003578
1.315000E-8	0.004445
1.320000E-8	0.005313
1.325000E-8	0.006336
1.330000E-8	0.007305
1.335000E-8	0.008414
1.340000E-8	0.009109
1.345000E-8	0.009922
1.350000E-8	0.010617
1.355000E-8	0.011039
1.360000E-8	0.010977
1.365000E-8	0.010797
1.370000E-8	0.010422
1.375000E-8	0.009852
1.380000E-8	0.008859
1.385000E-8	0.008367
1.390000E-8	0.007148
1.395000E-8	0.005961
1.400000E-8	0.004523
1.405000E-8	0.003711
1.410000E-8	0.002500
1.415000E-8	0.001984
1.420000E-8	0.001055
1.425000E-8	0.000836
1.430000E-8	0.000883
1.435000E-8	0.001195
1.440000E-8	0.001766
1.445000E-8	0.002477
1.450000E-8	0.003359
1.455000E-8	0.004602
1.460000E-8	0.005609
1.465000E-8	0.006789
1.470000E-8	0.007641
1.475000E-8	0.008625
1.480000E-8	0.009266
1.485000E-8	0.009984
1.490000E-8	0.009953
1.495000E-8	0.009859
1.500000E-8	0.009273
1.505000E-8	0.008609
1.510000E-8	0.007719
1.515000E-8	0.006703
1.520000E-8	0.005547
1.525000E-8	0.004453
1.530000E-8	0.003180
1.535000E-8	0.001984
1.540000E-8	0.001148
1.545000E-8	0.000523
1.550000E-8	-0.000250
1.555000E-8	-0.000258
1.560000E-8	-0.000148
1.565000E-8	0.000234
1.570000E-8	0.000789
1.575000E-8	0.001625
1.580000E-8	0.002531
1.585000E-8	0.003641
1.590000E-8	0.004664
1.595000E-8	0.005875
1.600000E-8	0.006781
1.605000E-8	0.008000
1.610000E-8	0.008453
1.615000E-8	0.009070
1.620000E-8	0.009234
1.625000E-8	0.009453
1.630000E-8	0.008930
1.635000E-8	0.008242
1.640000E-8	0.007180
1.645000E-8	0.006313
1.650000E-8	0.005047
1.655000E-8	0.003922
1.660000E-8	0.002734
1.665000E-8	0.001687
1.670000E-8	0.000633
1.675000E-8	-9.375000E-5
1.680000E-8	-0.000438
1.685000E-8	-0.000484
1.690000E-8	-0.000539
1.695000E-8	-7.812500E-5
1.700000E-8	0.000438
1.705000E-8	0.001383
1.710000E-8	0.002320
1.715000E-8	0.003461
1.720000E-8	0.004562
1.725000E-8	0.005648
1.730000E-8	0.006406
1.735000E-8	0.007320
1.740000E-8	0.007781
1.745000E-8	0.008266
1.750000E-8	0.008195
1.755000E-8	0.007953
1.760000E-8	0.007492
1.765000E-8	0.007141
1.770000E-8	0.006070
1.775000E-8	0.005422
1.780000E-8	0.004242
1.785000E-8	0.003414
1.790000E-8	0.002172
1.795000E-8	0.001133
1.800000E-8	0.000148
1.805000E-8	-0.000391
1.810000E-8	-0.001117
1.815000E-8	-0.001273
1.820000E-8	-0.001352
1.825000E-8	-0.001063
1.830000E-8	-0.000578
1.835000E-8	0.000375
1.840000E-8	0.001164
1.845000E-8	0.002586
1.850000E-8	0.003656
1.855000E-8	0.004633
1.860000E-8	0.005711
1.865000E-8	0.006586
1.870000E-8	0.007219
1.875000E-8	0.007594
1.880000E-8	0.007687
1.885000E-8	0.007859
1.890000E-8	0.007336
1.895000E-8	0.006781
1.900000E-8	0.006086
1.905000E-8	0.005242
1.910000E-8	0.004102
1.915000E-8	0.003172
1.920000E-8	0.001844
1.925000E-8	0.001234
1.930000E-8	0.000570
1.935000E-8	1.562500E-5
1.940000E-8	-0.000445
1.945000E-8	-0.000438
1.950000E-8	-0.000578
1.955000E-8	-0.000461
1.960000E-8	0.000172
1.965000E-8	0.000547
1.970000E-8	0.001297
1.975000E-8	0.002344
1.980000E-8	0.002977
1.985000E-8	0.004016
1.990000E-8	0.004867
1.995000E-8	0.005836
2.000000E-8	0.006445
2.005000E-8	0.006914
2.010000E-8	0.007203
2.015000E-8	0.007281
2.020000E-8	0.006984
2.025000E-8	0.006680
2.030000E-8	0.006047
2.035000E-8	0.005352
2.040000E-8	0.004414
2.045000E-8	0.003664
2.050000E-8	0.002531
2.055000E-8	0.001656
2.060000E-8	0.000922
2.065000E-8	0.000320
2.070000E-8	-0.000328
2.075000E-8	-0.000555
2.080000E-8	-0.000789
2.085000E-8	-0.000766
2.090000E-8	-0.000555
2.095000E-8	4.687500E-5
2.100000E-8	0.000578
2.105000E-8	0.001437
2.110000E-8	0.002336
2.115000E-8	0.003445
2.120000E-8	0.004047
2.125000E-8	0.005031
2.130000E-8	0.005687
2.135000E-8	0.006273
2.140000E-8	0.006422
2.145000E-8	0.006758
2.150000E-8	0.006711
2.155000E-8	0.006359
2.160000E-8	0.005695
2.165000E-8	0.005109
2.170000E-8	0.004461
2.175000E-8	0.003453
2.180000E-8	0.002422
2.185000E-8	0.001469
2.190000E-8	0.000750
2.195000E-8	-7.812500E-5
2.200000E-8	-0.000711
2.205000E-8	-0.001000
2.210000E-8	-0.001414
2.215000E-8	-0.000969
2.220000E-8	-0.001109
2.225000E-8	-0.000438
2.230000E-8	7.812500E-6
2.235000E-8	0.000828
2.240000E-8	0.001703
2.245000E-8	0.002672
2.250000E-8	0.003227
2.255000E-8	0.004164
2.260000E-8	0.004789
2.265000E-8	0.005562
2.270000E-8	0.006047
2.275000E-8	0.006297
2.280000E-8	0.006211
2.285000E-8	0.006180
2.290000E-8	0.005812
2.295000E-8	0.005664
2.300000E-8	0.004758
2.305000E-8	0.004070
2.310000E-8	0.003125
2.315000E-8	0.002352
2.320000E-8	0.001437
2.325000E-8	0.000742
2.330000E-8	-0.000234
2.335000E-8	-0.000633
2.340000E-8	-0.001078
2.345000E-8	-0.000977
2.350000E-8	-0.000961
2.355000E-8	-0.000461
2.360000E-8	-0.000172
2.365000E-8	0.000508
2.370000E-8	0.001203
2.375000E-8	0.002289
2.380000E-8	0.003102
2.385000E-8	0.004070
2.390000E-8	0.004844
2.395000E-8	0.005531
2.400000E-8	0.005930
2.405000E-8	0.006320
2.410000E-8	0.006266
2.415000E-8	0.006352
2.420000E-8	0.005969
2.425000E-8	0.005641
2.430000E-8	0.004594
2.435000E-8	0.004000
2.440000E-8	0.002766
2.445000E-8	0.001797
2.450000E-8	0.000898
2.455000E-8	0.000195
2.460000E-8	-0.000648
2.465000E-8	-0.000969
2.470000E-8	-0.001344
2.475000E-8	-0.001359
2.480000E-8	-0.001313
2.485000E-8	-0.000766
2.490000E-8	-0.000492
2.495000E-8	0.000438
2.500000E-8	0.001180
2.505000E-8	0.002359
2.510000E-8	0.003094
2.515000E-8	0.003656
2.520000E-8	0.004555
2.525000E-8	0.005406
2.530000E-8	0.005875
2.535000E-8	0.006469
2.540000E-8	0.006273
2.545000E-8	0.006391
2.550000E-8	0.006086
2.555000E-8	0.005570
2.560000E-8	0.004867
2.565000E-8	0.003938
2.570000E-8	0.003008
2.575000E-8	0.001914
2.580000E-8	0.000750
2.585000E-8	9.375000E-5
2.590000E-8	-0.000391
2.595000E-8	-0.000789
2.600000E-8	-0.001242
2.605000E-8	-0.001359
2.610000E-8	-0.001164
2.615000E-8	-0.000742
2.620000E-8	-0.000523
2.625000E-8	0.000227
2.630000E-8	0.001070
2.635000E-8	0.001977
2.640000E-8	0.002609
2.645000E-8	0.003609
2.650000E-8	0.004383
2.655000E-8	0.005344
2.660000E-8	0.005789
2.665000E-8	0.006289
2.670000E-8	0.006477
2.675000E-8	0.006594
2.680000E-8	0.005930
2.685000E-8	0.005516
2.690000E-8	0.004773
2.695000E-8	0.004180
2.700000E-8	0.003039
2.705000E-8	0.002109
2.710000E-8	0.001109
2.715000E-8	0.000289
2.720000E-8	-0.000547
2.725000E-8	-0.000891
2.730000E-8	-0.001156
2.735000E-8	-0.000961
2.740000E-8	-0.000914
2.745000E-8	-0.000523
2.750000E-8	-0.000227
2.755000E-8	0.000570
2.760000E-8	0.001125
2.765000E-8	0.002063
2.770000E-8	0.002711
2.775000E-8	0.003570
2.780000E-8	0.004133
2.785000E-8	0.004945
2.790000E-8	0.005352
2.795000E-8	0.005750
2.800000E-8	0.005672
2.805000E-8	0.005695
2.810000E-8	0.005484
2.815000E-8	0.005172
2.820000E-8	0.004328
2.825000E-8	0.003656
2.830000E-8	0.002766
2.835000E-8	0.002102
2.840000E-8	0.001250
2.845000E-8	0.000680
2.850000E-8	4.687500E-5
2.855000E-8	-0.000227
2.860000E-8	-0.000742
2.865000E-8	-0.000719
2.870000E-8	-0.000523
2.875000E-8	-0.000445
2.880000E-8	9.375000E-5
2.885000E-8	0.000633
2.890000E-8	0.001437
2.895000E-8	0.002281
2.900000E-8	0.002859
2.905000E-8	0.003891
2.910000E-8	0.004586
2.915000E-8	0.005250
2.920000E-8	0.005492
2.925000E-8	0.005867
2.930000E-8	0.005852
2.935000E-8	0.005852
2.940000E-8	0.005188
2.945000E-8	0.005023
2.950000E-8	0.004242
2.955000E-8	0.003609
2.960000E-8	0.002734
2.965000E-8	0.002141
2.970000E-8	0.001266
2.975000E-8	0.000930
2.980000E-8	0.000367
2.985000E-8	-9.375000E-5
2.990000E-8	-0.000570
2.995000E-8	-0.000602
3.000000E-8	-0.000695
3.005000E-8	-0.000414
3.010000E-8	-0.000164
3.015000E-8	0.000469
3.020000E-8	0.000977
3.025000E-8	0.001727
3.030000E-8	0.002477
3.035000E-8	0.003227
3.040000E-8	0.003938
3.045000E-8	0.004594
3.050000E-8	0.004867
3.055000E-8	0.005234
3.060000E-8	0.005352
3.065000E-8	0.005453
3.070000E-8	0.005320
3.075000E-8	0.004883
3.080000E-8	0.004500
3.085000E-8	0.004055
3.090000E-8	0.003289
3.095000E-8	0.002680
3.100000E-8	0.001766
3.105000E-8	0.001141
3.110000E-8	0.000617
3.115000E-8	0.000391
3.120000E-8	-0.000383
3.125000E-8	-0.000320
3.130000E-8	-0.000539
3.135000E-8	-0.000117
3.140000E-8	-4.687500E-5
3.145000E-8	0.000609
3.150000E-8	0.001242
3.155000E-8	0.001719
3.160000E-8	0.002406
3.165000E-8	0.003055
3.170000E-8	0.003367
3.175000E-8	0.004086
3.180000E-8	0.004219
3.185000E-8	0.004680
3.190000E-8	0.004758
3.195000E-8	0.004922
3.200000E-8	0.004828
3.205000E-8	0.004797
3.210000E-8	0.004305
3.215000E-8	0.003930
3.220000E-8	0.003211
3.225000E-8	0.002758
3.230000E-8	0.001914
3.235000E-8	0.001141
3.240000E-8	0.000555
3.245000E-8	0.000383
3.250000E-8	-7.812500E-5
3.255000E-8	-0.000258
3.260000E-8	-0.000422
3.265000E-8	-7.031250E-5
3.270000E-8	0.000211
3.275000E-8	0.000547
3.280000E-8	0.001031
3.285000E-8	0.001664
3.290000E-8	0.001969
3.295000E-8	0.002766
3.300000E-8	0.003211
3.305000E-8	0.003906
3.310000E-8	0.004242
3.315000E-8	0.004828
3.320000E-8	0.004945
3.325000E-8	0.005242
3.330000E-8	0.005297
3.335000E-8	0.005328
3.340000E-8	0.004578
3.345000E-8	0.004203
3.350000E-8	0.003695
3.355000E-8	0.002969
3.360000E-8	0.002141
3.365000E-8	0.001516
3.370000E-8	0.000898
3.375000E-8	0.000250
3.380000E-8	-0.000266
3.385000E-8	-0.000469
3.390000E-8	-0.000633
3.395000E-8	-0.000805
3.400000E-8	-0.000781
3.405000E-8	-0.000195
3.410000E-8	0.000141
3.415000E-8	0.001000
3.420000E-8	0.001469
3.425000E-8	0.002656
3.430000E-8	0.002922
3.435000E-8	0.003805
3.440000E-8	0.004227
3.445000E-8	0.004836
3.450000E-8	0.005031
3.455000E-8	0.005188
3.460000E-8	0.005055
3.465000E-8	0.005141
3.470000E-8	0.004687
3.475000E-8	0.004211
3.480000E-8	0.003438
3.485000E-8	0.002867
3.490000E-8	0.002336
3.495000E-8	0.001719
3.500000E-8	0.001016
3.505000E-8	0.000563
3.510000E-8	8.593750E-5
3.515000E-8	-7.812500E-5
3.520000E-8	-0.000195
3.525000E-8	-7.031250E-5
3.530000E-8	-0.000141
3.535000E-8	0.000258
3.540000E-8	0.000758
3.545000E-8	0.001406
3.550000E-8	0.001711
3.555000E-8	0.002461
3.560000E-8	0.002992
3.565000E-8	0.003688
3.570000E-8	0.003914
3.575000E-8	0.004422
3.580000E-8	0.004828
3.585000E-8	0.005000
3.590000E-8	0.004883
3.595000E-8	0.004805
3.600000E-8	0.004453
3.605000E-8	0.004453
3.610000E-8	0.003438
3.615000E-8	0.002930
3.620000E-8	0.002148
3.625000E-8	0.001633
3.630000E-8	0.001047
3.635000E-8	0.000422
3.640000E-8	-4.687500E-5
3.645000E-8	-0.000461
3.650000E-8	-0.000531
3.655000E-8	-0.000391
3.660000E-8	-0.000328
3.665000E-8	7.812500E-6
3.670000E-8	0.000414
3.675000E-8	0.000914
3.680000E-8	0.001750
3.685000E-8	0.002484
3.690000E-8	0.003102
3.695000E-8	0.003812
3.700000E-8	0.004086
3.705000E-8	0.004523
3.710000E-8	0.004914
3.715000E-8	0.005063
3.720000E-8	0.005109
3.725000E-8	0.005086
3.730000E-8	0.004820
3.735000E-8	0.004438
3.740000E-8	0.003961
3.745000E-8	0.003391
3.750000E-8	0.002633
3.755000E-8	0.002039
3.760000E-8	0.001461
3.765000E-8	0.000813
3.770000E-8	0.000492
3.775000E-8	0.000352
3.780000E-8	7.031250E-5
3.785000E-8	0.000383
3.790000E-8	0.000297
3.795000E-8	0.000445
3.800000E-8	0.000805
3.805000E-8	0.001313
3.810000E-8	0.001648
3.815000E-8	0.002367
3.820000E-8	0.002734
3.825000E-8	0.003547
3.830000E-8	0.004008
3.835000E-8	0.004414
3.840000E-8	0.004625
3.845000E-8	0.004781
3.850000E-8	0.004891
3.855000E-8	0.004797
3.860000E-8	0.004469
3.865000E-8	0.004219
3.870000E-8	0.003680
3.875000E-8	0.003297
3.880000E-8	0.002617
3.885000E-8	0.002078
3.890000E-8	0.001391
3.895000E-8	0.000914
3.900000E-8	0.000367
3.905000E-8	8.593750E-5
3.910000E-8	-8.593750E-5
3.915000E-8	2.343750E-5
3.920000E-8	0.000102
3.925000E-8	0.000445
3.930000E-8	0.000516
3.935000E-8	0.001234
3.940000E-8	0.001672
3.945000E-8	0.002156
3.950000E-8	0.002500
3.955000E-8	0.003453
3.960000E-8	0.003602
3.965000E-8	0.004141
3.970000E-8	0.004438
3.975000E-8	0.004992
3.980000E-8	0.004602
3.985000E-8	0.004719
3.990000E-8	0.004414
3.995000E-8	0.004203
4.000000E-8	0.003898
4.005000E-8	0.003461
4.010000E-8	0.002781
4.015000E-8	0.002414
4.020000E-8	0.001789
4.025000E-8	0.001563
4.030000E-8	0.000789
4.035000E-8	0.000445
4.040000E-8	0.000180
4.045000E-8	-5.468750E-5
4.050000E-8	7.031250E-5
4.055000E-8	0.000313
4.060000E-8	0.000547
4.065000E-8	0.001180
4.070000E-8	0.001570
4.075000E-8	0.002211
4.080000E-8	0.002906
4.085000E-8	0.003688
4.090000E-8	0.004016
4.095000E-8	0.004648
4.100000E-8	0.004859
4.105000E-8	0.005039
4.110000E-8	0.004766
4.115000E-8	0.004898
4.120000E-8	0.004500
4.125000E-8	0.004234
4.130000E-8	0.003828
4.135000E-8	0.003539
4.140000E-8	0.002750
4.145000E-8	0.002578
4.150000E-8	0.001891
4.155000E-8	0.001531
4.160000E-8	0.001016
4.165000E-8	0.000852
4.170000E-8	0.000625
4.175000E-8	0.000773
4.180000E-8	0.000500
4.185000E-8	0.000648
4.190000E-8	0.000758
4.195000E-8	0.001156
4.200000E-8	0.001289
4.205000E-8	0.001922
4.210000E-8	0.002414
4.215000E-8	0.003164
4.220000E-8	0.003500
4.225000E-8	0.003898
4.230000E-8	0.004281
4.235000E-8	0.004500
4.240000E-8	0.004492
4.245000E-8	0.004625
4.250000E-8	0.004203
4.255000E-8	0.004063
4.260000E-8	0.003617
4.265000E-8	0.003242
4.270000E-8	0.002922
4.275000E-8	0.002500
4.280000E-8	0.001898
4.285000E-8	0.001406
4.290000E-8	0.000758
4.295000E-8	0.000523
4.300000E-8	0.000180
4.305000E-8	0.000203
4.310000E-8	4.687500E-5
4.315000E-8	0.000359
4.320000E-8	0.000516
4.325000E-8	0.000875
4.330000E-8	0.001266
4.335000E-8	0.001656
4.340000E-8	0.002164
4.345000E-8	0.002906
4.350000E-8	0.003258
4.355000E-8	0.003758
4.360000E-8	0.003969
4.365000E-8	0.004281
4.370000E-8	0.004406
4.375000E-8	0.004367
4.380000E-8	0.004188
4.385000E-8	0.003977
4.390000E-8	0.003711
4.395000E-8	0.003398
4.400000E-8	0.002867
4.405000E-8	0.002586
4.410000E-8	0.002164
4.415000E-8	0.001781
4.420000E-8	0.001187
4.425000E-8	0.001055
4.430000E-8	0.000523
4.435000E-8	0.000297
4.440000E-8	-6.250000E-5
4.445000E-8	0.000141
4.450000E-8	0.000352
4.455000E-8	0.000883
4.460000E-8	0.001125
4.465000E-8	0.001742
4.470000E-8	0.002070
4.475000E-8	0.002609
4.480000E-8	0.003172
4.485000E-8	0.003875
4.490000E-8	0.004055
4.495000E-8	0.004391
4.500000E-8	0.004297
4.505000E-8	0.004414
4.510000E-8	0.004242
4.515000E-8	0.004078
4.520000E-8	0.003680
4.525000E-8	0.003250
4.530000E-8	0.002563
4.535000E-8	0.002102
4.540000E-8	0.001594
4.545000E-8	0.001211
4.550000E-8	0.000867
4.555000E-8	0.000617
4.560000E-8	5.468750E-5
4.565000E-8	0.000133
4.570000E-8	0.000242
4.575000E-8	0.000469
4.580000E-8	0.000789
4.585000E-8	0.001148
4.590000E-8	0.001352
4.595000E-8	0.001953
4.600000E-8	0.002172
4.605000E-8	0.002766
4.610000E-8	0.003039
4.615000E-8	0.003648
4.620000E-8	0.003922
4.625000E-8	0.004047
4.630000E-8	0.004141
4.635000E-8	0.004438
4.640000E-8	0.004031
4.645000E-8	0.004008
4.650000E-8	0.003789
4.655000E-8	0.003500
4.660000E-8	0.002797
4.665000E-8	0.002633
4.670000E-8	0.002180
4.675000E-8	0.001656
4.680000E-8	0.001016
4.685000E-8	0.000781
4.690000E-8	0.000445
4.695000E-8	0.000617
4.700000E-8	0.000391
4.705000E-8	0.000750
4.710000E-8	0.000781
4.715000E-8	0.001156
4.720000E-8	0.001492
4.725000E-8	0.002000
4.730000E-8	0.002203
4.735000E-8	0.002805
4.740000E-8	0.003125
4.745000E-8	0.003547
4.750000E-8	0.003844
4.755000E-8	0.004258
4.760000E-8	0.004148
4.765000E-8	0.004250
4.770000E-8	0.003758
4.775000E-8	0.003984
4.780000E-8	0.003602
4.785000E-8	0.003375
4.790000E-8	0.002867
4.795000E-8	0.002320
4.800000E-8	0.001820
4.805000E-8	0.001398
4.810000E-8	0.001125
4.815000E-8	0.000852
4.820000E-8	0.000539
4.825000E-8	0.000844
4.830000E-8	0.000609
4.835000E-8	0.000602
4.840000E-8	0.000602
4.845000E-8	0.001031
4.850000E-8	0.001344
4.855000E-8	0.001609
4.860000E-8	0.001836
4.865000E-8	0.002531
4.870000E-8	0.002672
4.875000E-8	0.003234
4.880000E-8	0.003211
4.885000E-8	0.003508
4.890000E-8	0.003711
4.895000E-8	0.003805
4.900000E-8	0.003969
4.905000E-8	0.003828
4.910000E-8	0.003742
4.915000E-8	0.003656
4.920000E-8	0.003227
4.925000E-8	0.002977
4.930000E-8	0.002547
4.935000E-8	0.002164
4.940000E-8	0.001578
4.945000E-8	0.001367
4.950000E-8	0.000953
4.955000E-8	0.000937
4.960000E-8	0.000633
4.965000E-8	0.000641
4.970000E-8	0.000813
4.975000E-8	0.001297
4.980000E-8	0.001703
4.985000E-8	0.002234
4.990000E-8	0.002164
4.995000E-8	0.002773
5.000000E-8	0.003070
5.005000E-8	0.003438
5.010000E-8	0.003438
5.015000E-8	0.003477
5.020000E-8	0.003555
5.025000E-8	0.003781
5.030000E-8	0.003781
5.035000E-8	0.003773
5.040000E-8	0.003383
5.045000E-8	0.003047
5.050000E-8	0.002680
5.055000E-8	0.002477
5.060000E-8	0.002211
5.065000E-8	0.001828
5.070000E-8	0.001633
5.075000E-8	0.001523
5.080000E-8	0.000984
5.085000E-8	0.000828
5.090000E-8	0.000687
5.095000E-8	0.000836
5.100000E-8	0.000852
5.105000E-8	0.001070
5.110000E-8	0.000922
5.115000E-8	0.001430
5.120000E-8	0.001633
5.125000E-8	0.001945
5.130000E-8	0.002406
5.135000E-8	0.003016
5.140000E-8	0.003391
5.145000E-8	0.003828
5.150000E-8	0.003805
5.155000E-8	0.004156
5.160000E-8	0.004023
5.165000E-8	0.003953
5.170000E-8	0.003758
5.175000E-8	0.003727
5.180000E-8	0.003086
5.185000E-8	0.003055
5.190000E-8	0.002367
5.195000E-8	0.002109
5.200000E-8	0.001375
5.205000E-8	0.001281
5.210000E-8	0.000992
5.215000E-8	0.001000
5.220000E-8	0.000859
5.225000E-8	0.000969
5.230000E-8	0.000875
5.235000E-8	0.001047
5.240000E-8	0.001234
5.245000E-8	0.001445
5.250000E-8	0.001805
5.255000E-8	0.002188
5.260000E-8	0.002594
5.265000E-8	0.003172
5.270000E-8	0.003242
5.275000E-8	0.003531
5.280000E-8	0.003750
5.285000E-8	0.003945
5.290000E-8	0.003719
5.295000E-8	0.003914
5.300000E-8	0.003422
5.305000E-8	0.003312
5.310000E-8	0.002969
5.315000E-8	0.002750
5.320000E-8	0.002359
5.325000E-8	0.002086
5.330000E-8	0.001555
5.335000E-8	0.001445
5.340000E-8	0.001180
5.345000E-8	0.001109
5.350000E-8	0.000898
5.355000E-8	0.000828
5.360000E-8	0.000797
5.365000E-8	0.001133
5.370000E-8	0.001258
5.375000E-8	0.001609
5.380000E-8	0.001859
5.385000E-8	0.002375
5.390000E-8	0.002570
5.395000E-8	0.002836
5.400000E-8	0.003242
5.405000E-8	0.003641
5.410000E-8	0.003805
5.415000E-8	0.004148
5.420000E-8	0.003875
5.425000E-8	0.004188
5.430000E-8	0.003992
5.435000E-8	0.003734
5.440000E-8	0.003516
5.445000E-8	0.003156
5.450000E-8	0.002586
5.455000E-8	0.002258
5.460000E-8	0.001750
5.465000E-8	0.001422
5.470000E-8	0.001359
5.475000E-8	0.001297
5.480000E-8	0.001227
5.485000E-8	0.000953
5.490000E-8	0.001094
5.495000E-8	0.001234
5.500000E-8	0.001023
5.505000E-8	0.001664
5.510000E-8	0.001656
5.515000E-8	0.002117
5.520000E-8	0.002367
5.525000E-8	0.002672
5.530000E-8	0.003047
5.535000E-8	0.003391
5.540000E-8	0.003273
5.545000E-8	0.003648
5.550000E-8	0.003719
5.555000E-8	0.003867
5.560000E-8	0.003719
5.565000E-8	0.003617
5.570000E-8	0.003219
5.575000E-8	0.003188
5.580000E-8	0.002563
5.585000E-8	0.002359
5.590000E-8	0.001969
5.595000E-8	0.001797
5.600000E-8	0.001461
5.605000E-8	0.001234
5.610000E-8	0.000898
5.615000E-8	0.000930
5.620000E-8	0.000953
5.625000E-8	0.001109
5.630000E-8	0.001094
5.635000E-8	0.001453
5.640000E-8	0.001516
5.645000E-8	0.002031
5.650000E-8	0.002227
5.655000E-8	0.002797
5.660000E-8	0.002977
5.665000E-8	0.003297
5.670000E-8	0.003375
5.675000E-8	0.003609
5.680000E-8	0.003445
5.685000E-8	0.003406
5.690000E-8	0.003297
5.695000E-8	0.003188
5.700000E-8	0.002992
5.705000E-8	0.002844
5.710000E-8	0.002555
5.715000E-8	0.002109
5.720000E-8	0.001844
5.725000E-8	0.001656
5.730000E-8	0.001328
5.735000E-8	0.001359
5.740000E-8	0.001195
5.745000E-8	0.001492
5.750000E-8	0.001289
5.755000E-8	0.001531
5.760000E-8	0.001516
5.765000E-8	0.001773
5.770000E-8	0.001891
5.775000E-8	0.002266
5.780000E-8	0.002422
5.785000E-8	0.003008
5.790000E-8	0.003242
5.795000E-8	0.003438
5.800000E-8	0.003719
5.805000E-8	0.003914
5.810000E-8	0.003852
5.815000E-8	0.004117
5.820000E-8	0.003734
5.825000E-8	0.003812
5.830000E-8	0.003570
5.835000E-8	0.003242
5.840000E-8	0.002719
5.845000E-8	0.002437
5.850000E-8	0.002016
5.855000E-8	0.001961
5.860000E-8	0.001609
5.865000E-8	0.001531
5.870000E-8	0.001313
5.875000E-8	0.001266
5.880000E-8	0.001281
5.885000E-8	0.001398
5.890000E-8	0.001477
5.895000E-8	0.001672
5.900000E-8	0.001680
5.905000E-8	0.001992
5.910000E-8	0.002266
5.915000E-8	0.002523
5.920000E-8	0.002641
5.925000E-8	0.002969
5.930000E-8	0.002938
5.935000E-8	0.003266
5.940000E-8	0.003406
5.945000E-8	0.003438
5.950000E-8	0.003219
5.955000E-8	0.003031
5.960000E-8	0.002836
5.965000E-8	0.002945
5.970000E-8	0.002516
5.975000E-8	0.002328
5.980000E-8	0.002031
5.985000E-8	0.002055
5.990000E-8	0.001672
5.995000E-8	0.001578
6.000000E-8	0.001406
6.005000E-8	0.001187
6.010000E-8	0.000914
6.015000E-8	0.000820
6.020000E-8	0.000930
6.025000E-8	0.001461
6.030000E-8	0.001664
6.035000E-8	0.002031
6.040000E-8	0.002203
6.045000E-8	0.002836
6.050000E-8	0.002867
6.055000E-8	0.003555
6.060000E-8	0.003641
6.065000E-8	0.003836
6.070000E-8	0.003664
6.075000E-8	0.003844
6.080000E-8	0.003570
6.085000E-8	0.003578
6.090000E-8	0.003258
6.095000E-8	0.003273
6.100000E-8	0.002703
6.105000E-8	0.002617
6.110000E-8	0.002344
6.115000E-8	0.002055
6.120000E-8	0.001828
6.125000E-8	0.001750
6.130000E-8	0.001641
6.135000E-8	0.001758
6.140000E-8	0.001625
6.145000E-8	0.001664
6.150000E-8	0.001680
6.155000E-8	0.001656
6.160000E-8	0.001609
6.165000E-8	0.001891
6.170000E-8	0.001906
6.175000E-8	0.002305
6.180000E-8	0.002258
6.185000E-8	0.002492
6.190000E-8	0.002789
6.195000E-8	0.002938
6.200000E-8	0.002812
6.205000E-8	0.003211
6.210000E-8	0.003227
6.215000E-8	0.003336
6.220000E-8	0.002906
6.225000E-8	0.002930
6.230000E-8	0.002734
6.235000E-8	0.002445
6.240000E-8	0.001922
6.245000E-8	0.002063
6.250000E-8	0.001766
6.255000E-8	0.001703
6.260000E-8	0.001391
6.265000E-8	0.001445
6.270000E-8	0.001422
6.275000E-8	0.001414
6.280000E-8	0.001383
6.285000E-8	0.001523
6.290000E-8	0.001664
6.295000E-8	0.002016
6.300000E-8	0.002023
6.305000E-8	0.002305
6.310000E-8	0.002188
6.315000E-8	0.002727
6.320000E-8	0.002844
6.325000E-8	0.003086
6.330000E-8	0.003180
6.335000E-8	0.003469
6.340000E-8	0.003320
6.345000E-8	0.003414
6.350000E-8	0.003289
6.355000E-8	0.003195
6.360000E-8	0.002922
6.365000E-8	0.002750
6.370000E-8	0.002328
6.375000E-8	0.002227
6.380000E-8	0.001789
6.385000E-8	0.001578
6.390000E-8	0.001367
6.395000E-8	0.001313
6.400000E-8	0.001117
6.405000E-8	0.001055
6.410000E-8	0.001070
6.415000E-8	0.001391
6.420000E-8	0.001492
6.425000E-8	0.001758
6.430000E-8	0.001891
6.435000E-8	0.002203
6.440000E-8	0.002437
6.445000E-8	0.002906
6.450000E-8	0.002906
6.455000E-8	0.003227
6.460000E-8	0.003016
6.465000E-8	0.003086
6.470000E-8	0.003289
6.475000E-8	0.003461
6.480000E-8	0.003273
6.485000E-8	0.003070
6.490000E-8	0.002781
6.495000E-8	0.002719
6.500000E-8	0.002359
6.505000E-8	0.002102
6.510000E-8	0.002008
6.515000E-8	0.001844
6.520000E-8	0.001305
6.525000E-8	0.001328
6.530000E-8	0.001328
6.535000E-8	0.001445
6.540000E-8	0.001344
6.545000E-8	0.001578
6.550000E-8	0.001969
6.555000E-8	0.002281
6.560000E-8	0.002406
6.565000E-8	0.002680
6.570000E-8	0.002852
6.575000E-8	0.003172
6.580000E-8	0.003391
6.585000E-8	0.003594
6.590000E-8	0.003609
6.595000E-8	0.003633
6.600000E-8	0.003578
6.605000E-8	0.003461
6.610000E-8	0.003070
6.615000E-8	0.002633
6.620000E-8	0.002344
6.625000E-8	0.002305
6.630000E-8	0.002008
6.635000E-8	0.001789
6.640000E-8	0.001430
6.645000E-8	0.001719
6.650000E-8	0.001422
6.655000E-8	0.001570
6.660000E-8	0.001602
6.665000E-8	0.001617
6.670000E-8	0.001430
6.675000E-8	0.001820
6.680000E-8	0.001563
6.685000E-8	0.001953
6.690000E-8	0.002227
6.695000E-8	0.002437
6.700000E-8	0.002219
6.705000E-8	0.002680
6.710000E-8	0.002789
6.715000E-8	0.003086
6.720000E-8	0.003016
6.725000E-8	0.003211
6.730000E-8	0.003156
6.735000E-8	0.003000
6.740000E-8	0.002766
6.745000E-8	0.002656
6.750000E-8	0.002570
6.755000E-8	0.002617
6.760000E-8	0.002258
6.765000E-8	0.002195
6.770000E-8	0.002078
6.775000E-8	0.001867
6.780000E-8	0.001766
6.785000E-8	0.001922
6.790000E-8	0.001750
6.795000E-8	0.001687
6.800000E-8	0.001773
6.805000E-8	0.001789
6.810000E-8	0.001656
6.815000E-8	0.001984
6.820000E-8	0.002211
6.825000E-8	0.002289
6.830000E-8	0.002320
6.835000E-8	0.002461
6.840000E-8	0.002500
6.845000E-8	0.002750
6.850000E-8	0.002734
6.855000E-8	0.003055
6.860000E-8	0.003039
6.865000E-8	0.003211
6.870000E-8	0.003125
6.875000E-8	0.003250
6.880000E-8	0.002867
6.885000E-8	0.002828
6.890000E-8	0.002586
6.895000E-8	0.002516
6.900000E-8	0.002242
6.905000E-8	0.002047
6.910000E-8	0.001883
6.915000E-8	0.001687
6.920000E-8	0.001477
6.925000E-8	0.001313
6.930000E-8	0.001242
6.935000E-8	0.001609
6.940000E-8	0.001578
6.945000E-8	0.001852
6.950000E-8	0.002008
6.955000E-8	0.002367
6.960000E-8	0.002383
6.965000E-8	0.002602
6.970000E-8	0.002664
6.975000E-8	0.002906
6.980000E-8	0.002938
6.985000E-8	0.003086
6.990000E-8	0.003016
6.995000E-8	0.003047
7.000000E-8	0.003086
7.005000E-8	0.003094
7.010000E-8	0.002961
7.015000E-8	0.002906
7.020000E-8	0.002766
7.025000E-8	0.002930
7.030000E-8	0.002711
7.035000E-8	0.002516
7.040000E-8	0.002055
7.045000E-8	0.001992
7.050000E-8	0.001766
7.055000E-8	0.001789
7.060000E-8	0.001789
7.065000E-8	0.001664
7.070000E-8	0.001641
7.075000E-8	0.001984
7.080000E-8	0.002023
7.085000E-8	0.002188
7.090000E-8	0.002242
7.095000E-8	0.002461
7.100000E-8	0.002469
7.105000E-8	0.002852
7.110000E-8	0.002695
7.115000E-8	0.002883
7.120000E-8	0.002766
7.125000E-8	0.002922
7.130000E-8	0.002781
7.135000E-8	0.002906
7.140000E-8	0.002695
7.145000E-8	0.002719
7.150000E-8	0.002437
7.155000E-8	0.002242
7.160000E-8	0.002016
7.165000E-8	0.001922
7.170000E-8	0.001594
7.175000E-8	0.001469
7.180000E-8	0.001195
7.185000E-8	0.001180
7.190000E-8	0.001500
7.195000E-8	0.001500
7.200000E-8	0.001609
7.205000E-8	0.002039
7.210000E-8	0.001961
7.215000E-8	0.002344
7.220000E-8	0.002492
7.225000E-8	0.002602
7.230000E-8	0.002695
7.235000E-8	0.002938
7.240000E-8	0.002977
7.245000E-8	0.003164
7.250000E-8	0.003016
7.255000E-8	0.003070
7.260000E-8	0.003219
7.265000E-8	0.003125
7.270000E-8	0.002812
7.275000E-8	0.002953
7.280000E-8	0.002789
7.285000E-8	0.002695
7.290000E-8	0.002305
7.295000E-8	0.002094
7.300000E-8	0.001914
7.305000E-8	0.001859
7.310000E-8	0.001523
7.315000E-8	0.001484
7.320000E-8	0.001336
7.325000E-8	0.001539
7.330000E-8	0.001375
7.335000E-8	0.001500
7.340000E-8	0.001492
7.345000E-8	0.001648
7.350000E-8	0.001867
7.355000E-8	0.002008
7.360000E-8	0.002141
7.365000E-8	0.002352
7.370000E-8	0.002156
7.375000E-8	0.002523
7.380000E-8	0.002516
7.385000E-8	0.002953
7.390000E-8	0.002984
7.395000E-8	0.002883
7.400000E-8	0.002750
7.405000E-8	0.002898
7.410000E-8	0.002820
7.415000E-8	0.002727
7.420000E-8	0.002586
7.425000E-8	0.002719
7.430000E-8	0.002375
7.435000E-8	0.002320
7.440000E-8	0.002078
7.445000E-8	0.002070
7.450000E-8	0.002172
7.455000E-8	0.002164
7.460000E-8	0.001875
7.465000E-8	0.001883
7.470000E-8	0.001852
7.475000E-8	0.002109
7.480000E-8	0.002156
7.485000E-8	0.002367
7.490000E-8	0.002242
7.495000E-8	0.002383
7.500000E-8	0.002086
7.505000E-8	0.002500
7.510000E-8	0.002398
7.515000E-8	0.002609
7.520000E-8	0.002563
7.525000E-8	0.002617
7.530000E-8	0.002789
7.535000E-8	0.002883
7.540000E-8	0.002516
7.545000E-8	0.002508
7.550000E-8	0.002297
7.555000E-8	0.002148
7.560000E-8	0.001898
7.565000E-8	0.001836
7.570000E-8	0.001687
7.575000E-8	0.001719
7.580000E-8	0.001523
7.585000E-8	0.001578
7.590000E-8	0.001531
7.595000E-8	0.001789
7.600000E-8	0.001781
7.605000E-8	0.002078
7.610000E-8	0.002117
7.615000E-8	0.002320
7.620000E-8	0.002312
7.625000E-8	0.002383
7.630000E-8	0.002586
7.635000E-8	0.002766
7.640000E-8	0.002805
7.645000E-8	0.002891
7.650000E-8	0.002703
7.655000E-8	0.002930
7.660000E-8	0.002758
7.665000E-8	0.002633
7.670000E-8	0.002555
7.675000E-8	0.002516
7.680000E-8	0.002234
7.685000E-8	0.002219
7.690000E-8	0.002063
7.695000E-8	0.001891
7.700000E-8	0.001727
7.705000E-8	0.001836
7.710000E-8	0.001664
7.715000E-8	0.001797
7.720000E-8	0.001703
7.725000E-8	0.001836
7.730000E-8	0.001930
7.735000E-8	0.002086
7.740000E-8	0.002070
7.745000E-8	0.002484
7.750000E-8	0.002563
7.755000E-8	0.002750
7.760000E-8	0.002883
7.765000E-8	0.003109
7.770000E-8	0.002953
7.775000E-8	0.003086
7.780000E-8	0.003063
7.785000E-8	0.003383
7.790000E-8	0.003266
7.795000E-8	0.003023
7.800000E-8	0.002672
7.805000E-8	0.002625
7.810000E-8	0.002367
7.815000E-8	0.002336
7.820000E-8	0.002180
7.825000E-8	0.002195
7.830000E-8	0.001937
7.835000E-8	0.001898
7.840000E-8	0.001719
7.845000E-8	0.001922
7.850000E-8	0.001664
7.855000E-8	0.001859
7.860000E-8	0.001664
7.865000E-8	0.001984
7.870000E-8	0.002188
7.875000E-8	0.002547
7.880000E-8	0.002258
7.885000E-8	0.002758
7.890000E-8	0.002828
7.895000E-8	0.002875
7.900000E-8	0.002898
7.905000E-8	0.003047
7.910000E-8	0.003031
7.915000E-8	0.002930
7.920000E-8	0.002812
7.925000E-8	0.002812
7.930000E-8	0.002633
7.935000E-8	0.002477
7.940000E-8	0.002227
7.945000E-8	0.002148
7.950000E-8	0.001937
7.955000E-8	0.002023
7.960000E-8	0.001789
7.965000E-8	0.001898
7.970000E-8	0.001602
7.975000E-8	0.001734
7.980000E-8	0.001680
7.985000E-8	0.001797
7.990000E-8	0.001844
7.995000E-8	0.001961
8.000000E-8	0.002063
8.005000E-8	0.002141
8.010000E-8	0.002070
8.015000E-8	0.002586
8.020000E-8	0.002641
8.025000E-8	0.002828
8.030000E-8	0.002750
8.035000E-8	0.002961
8.040000E-8	0.002906
8.045000E-8	0.002945
8.050000E-8	0.002758
8.055000E-8	0.002750
8.060000E-8	0.002617
8.065000E-8	0.002742
8.070000E-8	0.002539
8.075000E-8	0.002570
8.080000E-8	0.002273
8.085000E-8	0.002406
8.090000E-8	0.002148
8.095000E-8	0.002070
8.100000E-8	0.001664
8.105000E-8	0.001883
8.110000E-8	0.001594
8.115000E-8	0.001711
8.120000E-8	0.001570
8.125000E-8	0.001805
8.130000E-8	0.001875
8.135000E-8	0.002367
8.140000E-8	0.002266
8.145000E-8	0.002633
8.150000E-8	0.002563
8.155000E-8	0.002484
8.160000E-8	0.002312
8.165000E-8	0.002445
8.170000E-8	0.002359
8.175000E-8	0.002547
8.180000E-8	0.002516
8.185000E-8	0.002477
8.190000E-8	0.002500
8.195000E-8	0.002258
8.200000E-8	0.002117
8.205000E-8	0.002102
8.210000E-8	0.001922
8.215000E-8	0.002203
8.220000E-8	0.002039
8.225000E-8	0.002031
8.230000E-8	0.001852
8.235000E-8	0.002117
8.240000E-8	0.001766
8.245000E-8	0.001828
8.250000E-8	0.001570
8.255000E-8	0.001984
8.260000E-8	0.001977
8.265000E-8	0.002258
8.270000E-8	0.002094
8.275000E-8	0.002188
8.280000E-8	0.002320
8.285000E-8	0.002133
8.290000E-8	0.002297
8.295000E-8	0.002430
8.300000E-8	0.002453
8.305000E-8	0.002719
8.310000E-8	0.002750
8.315000E-8	0.002836
8.320000E-8	0.002477
8.325000E-8	0.002602
8.330000E-8	0.002203
8.335000E-8	0.002391
8.340000E-8	0.002383
8.345000E-8	0.002320
8.350000E-8	0.002406
8.355000E-8	0.002523
8.360000E-8	0.002273
8.365000E-8	0.002430
8.370000E-8	0.002445
8.375000E-8	0.002617
8.380000E-8	0.002445
8.385000E-8	0.002563
8.390000E-8	0.002523
8.395000E-8	0.002648
8.400000E-8	0.002414
8.405000E-8	0.002719
8.410000E-8	0.002867
8.415000E-8	0.002961
8.420000E-8	0.002789
8.425000E-8	0.003016
8.430000E-8	0.002961
8.435000E-8	0.003078
8.440000E-8	0.003070
8.445000E-8	0.003156
8.450000E-8	0.002969
8.455000E-8	0.003047
8.460000E-8	0.002750
8.465000E-8	0.002570
8.470000E-8	0.002437
8.475000E-8	0.002383
8.480000E-8	0.002203
8.485000E-8	0.002000
8.490000E-8	0.001664
8.495000E-8	0.001609
8.500000E-8	0.001563
8.505000E-8	0.001766
8.510000E-8	0.001602
8.515000E-8	0.002008
8.520000E-8	0.001867
8.525000E-8	0.001961
8.530000E-8	0.002117
8.535000E-8	0.002406
8.540000E-8	0.002398
8.545000E-8	0.002578
8.550000E-8	0.002656
8.555000E-8	0.002906
8.560000E-8	0.002555
8.565000E-8	0.002906
8.570000E-8	0.002703
8.575000E-8	0.002945
8.580000E-8	0.002836
8.585000E-8	0.002711
8.590000E-8	0.002648
8.595000E-8	0.002633
8.600000E-8	0.002484
8.605000E-8	0.002625
8.610000E-8	0.002508
8.615000E-8	0.002508
8.620000E-8	0.002125
8.625000E-8	0.001852
8.630000E-8	0.001969
8.635000E-8	0.001984
8.640000E-8	0.001922
8.645000E-8	0.002125
8.650000E-8	0.001891
8.655000E-8	0.002195
8.660000E-8	0.001977
8.665000E-8	0.002258
8.670000E-8	0.002102
8.675000E-8	0.002508
8.680000E-8	0.002445
8.685000E-8	0.002617
8.690000E-8	0.002547
8.695000E-8	0.002461
8.700000E-8	0.002477
8.705000E-8	0.002609
8.710000E-8	0.002477
8.715000E-8	0.002430
8.720000E-8	0.002195
8.725000E-8	0.002281
8.730000E-8	0.001937
8.735000E-8	0.002055
8.740000E-8	0.002008
8.745000E-8	0.002211
8.750000E-8	0.001898
8.755000E-8	0.002102
8.760000E-8	0.001859
8.765000E-8	0.001891
8.770000E-8	0.001648
8.775000E-8	0.002008
8.780000E-8	0.001734
8.785000E-8	0.001867
8.790000E-8	0.001609
8.795000E-8	0.001742
8.800000E-8	0.001758
8.805000E-8	0.002188
8.810000E-8	0.002531
8.815000E-8	0.002672
8.820000E-8	0.002742
8.825000E-8	0.002805
8.830000E-8	0.002977
8.835000E-8	0.002984
8.840000E-8	0.002875
8.845000E-8	0.002664
8.850000E-8	0.002695
8.855000E-8	0.002656
8.860000E-8	0.002484
8.865000E-8	0.002484
8.870000E-8	0.002273
8.875000E-8	0.002328
8.880000E-8	0.002109
8.885000E-8	0.002188
8.890000E-8	0.001883
8.895000E-8	0.001859
8.900000E-8	0.001625
8.905000E-8	0.001750
8.910000E-8	0.001773
8.915000E-8	0.002063
8.920000E-8	0.001977
8.925000E-8	0.002172
8.930000E-8	0.002297
8.935000E-8	0.002406
8.940000E-8	0.002312
8.945000E-8	0.002586
8.950000E-8	0.002602
8.955000E-8	0.002617
8.960000E-8	0.002492
8.965000E-8	0.002766
8.970000E-8	0.002328
8.975000E-8	0.002398
8.980000E-8	0.002289
8.985000E-8	0.002398
8.990000E-8	0.002141
8.995000E-8	0.002141
9.000000E-8	0.001977
9.005000E-8	0.002039
9.010000E-8	0.002000
9.015000E-8	0.002023
9.020000E-8	0.002039
9.025000E-8	0.002203
9.030000E-8	0.002258
9.035000E-8	0.002156
9.040000E-8	0.002039
9.045000E-8	0.002141
9.050000E-8	0.001867
9.055000E-8	0.002109
9.060000E-8	0.001883
9.065000E-8	0.002289
9.070000E-8	0.002328
9.075000E-8	0.002477
9.080000E-8	0.002461
9.085000E-8	0.002508
9.090000E-8	0.002539
9.095000E-8	0.002695
9.100000E-8	0.002563
9.105000E-8	0.002703
9.110000E-8	0.002594
9.115000E-8	0.002609
9.120000E-8	0.002273
9.125000E-8	0.002391
9.130000E-8	0.002289
9.135000E-8	0.002461
9.140000E-8	0.002211
9.145000E-8	0.002367
9.150000E-8	0.002156
9.155000E-8	0.002125
9.160000E-8	0.002234
9.165000E-8	0.002219
9.170000E-8	0.002227
9.175000E-8	0.002148
9.180000E-8	0.001992
9.185000E-8	0.002219
9.190000E-8	0.002258
9.195000E-8	0.002227
9.200000E-8	0.002430
9.205000E-8	0.002602
9.210000E-8	0.002664
9.215000E-8	0.002602
9.220000E-8	0.002703
9.225000E-8	0.002945
9.230000E-8	0.002953
9.235000E-8	0.003055
9.240000E-8	0.002812
9.245000E-8	0.002695
9.250000E-8	0.002258
9.255000E-8	0.002375
9.260000E-8	0.002000
9.265000E-8	0.001961
9.270000E-8	0.001750
9.275000E-8	0.001945
9.280000E-8	0.001758
9.285000E-8	0.001820
9.290000E-8	0.001695
9.295000E-8	0.001773
9.300000E-8	0.001953
9.305000E-8	0.002203
9.310000E-8	0.002297
9.315000E-8	0.002437
9.320000E-8	0.002305
9.325000E-8	0.002508
9.330000E-8	0.002531
9.335000E-8	0.002383
9.340000E-8	0.002531
9.345000E-8	0.002633
9.350000E-8	0.002492
9.355000E-8	0.002609
9.360000E-8	0.002625
9.365000E-8	0.002672
9.370000E-8	0.002359
9.375000E-8	0.002656
9.380000E-8	0.002367
9.385000E-8	0.002250
9.390000E-8	0.002102
9.395000E-8	0.002109
9.400000E-8	0.002156
9.405000E-8	0.002305
9.410000E-8	0.002227
9.415000E-8	0.002555
9.420000E-8	0.002312
9.425000E-8	0.002563
9.430000E-8	0.002492
9.435000E-8	0.002625
9.440000E-8	0.002711
9.445000E-8	0.002750
9.450000E-8	0.002734
9.455000E-8	0.002555
9.460000E-8	0.002477
9.465000E-8	0.002523
9.470000E-8	0.002516
9.475000E-8	0.002437
9.480000E-8	0.002133
9.485000E-8	0.002250
9.490000E-8	0.002547
9.495000E-8	0.002719
9.500000E-8	0.002578
9.505000E-8	0.002781
9.510000E-8	0.002594
9.515000E-8	0.002516
9.520000E-8	0.002203
9.525000E-8	0.002445
9.530000E-8	0.002219
9.535000E-8	0.002359
9.540000E-8	0.002055
9.545000E-8	0.002109
9.550000E-8	0.002000
9.555000E-8	0.002039
9.560000E-8	0.001898
9.565000E-8	0.002070
9.570000E-8	0.002047
9.575000E-8	0.002297
9.580000E-8	0.002258
9.585000E-8	0.002711
9.590000E-8	0.002586
9.595000E-8	0.002609
9.600000E-8	0.002328
9.605000E-8	0.002594
9.610000E-8	0.002586
9.615000E-8	0.002617
9.620000E-8	0.002414
9.625000E-8	0.002648
9.630000E-8	0.002633
9.635000E-8	0.002688
9.640000E-8	0.002641
9.645000E-8	0.002672
9.650000E-8	0.002312
9.655000E-8	0.002180
9.660000E-8	0.001961
9.665000E-8	0.002109
9.670000E-8	0.001648
9.675000E-8	0.001664
9.680000E-8	0.001594
9.685000E-8	0.001703
9.690000E-8	0.001680
9.695000E-8	0.001906
9.700000E-8	0.001898
9.705000E-8	0.002227
9.710000E-8	0.002047
9.715000E-8	0.002320
9.720000E-8	0.002305
9.725000E-8	0.002484
9.730000E-8	0.002445
9.735000E-8	0.002422
9.740000E-8	0.002422
9.745000E-8	0.002445
9.750000E-8	0.002563
9.755000E-8	0.002609
9.760000E-8	0.002578
9.765000E-8	0.002695
9.770000E-8	0.002531
9.775000E-8	0.002570
9.780000E-8	0.002344
9.785000E-8	0.002437
9.790000E-8	0.002398
9.795000E-8	0.002398
9.800000E-8	0.002281
9.805000E-8	0.002266
9.810000E-8	0.002055
9.815000E-8	0.002180
9.820000E-8	0.002172
9.825000E-8	0.002414
9.830000E-8	0.002477
9.835000E-8	0.002312
9.840000E-8	0.002289
9.845000E-8	0.002398
9.850000E-8	0.002164
9.855000E-8	0.002297
9.860000E-8	0.002383
9.865000E-8	0.002414
9.870000E-8	0.002375
9.875000E-8	0.002695
9.880000E-8	0.002656
9.885000E-8	0.002852
9.890000E-8	0.002602
9.895000E-8	0.002766
9.900000E-8	0.002711
9.905000E-8	0.002734
9.910000E-8	0.002570
9.915000E-8	0.002602
9.920000E-8	0.002219
9.925000E-8	0.002273
9.930000E-8	0.002008
9.935000E-8	0.002055
9.940000E-8	0.002188
9.945000E-8	0.002070
9.950000E-8	0.002078
9.955000E-8	0.002117
9.960000E-8	0.002109
9.965000E-8	0.002078
9.970000E-8	0.002211
9.975000E-8	0.002430
9.980000E-8	0.002297
9.985000E-8	0.002625
9.990000E-8	0.002453
9.995000E-8	0.002547
