LabVIEW Measurement	
Writer_Version	2
Reader_Version	2
Separator	Tab
Decimal_Separator	.
Multi_Headings	No
X_Columns	Multi
Time_Pref	Relative
Operator	TG lab
Date	2015/03/06
Time	18:04:44.2210173606872558594
***End_of_Header***	
	
Channels	1	
Samples	2000	
Date	1903/12/31	
Time	19:00:00	
X_Dimension	Time	
X0	0.0000000000000000E+0	
Delta_X	5.000000E-11	
***End_of_Header***		
X_Value	Untitled	Comment
0.000000	0.002506
5.000000E-11	0.002559
1.000000E-10	0.002472
1.500000E-10	0.002450
2.000000E-10	0.002425
2.500000E-10	0.002541
3.000000E-10	0.002519
3.500000E-10	0.002656
4.000000E-10	0.002559
4.500000E-10	0.002703
5.000000E-10	0.002731
5.500000E-10	0.002816
6.000000E-10	0.002559
6.500000E-10	0.002653
7.000000E-10	0.002463
7.500000E-10	0.002475
8.000000E-10	0.002331
8.500000E-10	0.002378
9.000000E-10	0.002216
9.500000E-10	0.002222
1.000000E-9	0.002113
1.050000E-9	0.002156
1.100000E-9	0.002225
1.150000E-9	0.002278
1.200000E-9	0.002391
1.250000E-9	0.002475
1.300000E-9	0.002519
1.350000E-9	0.002578
1.400000E-9	0.002472
1.450000E-9	0.002650
1.500000E-9	0.002503
1.550000E-9	0.002591
1.600000E-9	0.002481
1.650000E-9	0.002444
1.700000E-9	0.002372
1.750000E-9	0.002322
1.800000E-9	0.002284
1.850000E-9	0.002237
1.900000E-9	0.002144
1.950000E-9	0.002253
2.000000E-9	0.002206
2.050000E-9	0.002191
2.100000E-9	0.002144
2.150000E-9	0.002222
2.200000E-9	0.002094
2.250000E-9	0.001950
2.300000E-9	0.001834
2.350000E-9	0.001834
2.400000E-9	0.001716
2.450000E-9	0.001663
2.500000E-9	0.001622
2.550000E-9	0.001628
2.600000E-9	0.001678
2.650000E-9	0.001709
2.700000E-9	0.001663
2.750000E-9	0.001784
2.800000E-9	0.001697
2.850000E-9	0.001788
2.900000E-9	0.001687
2.950000E-9	0.001753
3.000000E-9	0.001734
3.050000E-9	0.001656
3.100000E-9	0.001534
3.150000E-9	0.001622
3.200000E-9	0.001597
3.250000E-9	0.001559
3.300000E-9	0.001516
3.350000E-9	0.001591
3.400000E-9	0.001600
3.450000E-9	0.001647
3.500000E-9	0.001634
3.550000E-9	0.001778
3.600000E-9	0.001681
3.650000E-9	0.001681
3.700000E-9	0.001534
3.750000E-9	0.001578
3.800000E-9	0.001459
3.850000E-9	0.001475
3.900000E-9	0.001425
3.950000E-9	0.001450
4.000000E-9	0.001353
4.050000E-9	0.001338
4.100000E-9	0.001428
4.150000E-9	0.001531
4.200000E-9	0.001513
4.250000E-9	0.001694
4.300000E-9	0.001738
4.350000E-9	0.001897
4.400000E-9	0.002028
4.450000E-9	0.002191
4.500000E-9	0.002338
4.550000E-9	0.002384
4.600000E-9	0.002478
4.650000E-9	0.002400
4.700000E-9	0.002244
4.750000E-9	0.001644
4.800000E-9	0.000647
4.850000E-9	-0.000559
4.900000E-9	-0.002428
4.950000E-9	-0.004734
5.000000E-9	-0.007525
5.050000E-9	-0.010500
5.100000E-9	-0.013950
5.150000E-9	-0.017484
5.200000E-9	-0.021325
5.250000E-9	-0.024975
5.300000E-9	-0.028350
5.350000E-9	-0.031469
5.400000E-9	-0.034150
5.450000E-9	-0.036284
5.500000E-9	-0.038097
5.550000E-9	-0.039403
5.600000E-9	-0.040331
5.650000E-9	-0.040534
5.700000E-9	-0.040441
5.750000E-9	-0.039816
5.800000E-9	-0.038759
5.850000E-9	-0.037081
5.900000E-9	-0.035287
5.950000E-9	-0.032988
6.000000E-9	-0.030800
6.050000E-9	-0.028397
6.100000E-9	-0.026203
6.150000E-9	-0.024172
6.200000E-9	-0.022534
6.250000E-9	-0.021356
6.300000E-9	-0.020600
6.350000E-9	-0.020341
6.400000E-9	-0.020512
6.450000E-9	-0.020813
6.500000E-9	-0.021497
6.550000E-9	-0.022363
6.600000E-9	-0.023384
6.650000E-9	-0.024063
6.700000E-9	-0.024891
6.750000E-9	-0.025622
6.800000E-9	-0.026288
6.850000E-9	-0.026425
6.900000E-9	-0.026681
6.950000E-9	-0.026616
7.000000E-9	-0.026253
7.050000E-9	-0.025547
7.100000E-9	-0.024519
7.150000E-9	-0.023428
7.200000E-9	-0.022228
7.250000E-9	-0.020591
7.300000E-9	-0.018997
7.350000E-9	-0.017250
7.400000E-9	-0.015703
7.450000E-9	-0.014313
7.500000E-9	-0.013109
7.550000E-9	-0.012119
7.600000E-9	-0.011594
7.650000E-9	-0.011216
7.700000E-9	-0.011163
7.750000E-9	-0.011447
7.800000E-9	-0.012094
7.850000E-9	-0.012619
7.900000E-9	-0.013450
7.950000E-9	-0.014319
8.000000E-9	-0.015066
8.050000E-9	-0.015744
8.100000E-9	-0.016459
8.150000E-9	-0.016916
8.200000E-9	-0.017225
8.250000E-9	-0.017244
8.300000E-9	-0.017091
8.350000E-9	-0.016669
8.400000E-9	-0.016084
8.450000E-9	-0.015225
8.500000E-9	-0.014200
8.550000E-9	-0.012981
8.600000E-9	-0.011759
8.650000E-9	-0.010359
8.700000E-9	-0.009109
8.750000E-9	-0.008053
8.800000E-9	-0.006906
8.850000E-9	-0.005997
8.900000E-9	-0.005503
8.950000E-9	-0.005141
9.000000E-9	-0.005156
9.050000E-9	-0.005353
9.100000E-9	-0.005781
9.150000E-9	-0.006356
9.200000E-9	-0.007134
9.250000E-9	-0.007944
9.300000E-9	-0.008866
9.350000E-9	-0.009759
9.400000E-9	-0.010634
9.450000E-9	-0.011306
9.500000E-9	-0.011719
9.550000E-9	-0.011934
9.600000E-9	-0.012028
9.650000E-9	-0.011775
9.700000E-9	-0.011463
9.750000E-9	-0.010700
9.800000E-9	-0.009850
9.850000E-9	-0.008934
9.900000E-9	-0.007872
9.950000E-9	-0.006791
1.000000E-8	-0.005641
1.005000E-8	-0.004497
1.010000E-8	-0.003597
1.015000E-8	-0.002806
1.020000E-8	-0.002375
1.025000E-8	-0.001969
1.030000E-8	-0.001872
1.035000E-8	-0.001981
1.040000E-8	-0.002319
1.045000E-8	-0.002831
1.050000E-8	-0.003431
1.055000E-8	-0.004194
1.060000E-8	-0.004938
1.065000E-8	-0.005634
1.070000E-8	-0.006356
1.075000E-8	-0.006850
1.080000E-8	-0.007428
1.085000E-8	-0.007888
1.090000E-8	-0.008034
1.095000E-8	-0.008025
1.100000E-8	-0.007847
1.105000E-8	-0.007459
1.110000E-8	-0.006959
1.115000E-8	-0.006247
1.120000E-8	-0.005531
1.125000E-8	-0.004441
1.130000E-8	-0.003459
1.135000E-8	-0.002466
1.140000E-8	-0.001588
1.145000E-8	-0.000709
1.150000E-8	0.000000
1.155000E-8	0.000478
1.160000E-8	0.000684
1.165000E-8	0.000756
1.170000E-8	0.000522
1.175000E-8	0.000209
1.180000E-8	-0.000338
1.185000E-8	-0.001022
1.190000E-8	-0.001834
1.195000E-8	-0.002669
1.200000E-8	-0.003512
1.205000E-8	-0.004303
1.210000E-8	-0.005141
1.215000E-8	-0.005841
1.220000E-8	-0.006219
1.225000E-8	-0.006403
1.230000E-8	-0.006541
1.235000E-8	-0.006203
1.240000E-8	-0.005766
1.245000E-8	-0.005003
1.250000E-8	-0.004244
1.255000E-8	-0.003284
1.260000E-8	-0.002409
1.265000E-8	-0.001359
1.270000E-8	-0.000438
1.275000E-8	0.000463
1.280000E-8	0.001178
1.285000E-8	0.001822
1.290000E-8	0.002172
1.295000E-8	0.002375
1.300000E-8	0.002347
1.305000E-8	0.002166
1.310000E-8	0.001656
1.315000E-8	0.000919
1.320000E-8	0.000163
1.325000E-8	-0.000897
1.330000E-8	-0.001781
1.335000E-8	-0.002713
1.340000E-8	-0.003466
1.345000E-8	-0.004247
1.350000E-8	-0.004734
1.355000E-8	-0.005047
1.360000E-8	-0.005034
1.365000E-8	-0.004863
1.370000E-8	-0.004456
1.375000E-8	-0.003628
1.380000E-8	-0.002894
1.385000E-8	-0.001925
1.390000E-8	-0.000788
1.395000E-8	0.000253
1.400000E-8	0.001244
1.405000E-8	0.002159
1.410000E-8	0.002841
1.415000E-8	0.003441
1.420000E-8	0.003806
1.425000E-8	0.004091
1.430000E-8	0.003950
1.435000E-8	0.003609
1.440000E-8	0.003025
1.445000E-8	0.002450
1.450000E-8	0.001528
1.455000E-8	0.000606
1.460000E-8	-0.000341
1.465000E-8	-0.001197
1.470000E-8	-0.002094
1.475000E-8	-0.002819
1.480000E-8	-0.003413
1.485000E-8	-0.003797
1.490000E-8	-0.004063
1.495000E-8	-0.004069
1.500000E-8	-0.003919
1.505000E-8	-0.003466
1.510000E-8	-0.002875
1.515000E-8	-0.001988
1.520000E-8	-0.000866
1.525000E-8	0.000166
1.530000E-8	0.001197
1.535000E-8	0.002122
1.540000E-8	0.003094
1.545000E-8	0.003728
1.550000E-8	0.004147
1.555000E-8	0.004416
1.560000E-8	0.004309
1.565000E-8	0.003994
1.570000E-8	0.003422
1.575000E-8	0.002806
1.580000E-8	0.001959
1.585000E-8	0.001059
1.590000E-8	0.000103
1.595000E-8	-0.000859
1.600000E-8	-0.001781
1.605000E-8	-0.002456
1.610000E-8	-0.002975
1.615000E-8	-0.003216
1.620000E-8	-0.003450
1.625000E-8	-0.003294
1.630000E-8	-0.002838
1.635000E-8	-0.002222
1.640000E-8	-0.001466
1.645000E-8	-0.000516
1.650000E-8	0.000403
1.655000E-8	0.001491
1.660000E-8	0.002463
1.665000E-8	0.003606
1.670000E-8	0.004447
1.675000E-8	0.005069
1.680000E-8	0.005441
1.685000E-8	0.005797
1.690000E-8	0.005656
1.695000E-8	0.005297
1.700000E-8	0.004722
1.705000E-8	0.004031
1.710000E-8	0.003125
1.715000E-8	0.002169
1.720000E-8	0.001094
1.725000E-8	0.000237
1.730000E-8	-0.000731
1.735000E-8	-0.001566
1.740000E-8	-0.002244
1.745000E-8	-0.002463
1.750000E-8	-0.002675
1.755000E-8	-0.002447
1.760000E-8	-0.002128
1.765000E-8	-0.001622
1.770000E-8	-0.000866
1.775000E-8	0.000122
1.780000E-8	0.001066
1.785000E-8	0.002097
1.790000E-8	0.002966
1.795000E-8	0.003850
1.800000E-8	0.004609
1.805000E-8	0.005181
1.810000E-8	0.005422
1.815000E-8	0.005537
1.820000E-8	0.005481
1.825000E-8	0.005178
1.830000E-8	0.004650
1.835000E-8	0.003975
1.840000E-8	0.003081
1.845000E-8	0.002169
1.850000E-8	0.001341
1.855000E-8	0.000394
1.860000E-8	-0.000466
1.865000E-8	-0.001122
1.870000E-8	-0.001684
1.875000E-8	-0.001978
1.880000E-8	-0.002253
1.885000E-8	-0.002044
1.890000E-8	-0.001788
1.895000E-8	-0.001222
1.900000E-8	-0.000644
1.905000E-8	0.000119
1.910000E-8	0.001000
1.915000E-8	0.001906
1.920000E-8	0.002809
1.925000E-8	0.003709
1.930000E-8	0.004338
1.935000E-8	0.005009
1.940000E-8	0.005484
1.945000E-8	0.005700
1.950000E-8	0.005700
1.955000E-8	0.005575
1.960000E-8	0.005069
1.965000E-8	0.004537
1.970000E-8	0.003813
1.975000E-8	0.003109
1.980000E-8	0.002162
1.985000E-8	0.001344
1.990000E-8	0.000541
1.995000E-8	-0.000153
2.000000E-8	-0.000681
2.005000E-8	-0.001012
2.010000E-8	-0.001288
2.015000E-8	-0.001294
2.020000E-8	-0.001153
2.025000E-8	-0.000791
2.030000E-8	-0.000481
2.035000E-8	0.000241
2.040000E-8	0.000959
2.045000E-8	0.001822
2.050000E-8	0.002606
2.055000E-8	0.003341
2.060000E-8	0.004075
2.065000E-8	0.004584
2.070000E-8	0.005069
2.075000E-8	0.005338
2.080000E-8	0.005353
2.085000E-8	0.005216
2.090000E-8	0.004975
2.095000E-8	0.004572
2.100000E-8	0.003869
2.105000E-8	0.003184
2.110000E-8	0.002369
2.115000E-8	0.001578
2.120000E-8	0.000691
2.125000E-8	-4.062500E-5
2.130000E-8	-0.000659
2.135000E-8	-0.001184
2.140000E-8	-0.001566
2.145000E-8	-0.001491
2.150000E-8	-0.001394
2.155000E-8	-0.001075
2.160000E-8	-0.000603
2.165000E-8	0.000103
2.170000E-8	0.000816
2.175000E-8	0.001650
2.180000E-8	0.002409
2.185000E-8	0.003147
2.190000E-8	0.003766
2.195000E-8	0.004409
2.200000E-8	0.004812
2.205000E-8	0.005166
2.210000E-8	0.005331
2.215000E-8	0.005387
2.220000E-8	0.005106
2.225000E-8	0.004859
2.230000E-8	0.004425
2.235000E-8	0.003903
2.240000E-8	0.003087
2.245000E-8	0.002375
2.250000E-8	0.001653
2.255000E-8	0.001047
2.260000E-8	0.000256
2.265000E-8	-0.000219
2.270000E-8	-0.000703
2.275000E-8	-0.000894
2.280000E-8	-0.001063
2.285000E-8	-0.000881
2.290000E-8	-0.000425
2.295000E-8	1.250000E-5
2.300000E-8	0.000638
2.305000E-8	0.001334
2.310000E-8	0.002063
2.315000E-8	0.002975
2.320000E-8	0.003769
2.325000E-8	0.004447
2.330000E-8	0.004878
2.335000E-8	0.005297
2.340000E-8	0.005297
2.345000E-8	0.005350
2.350000E-8	0.005181
2.355000E-8	0.004909
2.360000E-8	0.004322
2.365000E-8	0.003766
2.370000E-8	0.003116
2.375000E-8	0.002556
2.380000E-8	0.001634
2.385000E-8	0.000969
2.390000E-8	0.000181
2.395000E-8	-0.000378
2.400000E-8	-0.000953
2.405000E-8	-0.001187
2.410000E-8	-0.001266
2.415000E-8	-0.001169
2.420000E-8	-0.000888
2.425000E-8	-0.000350
2.430000E-8	0.000356
2.435000E-8	0.001216
2.440000E-8	0.002006
2.445000E-8	0.002741
2.450000E-8	0.003728
2.455000E-8	0.004413
2.460000E-8	0.005028
2.465000E-8	0.005569
2.470000E-8	0.005850
2.475000E-8	0.005950
2.480000E-8	0.005800
2.485000E-8	0.005428
2.490000E-8	0.004903
2.495000E-8	0.004281
2.500000E-8	0.003509
2.505000E-8	0.002672
2.510000E-8	0.001803
2.515000E-8	0.001066
2.520000E-8	0.000297
2.525000E-8	-0.000338
2.530000E-8	-0.000709
2.535000E-8	-0.000913
2.540000E-8	-0.001091
2.545000E-8	-0.000844
2.550000E-8	-0.000516
2.555000E-8	-4.062500E-5
2.560000E-8	0.000628
2.565000E-8	0.001334
2.570000E-8	0.002097
2.575000E-8	0.003003
2.580000E-8	0.003853
2.585000E-8	0.004606
2.590000E-8	0.005084
2.595000E-8	0.005628
2.600000E-8	0.005822
2.605000E-8	0.005906
2.610000E-8	0.005703
2.615000E-8	0.005378
2.620000E-8	0.004803
2.625000E-8	0.004150
2.630000E-8	0.003341
2.635000E-8	0.002619
2.640000E-8	0.001800
2.645000E-8	0.000966
2.650000E-8	0.000234
2.655000E-8	-0.000300
2.660000E-8	-0.000778
2.665000E-8	-0.001031
2.670000E-8	-0.001081
2.675000E-8	-0.000959
2.680000E-8	-0.000647
2.685000E-8	-0.000116
2.690000E-8	0.000428
2.695000E-8	0.001172
2.700000E-8	0.001894
2.705000E-8	0.002728
2.710000E-8	0.003463
2.715000E-8	0.004203
2.720000E-8	0.004706
2.725000E-8	0.005406
2.730000E-8	0.005675
2.735000E-8	0.005900
2.740000E-8	0.005853
2.745000E-8	0.005684
2.750000E-8	0.005278
2.755000E-8	0.004734
2.760000E-8	0.003972
2.765000E-8	0.003338
2.770000E-8	0.002509
2.775000E-8	0.001769
2.780000E-8	0.001012
2.785000E-8	0.000522
2.790000E-8	3.125000E-6
2.795000E-8	-0.000316
2.800000E-8	-0.000412
2.805000E-8	-0.000275
2.810000E-8	-8.437500E-5
2.815000E-8	0.000331
2.820000E-8	0.000941
2.825000E-8	0.001647
2.830000E-8	0.002356
2.835000E-8	0.003078
2.840000E-8	0.003678
2.845000E-8	0.004228
2.850000E-8	0.004756
2.855000E-8	0.005288
2.860000E-8	0.005522
2.865000E-8	0.005847
2.870000E-8	0.005741
2.875000E-8	0.005516
2.880000E-8	0.005122
2.885000E-8	0.004656
2.890000E-8	0.003919
2.895000E-8	0.003266
2.900000E-8	0.002522
2.905000E-8	0.001894
2.910000E-8	0.001184
2.915000E-8	0.000650
2.920000E-8	0.000156
2.925000E-8	-3.750000E-5
2.930000E-8	-0.000100
2.935000E-8	4.375000E-5
2.940000E-8	0.000156
2.945000E-8	0.000766
2.950000E-8	0.001278
2.955000E-8	0.001825
2.960000E-8	0.002556
2.965000E-8	0.003263
2.970000E-8	0.003822
2.975000E-8	0.004375
2.980000E-8	0.004672
2.985000E-8	0.005041
2.990000E-8	0.005125
2.995000E-8	0.005222
3.000000E-8	0.005072
3.005000E-8	0.004922
3.010000E-8	0.004438
3.015000E-8	0.003994
3.020000E-8	0.003459
3.025000E-8	0.002888
3.030000E-8	0.002281
3.035000E-8	0.001784
3.040000E-8	0.001234
3.045000E-8	0.000803
3.050000E-8	0.000391
3.055000E-8	0.000175
3.060000E-8	3.437500E-5
3.065000E-8	0.000172
3.070000E-8	0.000244
3.075000E-8	0.000631
3.080000E-8	0.000963
3.085000E-8	0.001459
3.090000E-8	0.001988
3.095000E-8	0.002672
3.100000E-8	0.003291
3.105000E-8	0.003950
3.110000E-8	0.004422
3.115000E-8	0.004909
3.120000E-8	0.005100
3.125000E-8	0.005359
3.130000E-8	0.005250
3.135000E-8	0.005169
3.140000E-8	0.004778
3.145000E-8	0.004328
3.150000E-8	0.003772
3.155000E-8	0.003319
3.160000E-8	0.002672
3.165000E-8	0.002050
3.170000E-8	0.001494
3.175000E-8	0.001063
3.180000E-8	0.000531
3.185000E-8	0.000363
3.190000E-8	0.000169
3.195000E-8	0.000141
3.200000E-8	0.000294
3.205000E-8	0.000525
3.210000E-8	0.000753
3.215000E-8	0.001225
3.220000E-8	0.001612
3.225000E-8	0.002244
3.230000E-8	0.002859
3.235000E-8	0.003391
3.240000E-8	0.003994
3.245000E-8	0.004541
3.250000E-8	0.004781
3.255000E-8	0.004938
3.260000E-8	0.004962
3.265000E-8	0.005013
3.270000E-8	0.004734
3.275000E-8	0.004281
3.280000E-8	0.003756
3.285000E-8	0.003313
3.290000E-8	0.002747
3.295000E-8	0.002113
3.300000E-8	0.001572
3.305000E-8	0.001012
3.310000E-8	0.000513
3.315000E-8	0.000206
3.320000E-8	-0.000141
3.325000E-8	-0.000200
3.330000E-8	-0.000194
3.335000E-8	5.000000E-5
3.340000E-8	0.000397
3.345000E-8	0.000916
3.350000E-8	0.001563
3.355000E-8	0.002200
3.360000E-8	0.002903
3.365000E-8	0.003594
3.370000E-8	0.004116
3.375000E-8	0.004575
3.380000E-8	0.004800
3.385000E-8	0.005056
3.390000E-8	0.005047
3.395000E-8	0.004962
3.400000E-8	0.004625
3.405000E-8	0.004344
3.410000E-8	0.003878
3.415000E-8	0.003431
3.420000E-8	0.002847
3.425000E-8	0.002294
3.430000E-8	0.001694
3.435000E-8	0.001294
3.440000E-8	0.000856
3.445000E-8	0.000556
3.450000E-8	0.000259
3.455000E-8	0.000122
3.460000E-8	5.937500E-5
3.465000E-8	0.000278
3.470000E-8	0.000563
3.475000E-8	0.001128
3.480000E-8	0.001616
3.485000E-8	0.002213
3.490000E-8	0.002691
3.495000E-8	0.003338
3.500000E-8	0.003778
3.505000E-8	0.004278
3.510000E-8	0.004641
3.515000E-8	0.004972
3.520000E-8	0.005116
3.525000E-8	0.005191
3.530000E-8	0.004913
3.535000E-8	0.004622
3.540000E-8	0.004253
3.545000E-8	0.003731
3.550000E-8	0.003078
3.555000E-8	0.002578
3.560000E-8	0.001937
3.565000E-8	0.001372
3.570000E-8	0.000878
3.575000E-8	0.000472
3.580000E-8	6.562500E-5
3.585000E-8	-9.375000E-6
3.590000E-8	-7.812500E-5
3.595000E-8	0.000109
3.600000E-8	0.000428
3.605000E-8	0.000847
3.610000E-8	0.001338
3.615000E-8	0.002038
3.620000E-8	0.002587
3.625000E-8	0.003341
3.630000E-8	0.003941
3.635000E-8	0.004494
3.640000E-8	0.004897
3.645000E-8	0.005194
3.650000E-8	0.005237
3.655000E-8	0.005237
3.660000E-8	0.005003
3.665000E-8	0.004869
3.670000E-8	0.004372
3.675000E-8	0.003794
3.680000E-8	0.003200
3.685000E-8	0.002506
3.690000E-8	0.001806
3.695000E-8	0.001359
3.700000E-8	0.000906
3.705000E-8	0.000537
3.710000E-8	0.000356
3.715000E-8	0.000250
3.720000E-8	0.000331
3.725000E-8	0.000478
3.730000E-8	0.000575
3.735000E-8	0.001138
3.740000E-8	0.001397
3.745000E-8	0.001963
3.750000E-8	0.002534
3.755000E-8	0.003100
3.760000E-8	0.003663
3.765000E-8	0.004237
3.770000E-8	0.004425
3.775000E-8	0.004697
3.780000E-8	0.004778
3.785000E-8	0.004756
3.790000E-8	0.004591
3.795000E-8	0.004334
3.800000E-8	0.003969
3.805000E-8	0.003569
3.810000E-8	0.003134
3.815000E-8	0.002634
3.820000E-8	0.002103
3.825000E-8	0.001763
3.830000E-8	0.001241
3.835000E-8	0.000975
3.840000E-8	0.000825
3.845000E-8	0.000691
3.850000E-8	0.000638
3.855000E-8	0.000709
3.860000E-8	0.000913
3.865000E-8	0.001306
3.870000E-8	0.001603
3.875000E-8	0.002153
3.880000E-8	0.002591
3.885000E-8	0.003059
3.890000E-8	0.003463
3.895000E-8	0.003828
3.900000E-8	0.004087
3.905000E-8	0.004375
3.910000E-8	0.004500
3.915000E-8	0.004597
3.920000E-8	0.004556
3.925000E-8	0.004497
3.930000E-8	0.004225
3.935000E-8	0.003869
3.940000E-8	0.003522
3.945000E-8	0.003000
3.950000E-8	0.002547
3.955000E-8	0.002181
3.960000E-8	0.001713
3.965000E-8	0.001413
3.970000E-8	0.001056
3.975000E-8	0.000938
3.980000E-8	0.000847
3.985000E-8	0.000831
3.990000E-8	0.001059
3.995000E-8	0.001328
4.000000E-8	0.001616
4.005000E-8	0.002134
4.010000E-8	0.002459
4.015000E-8	0.002828
4.020000E-8	0.003256
4.025000E-8	0.003697
4.030000E-8	0.003919
4.035000E-8	0.004253
4.040000E-8	0.004400
4.045000E-8	0.004528
4.050000E-8	0.004528
4.055000E-8	0.004559
4.060000E-8	0.004387
4.065000E-8	0.004181
4.070000E-8	0.003747
4.075000E-8	0.003259
4.080000E-8	0.002841
4.085000E-8	0.002416
4.090000E-8	0.001959
4.095000E-8	0.001609
4.100000E-8	0.001150
4.105000E-8	0.000897
4.110000E-8	0.000728
4.115000E-8	0.000841
4.120000E-8	0.000872
4.125000E-8	0.001150
4.130000E-8	0.001469
4.135000E-8	0.001925
4.140000E-8	0.002319
4.145000E-8	0.002900
4.150000E-8	0.003344
4.155000E-8	0.003713
4.160000E-8	0.004006
4.165000E-8	0.004216
4.170000E-8	0.004291
4.175000E-8	0.004469
4.180000E-8	0.004375
4.185000E-8	0.004422
4.190000E-8	0.004153
4.195000E-8	0.003831
4.200000E-8	0.003397
4.205000E-8	0.002966
4.210000E-8	0.002503
4.215000E-8	0.002125
4.220000E-8	0.001653
4.225000E-8	0.001394
4.230000E-8	0.000981
4.235000E-8	0.000800
4.240000E-8	0.000572
4.245000E-8	0.000444
4.250000E-8	0.000584
4.255000E-8	0.000788
4.260000E-8	0.000991
4.265000E-8	0.001269
4.270000E-8	0.001553
4.275000E-8	0.002009
4.280000E-8	0.002475
4.285000E-8	0.002991
4.290000E-8	0.003225
4.295000E-8	0.003688
4.300000E-8	0.003972
4.305000E-8	0.004266
4.310000E-8	0.004209
4.315000E-8	0.004294
4.320000E-8	0.004150
4.325000E-8	0.003953
4.330000E-8	0.003594
4.335000E-8	0.003275
4.340000E-8	0.002675
4.345000E-8	0.002247
4.350000E-8	0.001797
4.355000E-8	0.001597
4.360000E-8	0.001209
4.365000E-8	0.000903
4.370000E-8	0.000819
4.375000E-8	0.000716
4.380000E-8	0.000806
4.385000E-8	0.001075
4.390000E-8	0.001319
4.395000E-8	0.001825
4.400000E-8	0.002109
4.405000E-8	0.002625
4.410000E-8	0.002975
4.415000E-8	0.003453
4.420000E-8	0.003766
4.425000E-8	0.004234
4.430000E-8	0.004428
4.435000E-8	0.004463
4.440000E-8	0.004525
4.445000E-8	0.004594
4.450000E-8	0.004378
4.455000E-8	0.004144
4.460000E-8	0.003659
4.465000E-8	0.003347
4.470000E-8	0.002850
4.475000E-8	0.002447
4.480000E-8	0.001781
4.485000E-8	0.001356
4.490000E-8	0.000956
4.495000E-8	0.000809
4.500000E-8	0.000569
4.505000E-8	0.000566
4.510000E-8	0.000847
4.515000E-8	0.000997
4.520000E-8	0.001300
4.525000E-8	0.001666
4.530000E-8	0.002066
4.535000E-8	0.002534
4.540000E-8	0.002747
4.545000E-8	0.003134
4.550000E-8	0.003531
4.555000E-8	0.003872
4.560000E-8	0.003984
4.565000E-8	0.004047
4.570000E-8	0.004066
4.575000E-8	0.004031
4.580000E-8	0.003856
4.585000E-8	0.003678
4.590000E-8	0.003206
4.595000E-8	0.002994
4.600000E-8	0.002528
4.605000E-8	0.002194
4.610000E-8	0.001831
4.615000E-8	0.001634
4.620000E-8	0.001306
4.625000E-8	0.001138
4.630000E-8	0.001119
4.635000E-8	0.001069
4.640000E-8	0.001034
4.645000E-8	0.001181
4.650000E-8	0.001388
4.655000E-8	0.001622
4.660000E-8	0.002031
4.665000E-8	0.002547
4.670000E-8	0.002816
4.675000E-8	0.003291
4.680000E-8	0.003481
4.685000E-8	0.003831
4.690000E-8	0.003953
4.695000E-8	0.004159
4.700000E-8	0.004122
4.705000E-8	0.004106
4.710000E-8	0.003991
4.715000E-8	0.003756
4.720000E-8	0.003450
4.725000E-8	0.003025
4.730000E-8	0.002666
4.735000E-8	0.002359
4.740000E-8	0.001966
4.745000E-8	0.001591
4.750000E-8	0.001138
4.755000E-8	0.000919
4.760000E-8	0.000756
4.765000E-8	0.000775
4.770000E-8	0.000816
4.775000E-8	0.000909
4.780000E-8	0.001084
4.785000E-8	0.001431
4.790000E-8	0.001719
4.795000E-8	0.002162
4.800000E-8	0.002512
4.805000E-8	0.002928
4.810000E-8	0.003219
4.815000E-8	0.003494
4.820000E-8	0.003703
4.825000E-8	0.003969
4.830000E-8	0.004122
4.835000E-8	0.004019
4.840000E-8	0.003794
4.845000E-8	0.003766
4.850000E-8	0.003603
4.855000E-8	0.003384
4.860000E-8	0.002972
4.865000E-8	0.002594
4.870000E-8	0.002263
4.875000E-8	0.001856
4.880000E-8	0.001463
4.885000E-8	0.001284
4.890000E-8	0.001081
4.895000E-8	0.001112
4.900000E-8	0.001069
4.905000E-8	0.001222
4.910000E-8	0.001378
4.915000E-8	0.001700
4.920000E-8	0.001991
4.925000E-8	0.002378
4.930000E-8	0.002731
4.935000E-8	0.003125
4.940000E-8	0.003469
4.945000E-8	0.003691
4.950000E-8	0.003797
4.955000E-8	0.003959
4.960000E-8	0.003972
4.965000E-8	0.003925
4.970000E-8	0.003678
4.975000E-8	0.003584
4.980000E-8	0.003325
4.985000E-8	0.003134
4.990000E-8	0.002784
4.995000E-8	0.002484
5.000000E-8	0.002028
5.005000E-8	0.001753
5.010000E-8	0.001434
5.015000E-8	0.001272
5.020000E-8	0.001100
5.025000E-8	0.001006
5.030000E-8	0.000906
5.035000E-8	0.000981
5.040000E-8	0.001116
5.045000E-8	0.001422
5.050000E-8	0.001516
5.055000E-8	0.001934
5.060000E-8	0.002300
5.065000E-8	0.002666
5.070000E-8	0.002897
5.075000E-8	0.003272
5.080000E-8	0.003472
5.085000E-8	0.003706
5.090000E-8	0.003847
5.095000E-8	0.003778
5.100000E-8	0.003666
5.105000E-8	0.003553
5.110000E-8	0.003325
5.115000E-8	0.003109
5.120000E-8	0.002772
5.125000E-8	0.002556
5.130000E-8	0.002225
5.135000E-8	0.001963
5.140000E-8	0.001775
5.145000E-8	0.001619
5.150000E-8	0.001456
5.155000E-8	0.001338
5.160000E-8	0.001294
5.165000E-8	0.001437
5.170000E-8	0.001400
5.175000E-8	0.001684
5.180000E-8	0.001900
5.185000E-8	0.002222
5.190000E-8	0.002419
5.195000E-8	0.002825
5.200000E-8	0.003203
5.205000E-8	0.003406
5.210000E-8	0.003497
5.215000E-8	0.003694
5.220000E-8	0.003709
5.225000E-8	0.003756
5.230000E-8	0.003622
5.235000E-8	0.003469
5.240000E-8	0.003166
5.245000E-8	0.003056
5.250000E-8	0.002828
5.255000E-8	0.002563
5.260000E-8	0.002138
5.265000E-8	0.001966
5.270000E-8	0.001650
5.275000E-8	0.001516
5.280000E-8	0.001219
5.285000E-8	0.001056
5.290000E-8	0.000991
5.295000E-8	0.000991
5.300000E-8	0.001038
5.305000E-8	0.001247
5.310000E-8	0.001463
5.315000E-8	0.001850
5.320000E-8	0.002147
5.325000E-8	0.002531
5.330000E-8	0.002875
5.335000E-8	0.003309
5.340000E-8	0.003522
5.345000E-8	0.003825
5.350000E-8	0.003950
5.355000E-8	0.003966
5.360000E-8	0.003950
5.365000E-8	0.003834
5.370000E-8	0.003709
5.375000E-8	0.003572
5.380000E-8	0.003194
5.385000E-8	0.002900
5.390000E-8	0.002525
5.395000E-8	0.002294
5.400000E-8	0.001863
5.405000E-8	0.001669
5.410000E-8	0.001463
5.415000E-8	0.001434
5.420000E-8	0.001319
5.425000E-8	0.001338
5.430000E-8	0.001425
5.435000E-8	0.001684
5.440000E-8	0.001850
5.445000E-8	0.002275
5.450000E-8	0.002447
5.455000E-8	0.002650
5.460000E-8	0.003003
5.465000E-8	0.003284
5.470000E-8	0.003363
5.475000E-8	0.003606
5.480000E-8	0.003625
5.485000E-8	0.003759
5.490000E-8	0.003703
5.495000E-8	0.003731
5.500000E-8	0.003625
5.505000E-8	0.003444
5.510000E-8	0.003194
5.515000E-8	0.003031
5.520000E-8	0.002756
5.525000E-8	0.002497
5.530000E-8	0.002122
5.535000E-8	0.001875
5.540000E-8	0.001650
5.545000E-8	0.001572
5.550000E-8	0.001353
5.555000E-8	0.001391
5.560000E-8	0.001488
5.565000E-8	0.001647
5.570000E-8	0.001778
5.575000E-8	0.002094
5.580000E-8	0.002350
5.585000E-8	0.002631
5.590000E-8	0.002875
5.595000E-8	0.003169
5.600000E-8	0.003297
5.605000E-8	0.003512
5.610000E-8	0.003641
5.615000E-8	0.003828
5.620000E-8	0.003825
5.625000E-8	0.003813
5.630000E-8	0.003581
5.635000E-8	0.003394
5.640000E-8	0.003159
5.645000E-8	0.002963
5.650000E-8	0.002603
5.655000E-8	0.002391
5.660000E-8	0.001978
5.665000E-8	0.001800
5.670000E-8	0.001556
5.675000E-8	0.001528
5.680000E-8	0.001450
5.685000E-8	0.001437
5.690000E-8	0.001475
5.695000E-8	0.001631
5.700000E-8	0.001759
5.705000E-8	0.001997
5.710000E-8	0.002244
5.715000E-8	0.002397
5.720000E-8	0.002662
5.725000E-8	0.002906
5.730000E-8	0.003222
5.735000E-8	0.003475
5.740000E-8	0.003553
5.745000E-8	0.003600
5.750000E-8	0.003691
5.755000E-8	0.003644
5.760000E-8	0.003613
5.765000E-8	0.003550
5.770000E-8	0.003306
5.775000E-8	0.003175
5.780000E-8	0.002866
5.785000E-8	0.002716
5.790000E-8	0.002416
5.795000E-8	0.002281
5.800000E-8	0.002050
5.805000E-8	0.001913
5.810000E-8	0.001781
5.815000E-8	0.001703
5.820000E-8	0.001656
5.825000E-8	0.001722
5.830000E-8	0.001922
5.835000E-8	0.002016
5.840000E-8	0.002231
5.845000E-8	0.002400
5.850000E-8	0.002509
5.855000E-8	0.002866
5.860000E-8	0.003044
5.865000E-8	0.003253
5.870000E-8	0.003384
5.875000E-8	0.003512
5.880000E-8	0.003450
5.885000E-8	0.003463
5.890000E-8	0.003409
5.895000E-8	0.003241
5.900000E-8	0.002872
5.905000E-8	0.002713
5.910000E-8	0.002437
5.915000E-8	0.002253
5.920000E-8	0.002000
5.925000E-8	0.001687
5.930000E-8	0.001519
5.935000E-8	0.001519
5.940000E-8	0.001428
5.945000E-8	0.001309
5.950000E-8	0.001378
5.955000E-8	0.001591
5.960000E-8	0.001784
5.965000E-8	0.001909
5.970000E-8	0.002081
5.975000E-8	0.002397
5.980000E-8	0.002547
5.985000E-8	0.002734
5.990000E-8	0.002753
5.995000E-8	0.003044
6.000000E-8	0.003131
6.005000E-8	0.003388
6.010000E-8	0.003481
6.015000E-8	0.003581
6.020000E-8	0.003672
6.025000E-8	0.003631
6.030000E-8	0.003425
6.035000E-8	0.003178
6.040000E-8	0.002956
6.045000E-8	0.002922
6.050000E-8	0.002503
6.055000E-8	0.002313
6.060000E-8	0.002000
6.065000E-8	0.001866
6.070000E-8	0.001853
6.075000E-8	0.001825
6.080000E-8	0.001744
6.085000E-8	0.001884
6.090000E-8	0.002078
6.095000E-8	0.002266
6.100000E-8	0.002434
6.105000E-8	0.002525
6.110000E-8	0.002734
6.115000E-8	0.002859
6.120000E-8	0.002988
6.125000E-8	0.003178
6.130000E-8	0.003222
6.135000E-8	0.003456
6.140000E-8	0.003425
6.145000E-8	0.003638
6.150000E-8	0.003525
6.155000E-8	0.003388
6.160000E-8	0.003303
6.165000E-8	0.003122
6.170000E-8	0.002981
6.175000E-8	0.002778
6.180000E-8	0.002388
6.185000E-8	0.002366
6.190000E-8	0.002191
6.195000E-8	0.002063
6.200000E-8	0.001838
6.205000E-8	0.001684
6.210000E-8	0.001656
6.215000E-8	0.001816
6.220000E-8	0.001872
6.225000E-8	0.002034
6.230000E-8	0.002269
6.235000E-8	0.002416
6.240000E-8	0.002650
6.245000E-8	0.002856
6.250000E-8	0.003078
6.255000E-8	0.003294
6.260000E-8	0.003422
6.265000E-8	0.003619
6.270000E-8	0.003713
6.275000E-8	0.003688
6.280000E-8	0.003753
6.285000E-8	0.003722
6.290000E-8	0.003506
6.295000E-8	0.003363
6.300000E-8	0.003100
6.305000E-8	0.002938
6.310000E-8	0.002659
6.315000E-8	0.002550
6.320000E-8	0.002269
6.325000E-8	0.002200
6.330000E-8	0.001872
6.335000E-8	0.001847
6.340000E-8	0.001866
6.345000E-8	0.001875
6.350000E-8	0.001988
6.355000E-8	0.002122
6.360000E-8	0.002256
6.365000E-8	0.002481
6.370000E-8	0.002697
6.375000E-8	0.002978
6.380000E-8	0.003106
6.385000E-8	0.003306
6.390000E-8	0.003341
6.395000E-8	0.003381
6.400000E-8	0.003288
6.405000E-8	0.003356
6.410000E-8	0.003175
6.415000E-8	0.003106
6.420000E-8	0.002872
6.425000E-8	0.002831
6.430000E-8	0.002713
6.435000E-8	0.002669
6.440000E-8	0.002484
6.445000E-8	0.002475
6.450000E-8	0.002291
6.455000E-8	0.002150
6.460000E-8	0.001978
6.465000E-8	0.001894
6.470000E-8	0.001822
6.475000E-8	0.001719
6.480000E-8	0.001675
6.485000E-8	0.001738
6.490000E-8	0.001844
6.495000E-8	0.001994
6.500000E-8	0.002209
6.505000E-8	0.002478
6.510000E-8	0.002606
6.515000E-8	0.002734
6.520000E-8	0.002925
6.525000E-8	0.003047
6.530000E-8	0.003191
6.535000E-8	0.003397
6.540000E-8	0.003259
6.545000E-8	0.003456
6.550000E-8	0.003403
6.555000E-8	0.003394
6.560000E-8	0.003134
6.565000E-8	0.003019
6.570000E-8	0.002694
6.575000E-8	0.002622
6.580000E-8	0.002316
6.585000E-8	0.002009
6.590000E-8	0.001888
6.595000E-8	0.001769
6.600000E-8	0.001678
6.605000E-8	0.001650
6.610000E-8	0.001759
6.615000E-8	0.001834
6.620000E-8	0.001947
6.625000E-8	0.002200
6.630000E-8	0.002384
6.635000E-8	0.002519
6.640000E-8	0.002747
6.645000E-8	0.002953
6.650000E-8	0.003106
6.655000E-8	0.003297
6.660000E-8	0.003213
6.665000E-8	0.003272
6.670000E-8	0.003272
6.675000E-8	0.003169
6.680000E-8	0.002978
6.685000E-8	0.003059
6.690000E-8	0.003016
6.695000E-8	0.002897
6.700000E-8	0.002750
6.705000E-8	0.002647
6.710000E-8	0.002569
6.715000E-8	0.002456
6.720000E-8	0.002297
6.725000E-8	0.002256
6.730000E-8	0.002016
6.735000E-8	0.002091
6.740000E-8	0.002031
6.745000E-8	0.002106
6.750000E-8	0.002153
6.755000E-8	0.002156
6.760000E-8	0.002341
6.765000E-8	0.002606
6.770000E-8	0.002672
6.775000E-8	0.002825
6.780000E-8	0.002888
6.785000E-8	0.003172
6.790000E-8	0.003197
6.795000E-8	0.003413
6.800000E-8	0.003384
6.805000E-8	0.003516
6.810000E-8	0.003488
6.815000E-8	0.003406
6.820000E-8	0.003172
6.825000E-8	0.003053
6.830000E-8	0.002766
6.835000E-8	0.002684
6.840000E-8	0.002328
6.845000E-8	0.002213
6.850000E-8	0.002169
6.855000E-8	0.002153
6.860000E-8	0.002066
6.865000E-8	0.002159
6.870000E-8	0.002081
6.875000E-8	0.002281
6.880000E-8	0.002259
6.885000E-8	0.002463
6.890000E-8	0.002475
6.895000E-8	0.002694
6.900000E-8	0.002822
6.905000E-8	0.002953
6.910000E-8	0.003041
6.915000E-8	0.003219
6.920000E-8	0.003338
6.925000E-8	0.003391
6.930000E-8	0.003384
6.935000E-8	0.003372
6.940000E-8	0.003131
6.945000E-8	0.003097
6.950000E-8	0.002872
6.955000E-8	0.002675
6.960000E-8	0.002569
6.965000E-8	0.002450
6.970000E-8	0.002309
6.975000E-8	0.002181
6.980000E-8	0.002003
6.985000E-8	0.002047
6.990000E-8	0.002047
6.995000E-8	0.002038
7.000000E-8	0.002016
7.005000E-8	0.002056
7.010000E-8	0.002122
7.015000E-8	0.002237
7.020000E-8	0.002391
7.025000E-8	0.002503
7.030000E-8	0.002591
7.035000E-8	0.002753
7.040000E-8	0.002769
7.045000E-8	0.002894
7.050000E-8	0.002769
7.055000E-8	0.002753
7.060000E-8	0.002791
7.065000E-8	0.002884
7.070000E-8	0.002822
7.075000E-8	0.002866
7.080000E-8	0.002919
7.085000E-8	0.002953
7.090000E-8	0.002956
7.095000E-8	0.002900
7.100000E-8	0.002750
7.105000E-8	0.002741
7.110000E-8	0.002406
7.115000E-8	0.002216
7.120000E-8	0.002075
7.125000E-8	0.002122
7.130000E-8	0.001922
7.135000E-8	0.002047
7.140000E-8	0.002113
7.145000E-8	0.002194
7.150000E-8	0.002325
7.155000E-8	0.002556
7.160000E-8	0.002734
7.165000E-8	0.002956
7.170000E-8	0.003069
7.175000E-8	0.003247
7.180000E-8	0.003231
7.185000E-8	0.003384
7.190000E-8	0.003281
7.195000E-8	0.003363
7.200000E-8	0.003272
7.205000E-8	0.003219
7.210000E-8	0.003063
7.215000E-8	0.002941
7.220000E-8	0.002700
7.225000E-8	0.002703
7.230000E-8	0.002497
7.235000E-8	0.002416
7.240000E-8	0.002206
7.245000E-8	0.002363
7.250000E-8	0.002259
7.255000E-8	0.002288
7.260000E-8	0.002184
7.265000E-8	0.002247
7.270000E-8	0.002181
7.275000E-8	0.002313
7.280000E-8	0.002316
7.285000E-8	0.002512
7.290000E-8	0.002609
7.295000E-8	0.002753
7.300000E-8	0.002888
7.305000E-8	0.002994
7.310000E-8	0.002947
7.315000E-8	0.003006
7.320000E-8	0.002972
7.325000E-8	0.002894
7.330000E-8	0.002756
7.335000E-8	0.002569
7.340000E-8	0.002381
7.345000E-8	0.002372
7.350000E-8	0.002138
7.355000E-8	0.002184
7.360000E-8	0.002134
7.365000E-8	0.002100
7.370000E-8	0.002131
7.375000E-8	0.002159
7.380000E-8	0.002197
7.385000E-8	0.002406
7.390000E-8	0.002313
7.395000E-8	0.002281
7.400000E-8	0.002294
7.405000E-8	0.002463
7.410000E-8	0.002453
7.415000E-8	0.002472
7.420000E-8	0.002494
7.425000E-8	0.002656
7.430000E-8	0.002772
7.435000E-8	0.002822
7.440000E-8	0.002888
7.445000E-8	0.002966
7.450000E-8	0.002950
7.455000E-8	0.002944
7.460000E-8	0.002953
7.465000E-8	0.003084
7.470000E-8	0.002922
7.475000E-8	0.002894
7.480000E-8	0.002816
7.485000E-8	0.002853
7.490000E-8	0.002741
7.495000E-8	0.002750
7.500000E-8	0.002619
7.505000E-8	0.002616
7.510000E-8	0.002394
7.515000E-8	0.002363
7.520000E-8	0.002300
7.525000E-8	0.002334
7.530000E-8	0.002297
7.535000E-8	0.002434
7.540000E-8	0.002559
7.545000E-8	0.002747
7.550000E-8	0.002838
7.555000E-8	0.002881
7.560000E-8	0.003012
7.565000E-8	0.003069
7.570000E-8	0.002922
7.575000E-8	0.002972
7.580000E-8	0.002878
7.585000E-8	0.002950
7.590000E-8	0.002891
7.595000E-8	0.002822
7.600000E-8	0.002847
7.605000E-8	0.002869
7.610000E-8	0.002816
7.615000E-8	0.002859
7.620000E-8	0.002781
7.625000E-8	0.002734
7.630000E-8	0.002522
7.635000E-8	0.002388
7.640000E-8	0.002259
7.645000E-8	0.002253
7.650000E-8	0.002141
7.655000E-8	0.002044
7.660000E-8	0.002006
7.665000E-8	0.002081
7.670000E-8	0.002213
7.675000E-8	0.002431
7.680000E-8	0.002606
7.685000E-8	0.002844
7.690000E-8	0.002900
7.695000E-8	0.002941
7.700000E-8	0.002972
7.705000E-8	0.003087
7.710000E-8	0.003084
7.715000E-8	0.003091
7.720000E-8	0.002953
7.725000E-8	0.002956
7.730000E-8	0.002772
7.735000E-8	0.002703
7.740000E-8	0.002616
7.745000E-8	0.002563
7.750000E-8	0.002384
7.755000E-8	0.002378
7.760000E-8	0.002294
7.765000E-8	0.002325
7.770000E-8	0.002294
7.775000E-8	0.002194
7.780000E-8	0.002328
7.785000E-8	0.002428
7.790000E-8	0.002356
7.795000E-8	0.002525
7.800000E-8	0.002719
7.805000E-8	0.002791
7.810000E-8	0.002938
7.815000E-8	0.002900
7.820000E-8	0.002906
7.825000E-8	0.002941
7.830000E-8	0.002869
7.835000E-8	0.003019
7.840000E-8	0.002894
7.845000E-8	0.002869
7.850000E-8	0.002809
7.855000E-8	0.002878
7.860000E-8	0.002753
7.865000E-8	0.002678
7.870000E-8	0.002669
7.875000E-8	0.002734
7.880000E-8	0.002559
7.885000E-8	0.002541
7.890000E-8	0.002494
7.895000E-8	0.002456
7.900000E-8	0.002378
7.905000E-8	0.002375
7.910000E-8	0.002469
7.915000E-8	0.002506
7.920000E-8	0.002347
7.925000E-8	0.002419
7.930000E-8	0.002434
7.935000E-8	0.002463
7.940000E-8	0.002594
7.945000E-8	0.002672
7.950000E-8	0.002609
7.955000E-8	0.002825
7.960000E-8	0.002719
7.965000E-8	0.002747
7.970000E-8	0.002791
7.975000E-8	0.002803
7.980000E-8	0.002725
7.985000E-8	0.002709
7.990000E-8	0.002581
7.995000E-8	0.002581
8.000000E-8	0.002466
8.005000E-8	0.002450
8.010000E-8	0.002394
8.015000E-8	0.002297
8.020000E-8	0.002378
8.025000E-8	0.002534
8.030000E-8	0.002578
8.035000E-8	0.002641
8.040000E-8	0.002681
8.045000E-8	0.002737
8.050000E-8	0.002684
8.055000E-8	0.002731
8.060000E-8	0.002800
8.065000E-8	0.002831
8.070000E-8	0.002872
8.075000E-8	0.002866
8.080000E-8	0.002744
8.085000E-8	0.002884
8.090000E-8	0.002847
8.095000E-8	0.002913
8.100000E-8	0.002916
8.105000E-8	0.003056
8.110000E-8	0.003116
8.115000E-8	0.003103
8.120000E-8	0.003053
8.125000E-8	0.003025
8.130000E-8	0.002919
8.135000E-8	0.002866
8.140000E-8	0.002744
8.145000E-8	0.002581
8.150000E-8	0.002469
8.155000E-8	0.002441
8.160000E-8	0.002288
8.165000E-8	0.002319
8.170000E-8	0.002128
8.175000E-8	0.002144
8.180000E-8	0.002275
8.185000E-8	0.002281
8.190000E-8	0.002325
8.195000E-8	0.002431
8.200000E-8	0.002344
8.205000E-8	0.002497
8.210000E-8	0.002531
8.215000E-8	0.002631
8.220000E-8	0.002672
8.225000E-8	0.002713
8.230000E-8	0.002616
8.235000E-8	0.002650
8.240000E-8	0.002559
8.245000E-8	0.002556
8.250000E-8	0.002416
8.255000E-8	0.002394
8.260000E-8	0.002356
8.265000E-8	0.002444
8.270000E-8	0.002550
8.275000E-8	0.002516
8.280000E-8	0.002559
8.285000E-8	0.002547
8.290000E-8	0.002528
8.295000E-8	0.002509
8.300000E-8	0.002413
8.305000E-8	0.002503
8.310000E-8	0.002459
8.315000E-8	0.002550
8.320000E-8	0.002491
8.325000E-8	0.002581
8.330000E-8	0.002681
8.335000E-8	0.002769
8.340000E-8	0.002750
8.345000E-8	0.002897
8.350000E-8	0.002944
8.355000E-8	0.002988
8.360000E-8	0.003025
8.365000E-8	0.003056
8.370000E-8	0.003012
8.375000E-8	0.003019
8.380000E-8	0.002872
8.385000E-8	0.002856
8.390000E-8	0.002797
8.395000E-8	0.002697
8.400000E-8	0.002616
8.405000E-8	0.002634
8.410000E-8	0.002613
8.415000E-8	0.002563
8.420000E-8	0.002350
8.425000E-8	0.002344
8.430000E-8	0.002363
8.435000E-8	0.002138
8.440000E-8	0.002087
8.445000E-8	0.002159
8.450000E-8	0.002247
8.455000E-8	0.002341
8.460000E-8	0.002384
8.465000E-8	0.002572
8.470000E-8	0.002594
8.475000E-8	0.002778
8.480000E-8	0.002794
8.485000E-8	0.002681
8.490000E-8	0.002656
8.495000E-8	0.002613
8.500000E-8	0.002569
8.505000E-8	0.002638
8.510000E-8	0.002538
8.515000E-8	0.002563
8.520000E-8	0.002644
8.525000E-8	0.002700
8.530000E-8	0.002725
8.535000E-8	0.002775
8.540000E-8	0.002791
8.545000E-8	0.002734
8.550000E-8	0.002575
8.555000E-8	0.002591
8.560000E-8	0.002344
8.565000E-8	0.002272
8.570000E-8	0.002244
8.575000E-8	0.002184
8.580000E-8	0.002191
8.585000E-8	0.002250
8.590000E-8	0.002253
8.595000E-8	0.002394
8.600000E-8	0.002478
8.605000E-8	0.002666
8.610000E-8	0.002691
8.615000E-8	0.002681
8.620000E-8	0.002722
8.625000E-8	0.002713
8.630000E-8	0.002619
8.635000E-8	0.002525
8.640000E-8	0.002463
8.645000E-8	0.002472
8.650000E-8	0.002391
8.655000E-8	0.002406
8.660000E-8	0.002303
8.665000E-8	0.002359
8.670000E-8	0.002441
8.675000E-8	0.002322
8.680000E-8	0.002459
8.685000E-8	0.002559
8.690000E-8	0.002606
8.695000E-8	0.002641
8.700000E-8	0.002575
8.705000E-8	0.002672
8.710000E-8	0.002666
8.715000E-8	0.002716
8.720000E-8	0.002622
8.725000E-8	0.002737
8.730000E-8	0.002731
8.735000E-8	0.002644
8.740000E-8	0.002709
8.745000E-8	0.002784
8.750000E-8	0.002719
8.755000E-8	0.002719
8.760000E-8	0.002669
8.765000E-8	0.002834
8.770000E-8	0.002756
8.775000E-8	0.002775
8.780000E-8	0.002794
8.785000E-8	0.002759
8.790000E-8	0.002750
8.795000E-8	0.002678
8.800000E-8	0.002669
8.805000E-8	0.002681
8.810000E-8	0.002569
8.815000E-8	0.002550
8.820000E-8	0.002528
8.825000E-8	0.002625
8.830000E-8	0.002525
8.835000E-8	0.002597
8.840000E-8	0.002669
8.845000E-8	0.002891
8.850000E-8	0.002897
8.855000E-8	0.003069
8.860000E-8	0.003128
8.865000E-8	0.003231
8.870000E-8	0.003228
8.875000E-8	0.003316
8.880000E-8	0.003381
8.885000E-8	0.003359
8.890000E-8	0.003191
8.895000E-8	0.003181
8.900000E-8	0.003087
8.905000E-8	0.002941
8.910000E-8	0.002816
8.915000E-8	0.002734
8.920000E-8	0.002625
8.925000E-8	0.002719
8.930000E-8	0.002688
8.935000E-8	0.002656
8.940000E-8	0.002534
8.945000E-8	0.002578
8.950000E-8	0.002413
8.955000E-8	0.002359
8.960000E-8	0.002359
8.965000E-8	0.002416
8.970000E-8	0.002356
8.975000E-8	0.002469
8.980000E-8	0.002625
8.985000E-8	0.002716
8.990000E-8	0.002819
8.995000E-8	0.003025
9.000000E-8	0.003000
9.005000E-8	0.003047
9.010000E-8	0.002981
9.015000E-8	0.002956
9.020000E-8	0.002900
9.025000E-8	0.002756
9.030000E-8	0.002647
9.035000E-8	0.002659
9.040000E-8	0.002725
9.045000E-8	0.002650
9.050000E-8	0.002681
9.055000E-8	0.002678
9.060000E-8	0.002644
9.065000E-8	0.002644
9.070000E-8	0.002622
9.075000E-8	0.002662
9.080000E-8	0.002622
9.085000E-8	0.002603
9.090000E-8	0.002544
9.095000E-8	0.002553
9.100000E-8	0.002544
9.105000E-8	0.002656
9.110000E-8	0.002625
9.115000E-8	0.002813
9.120000E-8	0.002747
9.125000E-8	0.002797
9.130000E-8	0.002919
9.135000E-8	0.003031
9.140000E-8	0.003050
9.145000E-8	0.003144
9.150000E-8	0.003134
9.155000E-8	0.003203
9.160000E-8	0.003153
9.165000E-8	0.003131
9.170000E-8	0.003041
9.175000E-8	0.002913
9.180000E-8	0.002781
9.185000E-8	0.002731
9.190000E-8	0.002578
9.195000E-8	0.002475
9.200000E-8	0.002341
9.205000E-8	0.002328
9.210000E-8	0.002162
9.215000E-8	0.002181
9.220000E-8	0.002153
9.225000E-8	0.002272
9.230000E-8	0.002313
9.235000E-8	0.002556
9.240000E-8	0.002553
9.245000E-8	0.002622
9.250000E-8	0.002728
9.255000E-8	0.002669
9.260000E-8	0.002694
9.265000E-8	0.002694
9.270000E-8	0.002616
9.275000E-8	0.002600
9.280000E-8	0.002531
9.285000E-8	0.002578
9.290000E-8	0.002572
9.295000E-8	0.002747
9.300000E-8	0.002769
9.305000E-8	0.002766
9.310000E-8	0.002753
9.315000E-8	0.002891
9.320000E-8	0.002769
9.325000E-8	0.002803
9.330000E-8	0.002622
9.335000E-8	0.002603
9.340000E-8	0.002325
9.345000E-8	0.002316
9.350000E-8	0.002231
9.355000E-8	0.002162
9.360000E-8	0.002094
9.365000E-8	0.002147
9.370000E-8	0.002175
9.375000E-8	0.002284
9.380000E-8	0.002353
9.385000E-8	0.002575
9.390000E-8	0.002634
9.395000E-8	0.002766
9.400000E-8	0.002734
9.405000E-8	0.002750
9.410000E-8	0.002806
9.415000E-8	0.002913
9.420000E-8	0.002903
9.425000E-8	0.002944
9.430000E-8	0.002919
9.435000E-8	0.003003
9.440000E-8	0.002913
9.445000E-8	0.002950
9.450000E-8	0.002797
9.455000E-8	0.002884
9.460000E-8	0.002809
9.465000E-8	0.002772
9.470000E-8	0.002656
9.475000E-8	0.002644
9.480000E-8	0.002622
9.485000E-8	0.002675
9.490000E-8	0.002556
9.495000E-8	0.002653
9.500000E-8	0.002672
9.505000E-8	0.002819
9.510000E-8	0.002803
9.515000E-8	0.002834
9.520000E-8	0.002838
9.525000E-8	0.003025
9.530000E-8	0.003019
9.535000E-8	0.002975
9.540000E-8	0.003003
9.545000E-8	0.002966
9.550000E-8	0.002900
9.555000E-8	0.002838
9.560000E-8	0.002703
9.565000E-8	0.002591
9.570000E-8	0.002403
9.575000E-8	0.002381
9.580000E-8	0.002366
9.585000E-8	0.002425
9.590000E-8	0.002344
9.595000E-8	0.002328
9.600000E-8	0.002309
9.605000E-8	0.002478
9.610000E-8	0.002534
9.615000E-8	0.002613
9.620000E-8	0.002550
9.625000E-8	0.002566
9.630000E-8	0.002628
9.635000E-8	0.002584
9.640000E-8	0.002569
9.645000E-8	0.002581
9.650000E-8	0.002497
9.655000E-8	0.002453
9.660000E-8	0.002522
9.665000E-8	0.002506
9.670000E-8	0.002613
9.675000E-8	0.002713
9.680000E-8	0.002750
9.685000E-8	0.002691
9.690000E-8	0.002688
9.695000E-8	0.002753
9.700000E-8	0.002800
9.705000E-8	0.002900
9.710000E-8	0.002847
9.715000E-8	0.002881
9.720000E-8	0.002844
9.725000E-8	0.002856
9.730000E-8	0.002741
9.735000E-8	0.002722
9.740000E-8	0.002684
9.745000E-8	0.002716
9.750000E-8	0.002691
9.755000E-8	0.002659
9.760000E-8	0.002575
9.765000E-8	0.002591
9.770000E-8	0.002606
9.775000E-8	0.002653
9.780000E-8	0.002706
9.785000E-8	0.002703
9.790000E-8	0.002700
9.795000E-8	0.002813
9.800000E-8	0.002822
9.805000E-8	0.002963
9.810000E-8	0.002897
9.815000E-8	0.002934
9.820000E-8	0.002819
9.825000E-8	0.002822
9.830000E-8	0.002756
9.835000E-8	0.002678
9.840000E-8	0.002581
9.845000E-8	0.002741
9.850000E-8	0.002584
9.855000E-8	0.002528
9.860000E-8	0.002512
9.865000E-8	0.002600
9.870000E-8	0.002566
9.875000E-8	0.002597
9.880000E-8	0.002609
9.885000E-8	0.002647
9.890000E-8	0.002619
9.895000E-8	0.002713
9.900000E-8	0.002772
9.905000E-8	0.002828
9.910000E-8	0.002828
9.915000E-8	0.003050
9.920000E-8	0.003019
9.925000E-8	0.003047
9.930000E-8	0.002928
9.935000E-8	0.003078
9.940000E-8	0.003022
9.945000E-8	0.002991
9.950000E-8	0.002906
9.955000E-8	0.002981
9.960000E-8	0.002834
9.965000E-8	0.002859
9.970000E-8	0.002775
9.975000E-8	0.002750
9.980000E-8	0.002719
9.985000E-8	0.002775
9.990000E-8	0.002638
9.995000E-8	0.002713
