LabVIEW Measurement	
Writer_Version	2
Reader_Version	2
Separator	Tab
Decimal_Separator	.
Multi_Headings	No
X_Columns	Multi
Time_Pref	Relative
Operator	TG lab
Date	2015/03/06
Time	17:56:11.5786957740783691406
***End_of_Header***	
	
Channels	1	
Samples	2000	
Date	1903/12/31	
Time	19:00:00	
X_Dimension	Time	
X0	0.0000000000000000E+0	
Delta_X	5.000000E-11	
***End_of_Header***		
X_Value	Untitled	Comment
0.000000	0.002659
5.000000E-11	0.002703
1.000000E-10	0.002719
1.500000E-10	0.002891
2.000000E-10	0.002919
2.500000E-10	0.003063
3.000000E-10	0.003144
3.500000E-10	0.003209
4.000000E-10	0.003097
4.500000E-10	0.003053
5.000000E-10	0.003063
5.500000E-10	0.003078
6.000000E-10	0.002994
6.500000E-10	0.002884
7.000000E-10	0.002847
7.500000E-10	0.002816
8.000000E-10	0.002691
8.500000E-10	0.002775
9.000000E-10	0.002600
9.500000E-10	0.002678
1.000000E-9	0.002641
1.050000E-9	0.002559
1.100000E-9	0.002550
1.150000E-9	0.002634
1.200000E-9	0.002547
1.250000E-9	0.002447
1.300000E-9	0.002319
1.350000E-9	0.002300
1.400000E-9	0.002200
1.450000E-9	0.002303
1.500000E-9	0.002306
1.550000E-9	0.002291
1.600000E-9	0.002166
1.650000E-9	0.002419
1.700000E-9	0.002466
1.750000E-9	0.002581
1.800000E-9	0.002581
1.850000E-9	0.002669
1.900000E-9	0.002653
1.950000E-9	0.002741
2.000000E-9	0.002737
2.050000E-9	0.002716
2.100000E-9	0.002737
2.150000E-9	0.002744
2.200000E-9	0.002688
2.250000E-9	0.002678
2.300000E-9	0.002556
2.350000E-9	0.002509
2.400000E-9	0.002428
2.450000E-9	0.002428
2.500000E-9	0.002369
2.550000E-9	0.002375
2.600000E-9	0.002259
2.650000E-9	0.002216
2.700000E-9	0.002237
2.750000E-9	0.002166
2.800000E-9	0.002188
2.850000E-9	0.002197
2.900000E-9	0.002288
2.950000E-9	0.002244
3.000000E-9	0.002209
3.050000E-9	0.002184
3.100000E-9	0.002012
3.150000E-9	0.002147
3.200000E-9	0.002000
3.250000E-9	0.002178
3.300000E-9	0.002100
3.350000E-9	0.002072
3.400000E-9	0.002178
3.450000E-9	0.002181
3.500000E-9	0.002091
3.550000E-9	0.002050
3.600000E-9	0.001956
3.650000E-9	0.002144
3.700000E-9	0.002119
3.750000E-9	0.002000
3.800000E-9	0.001863
3.850000E-9	0.001863
3.900000E-9	0.001750
3.950000E-9	0.001772
4.000000E-9	0.001816
4.050000E-9	0.001966
4.100000E-9	0.002016
4.150000E-9	0.002209
4.200000E-9	0.002344
4.250000E-9	0.002478
4.300000E-9	0.002603
4.350000E-9	0.002919
4.400000E-9	0.003119
4.450000E-9	0.003375
4.500000E-9	0.003616
4.550000E-9	0.003878
4.600000E-9	0.004063
4.650000E-9	0.004013
4.700000E-9	0.003959
4.750000E-9	0.003603
4.800000E-9	0.002875
4.850000E-9	0.001872
4.900000E-9	0.000222
4.950000E-9	-0.001731
5.000000E-9	-0.004106
5.050000E-9	-0.006969
5.100000E-9	-0.010125
5.150000E-9	-0.013503
5.200000E-9	-0.017197
5.250000E-9	-0.020756
5.300000E-9	-0.024125
5.350000E-9	-0.027334
5.400000E-9	-0.030163
5.450000E-9	-0.032641
5.500000E-9	-0.034669
5.550000E-9	-0.036053
5.600000E-9	-0.036997
5.650000E-9	-0.037431
5.700000E-9	-0.037375
5.750000E-9	-0.036788
5.800000E-9	-0.035716
5.850000E-9	-0.034238
5.900000E-9	-0.032469
5.950000E-9	-0.030544
6.000000E-9	-0.028416
6.050000E-9	-0.026275
6.100000E-9	-0.024250
6.150000E-9	-0.022256
6.200000E-9	-0.020903
6.250000E-9	-0.019859
6.300000E-9	-0.019159
6.350000E-9	-0.018772
6.400000E-9	-0.018925
6.450000E-9	-0.019331
6.500000E-9	-0.020006
6.550000E-9	-0.020772
6.600000E-9	-0.021600
6.650000E-9	-0.022559
6.700000E-9	-0.023394
6.750000E-9	-0.023981
6.800000E-9	-0.024572
6.850000E-9	-0.024759
6.900000E-9	-0.024938
6.950000E-9	-0.024934
7.000000E-9	-0.024597
7.050000E-9	-0.023947
7.100000E-9	-0.023075
7.150000E-9	-0.021944
7.200000E-9	-0.020734
7.250000E-9	-0.019159
7.300000E-9	-0.017606
7.350000E-9	-0.016088
7.400000E-9	-0.014547
7.450000E-9	-0.013084
7.500000E-9	-0.011941
7.550000E-9	-0.011009
7.600000E-9	-0.010384
7.650000E-9	-0.010016
7.700000E-9	-0.009987
7.750000E-9	-0.010138
7.800000E-9	-0.010584
7.850000E-9	-0.011178
7.900000E-9	-0.012034
7.950000E-9	-0.012856
8.000000E-9	-0.013681
8.050000E-9	-0.014313
8.100000E-9	-0.014981
8.150000E-9	-0.015569
8.200000E-9	-0.015922
8.250000E-9	-0.016003
8.300000E-9	-0.015897
8.350000E-9	-0.015569
8.400000E-9	-0.014950
8.450000E-9	-0.014116
8.500000E-9	-0.013209
8.550000E-9	-0.012184
8.600000E-9	-0.011028
8.650000E-9	-0.009809
8.700000E-9	-0.008669
8.750000E-9	-0.007591
8.800000E-9	-0.006622
8.850000E-9	-0.005772
8.900000E-9	-0.005222
8.950000E-9	-0.004566
9.000000E-9	-0.004497
9.050000E-9	-0.004559
9.100000E-9	-0.004959
9.150000E-9	-0.005375
9.200000E-9	-0.006372
9.250000E-9	-0.007013
9.300000E-9	-0.008128
9.350000E-9	-0.009069
9.400000E-9	-0.009953
9.450000E-9	-0.010534
9.500000E-9	-0.011028
9.550000E-9	-0.011262
9.600000E-9	-0.011328
9.650000E-9	-0.011119
9.700000E-9	-0.010659
9.750000E-9	-0.010097
9.800000E-9	-0.009288
9.850000E-9	-0.008334
9.900000E-9	-0.007438
9.950000E-9	-0.006381
1.000000E-8	-0.005147
1.005000E-8	-0.004147
1.010000E-8	-0.003356
1.015000E-8	-0.002491
1.020000E-8	-0.001813
1.025000E-8	-0.001572
1.030000E-8	-0.001394
1.035000E-8	-0.001419
1.040000E-8	-0.001600
1.045000E-8	-0.002091
1.050000E-8	-0.002691
1.055000E-8	-0.003481
1.060000E-8	-0.004394
1.065000E-8	-0.005028
1.070000E-8	-0.005825
1.075000E-8	-0.006450
1.080000E-8	-0.007088
1.085000E-8	-0.007531
1.090000E-8	-0.007772
1.095000E-8	-0.007700
1.100000E-8	-0.007500
1.105000E-8	-0.007163
1.110000E-8	-0.006478
1.115000E-8	-0.005706
1.120000E-8	-0.005034
1.125000E-8	-0.004069
1.130000E-8	-0.003166
1.135000E-8	-0.002272
1.140000E-8	-0.001441
1.145000E-8	-0.000612
1.150000E-8	-0.000159
1.155000E-8	0.000259
1.160000E-8	0.000594
1.165000E-8	0.000700
1.170000E-8	0.000609
1.175000E-8	0.000353
1.180000E-8	-0.000294
1.185000E-8	-0.000753
1.190000E-8	-0.001416
1.195000E-8	-0.002253
1.200000E-8	-0.003034
1.205000E-8	-0.003797
1.210000E-8	-0.004559
1.215000E-8	-0.005163
1.220000E-8	-0.005588
1.225000E-8	-0.005838
1.230000E-8	-0.005872
1.235000E-8	-0.005781
1.240000E-8	-0.005391
1.245000E-8	-0.004878
1.250000E-8	-0.004188
1.255000E-8	-0.003084
1.260000E-8	-0.002119
1.265000E-8	-0.001131
1.270000E-8	-0.000156
1.275000E-8	0.000766
1.280000E-8	0.001616
1.285000E-8	0.002206
1.290000E-8	0.002553
1.295000E-8	0.002638
1.300000E-8	0.002603
1.305000E-8	0.002409
1.310000E-8	0.002109
1.315000E-8	0.001459
1.320000E-8	0.000647
1.325000E-8	-0.000247
1.330000E-8	-0.001222
1.335000E-8	-0.002031
1.340000E-8	-0.002831
1.345000E-8	-0.003488
1.350000E-8	-0.004041
1.355000E-8	-0.004325
1.360000E-8	-0.004469
1.365000E-8	-0.004300
1.370000E-8	-0.003925
1.375000E-8	-0.003375
1.380000E-8	-0.002644
1.385000E-8	-0.001628
1.390000E-8	-0.000744
1.395000E-8	0.000153
1.400000E-8	0.001144
1.405000E-8	0.002188
1.410000E-8	0.003022
1.415000E-8	0.003653
1.420000E-8	0.004084
1.425000E-8	0.004387
1.430000E-8	0.004338
1.435000E-8	0.004016
1.440000E-8	0.003666
1.445000E-8	0.003009
1.450000E-8	0.002066
1.455000E-8	0.001159
1.460000E-8	0.000178
1.465000E-8	-0.000803
1.470000E-8	-0.001769
1.475000E-8	-0.002566
1.480000E-8	-0.003250
1.485000E-8	-0.003681
1.490000E-8	-0.003897
1.495000E-8	-0.003797
1.500000E-8	-0.003522
1.505000E-8	-0.002925
1.510000E-8	-0.002169
1.515000E-8	-0.001131
1.520000E-8	-0.000188
1.525000E-8	0.000859
1.530000E-8	0.001928
1.535000E-8	0.002884
1.540000E-8	0.003797
1.545000E-8	0.004472
1.550000E-8	0.004872
1.555000E-8	0.005066
1.560000E-8	0.005016
1.565000E-8	0.004784
1.570000E-8	0.004181
1.575000E-8	0.003247
1.580000E-8	0.002478
1.585000E-8	0.001606
1.590000E-8	0.000475
1.595000E-8	-0.000363
1.600000E-8	-0.001359
1.605000E-8	-0.002119
1.610000E-8	-0.002825
1.615000E-8	-0.003206
1.620000E-8	-0.003356
1.625000E-8	-0.003238
1.630000E-8	-0.002844
1.635000E-8	-0.002213
1.640000E-8	-0.001472
1.645000E-8	-0.000412
1.650000E-8	0.000600
1.655000E-8	0.001744
1.660000E-8	0.002825
1.665000E-8	0.003869
1.670000E-8	0.004700
1.675000E-8	0.005434
1.680000E-8	0.005844
1.685000E-8	0.006112
1.690000E-8	0.006000
1.695000E-8	0.005763
1.700000E-8	0.005259
1.705000E-8	0.004559
1.710000E-8	0.003556
1.715000E-8	0.002638
1.720000E-8	0.001684
1.725000E-8	0.000619
1.730000E-8	-0.000409
1.735000E-8	-0.001203
1.740000E-8	-0.001838
1.745000E-8	-0.002159
1.750000E-8	-0.002316
1.755000E-8	-0.002269
1.760000E-8	-0.001959
1.765000E-8	-0.001434
1.770000E-8	-0.000591
1.775000E-8	0.000222
1.780000E-8	0.001203
1.785000E-8	0.002144
1.790000E-8	0.003028
1.795000E-8	0.003866
1.800000E-8	0.004513
1.805000E-8	0.005028
1.810000E-8	0.005403
1.815000E-8	0.005619
1.820000E-8	0.005531
1.825000E-8	0.005306
1.830000E-8	0.004859
1.835000E-8	0.004353
1.840000E-8	0.003469
1.845000E-8	0.002719
1.850000E-8	0.001753
1.855000E-8	0.000891
1.860000E-8	0.000116
1.865000E-8	-0.000594
1.870000E-8	-0.001194
1.875000E-8	-0.001584
1.880000E-8	-0.001775
1.885000E-8	-0.001759
1.890000E-8	-0.001500
1.895000E-8	-0.001116
1.900000E-8	-0.000469
1.905000E-8	0.000306
1.910000E-8	0.001266
1.915000E-8	0.002156
1.920000E-8	0.002875
1.925000E-8	0.003856
1.930000E-8	0.004503
1.935000E-8	0.005144
1.940000E-8	0.005628
1.945000E-8	0.005884
1.950000E-8	0.005856
1.955000E-8	0.005744
1.960000E-8	0.005394
1.965000E-8	0.004809
1.970000E-8	0.004122
1.975000E-8	0.003372
1.980000E-8	0.002444
1.985000E-8	0.001656
1.990000E-8	0.000756
1.995000E-8	8.750000E-5
2.000000E-8	-0.000722
2.005000E-8	-0.001009
2.010000E-8	-0.001397
2.015000E-8	-0.001441
2.020000E-8	-0.001288
2.025000E-8	-0.000775
2.030000E-8	-0.000347
2.035000E-8	0.000297
2.040000E-8	0.001078
2.045000E-8	0.001859
2.050000E-8	0.002678
2.055000E-8	0.003647
2.060000E-8	0.004269
2.065000E-8	0.004888
2.070000E-8	0.005413
2.075000E-8	0.005825
2.080000E-8	0.005822
2.085000E-8	0.005731
2.090000E-8	0.005425
2.095000E-8	0.004869
2.100000E-8	0.004234
2.105000E-8	0.003503
2.110000E-8	0.002719
2.115000E-8	0.001913
2.120000E-8	0.001122
2.125000E-8	0.000525
2.130000E-8	-0.000144
2.135000E-8	-0.000578
2.140000E-8	-0.000884
2.145000E-8	-0.001056
2.150000E-8	-0.000988
2.155000E-8	-0.000694
2.160000E-8	-0.000287
2.165000E-8	0.000309
2.170000E-8	0.000888
2.175000E-8	0.001606
2.180000E-8	0.002456
2.185000E-8	0.003284
2.190000E-8	0.003978
2.195000E-8	0.004609
2.200000E-8	0.005138
2.205000E-8	0.005525
2.210000E-8	0.005741
2.215000E-8	0.005806
2.220000E-8	0.005541
2.225000E-8	0.005403
2.230000E-8	0.005084
2.235000E-8	0.004537
2.240000E-8	0.003738
2.245000E-8	0.002956
2.250000E-8	0.001981
2.255000E-8	0.001172
2.260000E-8	0.000475
2.265000E-8	-0.000125
2.270000E-8	-0.000563
2.275000E-8	-0.000884
2.280000E-8	-0.000956
2.285000E-8	-0.000813
2.290000E-8	-0.000456
2.295000E-8	4.375000E-5
2.300000E-8	0.000663
2.305000E-8	0.001597
2.310000E-8	0.002450
2.315000E-8	0.003381
2.320000E-8	0.004181
2.325000E-8	0.004925
2.330000E-8	0.005441
2.335000E-8	0.005894
2.340000E-8	0.006013
2.345000E-8	0.006147
2.350000E-8	0.005975
2.355000E-8	0.005550
2.360000E-8	0.004959
2.365000E-8	0.004387
2.370000E-8	0.003534
2.375000E-8	0.002819
2.380000E-8	0.002022
2.385000E-8	0.001303
2.390000E-8	0.000594
2.395000E-8	-5.000000E-5
2.400000E-8	-0.000553
2.405000E-8	-0.000672
2.410000E-8	-0.000856
2.415000E-8	-0.000644
2.420000E-8	-0.000350
2.425000E-8	0.000138
2.430000E-8	0.000653
2.435000E-8	0.001472
2.440000E-8	0.002313
2.445000E-8	0.003222
2.450000E-8	0.004072
2.455000E-8	0.004841
2.460000E-8	0.005369
2.465000E-8	0.005884
2.470000E-8	0.006191
2.475000E-8	0.006300
2.480000E-8	0.005913
2.485000E-8	0.005594
2.490000E-8	0.005034
2.495000E-8	0.004428
2.500000E-8	0.003713
2.505000E-8	0.003044
2.510000E-8	0.002253
2.515000E-8	0.001575
2.520000E-8	0.000794
2.525000E-8	0.000294
2.530000E-8	-0.000353
2.535000E-8	-0.000616
2.540000E-8	-0.000669
2.545000E-8	-0.000497
2.550000E-8	-0.000253
2.555000E-8	0.000156
2.560000E-8	0.000681
2.565000E-8	0.001472
2.570000E-8	0.002288
2.575000E-8	0.003234
2.580000E-8	0.004025
2.585000E-8	0.004975
2.590000E-8	0.005734
2.595000E-8	0.006347
2.600000E-8	0.006784
2.605000E-8	0.006922
2.610000E-8	0.006791
2.615000E-8	0.006347
2.620000E-8	0.005775
2.625000E-8	0.005047
2.630000E-8	0.004109
2.635000E-8	0.003278
2.640000E-8	0.002159
2.645000E-8	0.001359
2.650000E-8	0.000597
2.655000E-8	-2.187500E-5
2.660000E-8	-0.000431
2.665000E-8	-0.000697
2.670000E-8	-0.000725
2.675000E-8	-0.000456
2.680000E-8	-0.000134
2.685000E-8	0.000394
2.690000E-8	0.001000
2.695000E-8	0.001650
2.700000E-8	0.002419
2.705000E-8	0.003259
2.710000E-8	0.004075
2.715000E-8	0.004750
2.720000E-8	0.005225
2.725000E-8	0.005675
2.730000E-8	0.005916
2.735000E-8	0.005969
2.740000E-8	0.005850
2.745000E-8	0.005537
2.750000E-8	0.005053
2.755000E-8	0.004647
2.760000E-8	0.003953
2.765000E-8	0.003356
2.770000E-8	0.002709
2.775000E-8	0.001944
2.780000E-8	0.001331
2.785000E-8	0.000825
2.790000E-8	0.000381
2.795000E-8	-3.125000E-6
2.800000E-8	-0.000231
2.805000E-8	-0.000138
2.810000E-8	4.062500E-5
2.815000E-8	0.000506
2.820000E-8	0.000869
2.825000E-8	0.001522
2.830000E-8	0.002331
2.835000E-8	0.003222
2.840000E-8	0.003941
2.845000E-8	0.004572
2.850000E-8	0.005203
2.855000E-8	0.005716
2.860000E-8	0.006028
2.865000E-8	0.006081
2.870000E-8	0.005838
2.875000E-8	0.005534
2.880000E-8	0.005056
2.885000E-8	0.004428
2.890000E-8	0.003813
2.895000E-8	0.003081
2.900000E-8	0.002463
2.905000E-8	0.001747
2.910000E-8	0.001150
2.915000E-8	0.000663
2.920000E-8	0.000191
2.925000E-8	5.000000E-5
2.930000E-8	-4.375000E-5
2.935000E-8	1.250000E-5
2.940000E-8	0.000200
2.945000E-8	0.000534
2.950000E-8	0.000975
2.955000E-8	0.001612
2.960000E-8	0.002125
2.965000E-8	0.002813
2.970000E-8	0.003406
2.975000E-8	0.004181
2.980000E-8	0.004666
2.985000E-8	0.005303
2.990000E-8	0.005672
2.995000E-8	0.005828
3.000000E-8	0.005722
3.005000E-8	0.005597
3.010000E-8	0.005175
3.015000E-8	0.004634
3.020000E-8	0.003956
3.025000E-8	0.003238
3.030000E-8	0.002400
3.035000E-8	0.001763
3.040000E-8	0.001047
3.045000E-8	0.000697
3.050000E-8	0.000388
3.055000E-8	0.000231
3.060000E-8	0.000147
3.065000E-8	0.000384
3.070000E-8	0.000663
3.075000E-8	0.001153
3.080000E-8	0.001588
3.085000E-8	0.002044
3.090000E-8	0.002597
3.095000E-8	0.003134
3.100000E-8	0.003538
3.105000E-8	0.004106
3.110000E-8	0.004519
3.115000E-8	0.004797
3.120000E-8	0.005047
3.125000E-8	0.005134
3.130000E-8	0.005128
3.135000E-8	0.005006
3.140000E-8	0.004694
3.145000E-8	0.004288
3.150000E-8	0.003847
3.155000E-8	0.003284
3.160000E-8	0.002781
3.165000E-8	0.002131
3.170000E-8	0.001503
3.175000E-8	0.001069
3.180000E-8	0.000769
3.185000E-8	0.000484
3.190000E-8	0.000338
3.195000E-8	0.000334
3.200000E-8	0.000419
3.205000E-8	0.000737
3.210000E-8	0.001084
3.215000E-8	0.001634
3.220000E-8	0.002150
3.225000E-8	0.002628
3.230000E-8	0.003175
3.235000E-8	0.003684
3.240000E-8	0.004116
3.245000E-8	0.004459
3.250000E-8	0.004784
3.255000E-8	0.004994
3.260000E-8	0.004938
3.265000E-8	0.004988
3.270000E-8	0.004738
3.275000E-8	0.004475
3.280000E-8	0.004072
3.285000E-8	0.003656
3.290000E-8	0.003222
3.295000E-8	0.002634
3.300000E-8	0.002091
3.305000E-8	0.001647
3.310000E-8	0.001206
3.315000E-8	0.000791
3.320000E-8	0.000559
3.325000E-8	0.000403
3.330000E-8	0.000397
3.335000E-8	0.000559
3.340000E-8	0.000888
3.345000E-8	0.001272
3.350000E-8	0.001800
3.355000E-8	0.002409
3.360000E-8	0.003063
3.365000E-8	0.003600
3.370000E-8	0.004338
3.375000E-8	0.004797
3.380000E-8	0.005109
3.385000E-8	0.005350
3.390000E-8	0.005516
3.395000E-8	0.005559
3.400000E-8	0.005269
3.405000E-8	0.004925
3.410000E-8	0.004431
3.415000E-8	0.003928
3.420000E-8	0.003341
3.425000E-8	0.002725
3.430000E-8	0.002091
3.435000E-8	0.001553
3.440000E-8	0.001044
3.445000E-8	0.000681
3.450000E-8	0.000484
3.455000E-8	0.000400
3.460000E-8	0.000472
3.465000E-8	0.000638
3.470000E-8	0.000938
3.475000E-8	0.001388
3.480000E-8	0.001916
3.485000E-8	0.002647
3.490000E-8	0.003134
3.495000E-8	0.003788
3.500000E-8	0.004334
3.505000E-8	0.004850
3.510000E-8	0.005244
3.515000E-8	0.005394
3.520000E-8	0.005591
3.525000E-8	0.005550
3.530000E-8	0.005353
3.535000E-8	0.005031
3.540000E-8	0.004569
3.545000E-8	0.004087
3.550000E-8	0.003503
3.555000E-8	0.002991
3.560000E-8	0.002397
3.565000E-8	0.001847
3.570000E-8	0.001406
3.575000E-8	0.001012
3.580000E-8	0.000534
3.585000E-8	0.000450
3.590000E-8	0.000475
3.595000E-8	0.000675
3.600000E-8	0.001019
3.605000E-8	0.001350
3.610000E-8	0.001872
3.615000E-8	0.002394
3.620000E-8	0.003034
3.625000E-8	0.003772
3.630000E-8	0.004250
3.635000E-8	0.004697
3.640000E-8	0.004994
3.645000E-8	0.005197
3.650000E-8	0.005291
3.655000E-8	0.005316
3.660000E-8	0.005116
3.665000E-8	0.004903
3.670000E-8	0.004387
3.675000E-8	0.003809
3.680000E-8	0.003153
3.685000E-8	0.002603
3.690000E-8	0.001969
3.695000E-8	0.001575
3.700000E-8	0.001225
3.705000E-8	0.000897
3.710000E-8	0.000716
3.715000E-8	0.000653
3.720000E-8	0.000741
3.725000E-8	0.001041
3.730000E-8	0.001338
3.735000E-8	0.001797
3.740000E-8	0.002194
3.745000E-8	0.002616
3.750000E-8	0.003197
3.755000E-8	0.003763
3.760000E-8	0.004191
3.765000E-8	0.004644
3.770000E-8	0.004966
3.775000E-8	0.005213
3.780000E-8	0.005294
3.785000E-8	0.005325
3.790000E-8	0.005209
3.795000E-8	0.004909
3.800000E-8	0.004484
3.805000E-8	0.004059
3.810000E-8	0.003525
3.815000E-8	0.003156
3.820000E-8	0.002609
3.825000E-8	0.002125
3.830000E-8	0.001734
3.835000E-8	0.001538
3.840000E-8	0.001263
3.845000E-8	0.001069
3.850000E-8	0.001091
3.855000E-8	0.001134
3.860000E-8	0.001419
3.865000E-8	0.001766
3.870000E-8	0.002150
3.875000E-8	0.002512
3.880000E-8	0.003128
3.885000E-8	0.003647
3.890000E-8	0.004103
3.895000E-8	0.004569
3.900000E-8	0.004791
3.905000E-8	0.005031
3.910000E-8	0.005066
3.915000E-8	0.005034
3.920000E-8	0.004803
3.925000E-8	0.004591
3.930000E-8	0.004181
3.935000E-8	0.003728
3.940000E-8	0.003247
3.945000E-8	0.002825
3.950000E-8	0.002338
3.955000E-8	0.001956
3.960000E-8	0.001469
3.965000E-8	0.001134
3.970000E-8	0.000928
3.975000E-8	0.000825
3.980000E-8	0.000800
3.985000E-8	0.000772
3.990000E-8	0.001122
3.995000E-8	0.001444
4.000000E-8	0.001700
4.005000E-8	0.002269
4.010000E-8	0.002744
4.015000E-8	0.003250
4.020000E-8	0.003556
4.025000E-8	0.003950
4.030000E-8	0.004213
4.035000E-8	0.004413
4.040000E-8	0.004519
4.045000E-8	0.004553
4.050000E-8	0.004550
4.055000E-8	0.004425
4.060000E-8	0.004069
4.065000E-8	0.003722
4.070000E-8	0.003244
4.075000E-8	0.002906
4.080000E-8	0.002397
4.085000E-8	0.001994
4.090000E-8	0.001528
4.095000E-8	0.001097
4.100000E-8	0.000913
4.105000E-8	0.000722
4.110000E-8	0.000647
4.115000E-8	0.000784
4.120000E-8	0.001006
4.125000E-8	0.001334
4.130000E-8	0.001706
4.135000E-8	0.002194
4.140000E-8	0.002706
4.145000E-8	0.003094
4.150000E-8	0.003516
4.155000E-8	0.003962
4.160000E-8	0.004222
4.165000E-8	0.004472
4.170000E-8	0.004694
4.175000E-8	0.004931
4.180000E-8	0.004844
4.185000E-8	0.004659
4.190000E-8	0.004525
4.195000E-8	0.004209
4.200000E-8	0.003722
4.205000E-8	0.003278
4.210000E-8	0.002863
4.215000E-8	0.002413
4.220000E-8	0.002162
4.225000E-8	0.001759
4.230000E-8	0.001322
4.235000E-8	0.001072
4.240000E-8	0.000919
4.245000E-8	0.000906
4.250000E-8	0.001000
4.255000E-8	0.001303
4.260000E-8	0.001641
4.265000E-8	0.002044
4.270000E-8	0.002444
4.275000E-8	0.002975
4.280000E-8	0.003231
4.285000E-8	0.003663
4.290000E-8	0.004072
4.295000E-8	0.004406
4.300000E-8	0.004647
4.305000E-8	0.004681
4.310000E-8	0.004662
4.315000E-8	0.004616
4.320000E-8	0.004366
4.325000E-8	0.004178
4.330000E-8	0.003831
4.335000E-8	0.003456
4.340000E-8	0.002969
4.345000E-8	0.002472
4.350000E-8	0.001984
4.355000E-8	0.001647
4.360000E-8	0.001181
4.365000E-8	0.000894
4.370000E-8	0.000838
4.375000E-8	0.000934
4.380000E-8	0.000994
4.385000E-8	0.001325
4.390000E-8	0.001647
4.395000E-8	0.002084
4.400000E-8	0.002447
4.405000E-8	0.003019
4.410000E-8	0.003441
4.415000E-8	0.003769
4.420000E-8	0.004066
4.425000E-8	0.004400
4.430000E-8	0.004581
4.435000E-8	0.004738
4.440000E-8	0.004756
4.445000E-8	0.004678
4.450000E-8	0.004525
4.455000E-8	0.004316
4.460000E-8	0.004069
4.465000E-8	0.003781
4.470000E-8	0.003259
4.475000E-8	0.002753
4.480000E-8	0.002237
4.485000E-8	0.001859
4.490000E-8	0.001484
4.495000E-8	0.001225
4.500000E-8	0.001056
4.505000E-8	0.001044
4.510000E-8	0.001128
4.515000E-8	0.001216
4.520000E-8	0.001566
4.525000E-8	0.002125
4.530000E-8	0.002450
4.535000E-8	0.002984
4.540000E-8	0.003384
4.545000E-8	0.003766
4.550000E-8	0.004044
4.555000E-8	0.004375
4.560000E-8	0.004500
4.565000E-8	0.004603
4.570000E-8	0.004662
4.575000E-8	0.004563
4.580000E-8	0.004363
4.585000E-8	0.004122
4.590000E-8	0.003853
4.595000E-8	0.003541
4.600000E-8	0.003219
4.605000E-8	0.002806
4.610000E-8	0.002378
4.615000E-8	0.002072
4.620000E-8	0.001594
4.625000E-8	0.001347
4.630000E-8	0.001200
4.635000E-8	0.001156
4.640000E-8	0.001100
4.645000E-8	0.001319
4.650000E-8	0.001581
4.655000E-8	0.002038
4.660000E-8	0.002422
4.665000E-8	0.002934
4.670000E-8	0.003309
4.675000E-8	0.003750
4.680000E-8	0.004100
4.685000E-8	0.004444
4.690000E-8	0.004509
4.695000E-8	0.004591
4.700000E-8	0.004444
4.705000E-8	0.004297
4.710000E-8	0.004100
4.715000E-8	0.003681
4.720000E-8	0.003425
4.725000E-8	0.003069
4.730000E-8	0.002769
4.735000E-8	0.002503
4.740000E-8	0.002237
4.745000E-8	0.002113
4.750000E-8	0.001809
4.755000E-8	0.001703
4.760000E-8	0.001544
4.765000E-8	0.001341
4.770000E-8	0.001331
4.775000E-8	0.001503
4.780000E-8	0.001678
4.785000E-8	0.001934
4.790000E-8	0.002228
4.795000E-8	0.002619
4.800000E-8	0.003003
4.805000E-8	0.003478
4.810000E-8	0.003797
4.815000E-8	0.004072
4.820000E-8	0.004322
4.825000E-8	0.004497
4.830000E-8	0.004516
4.835000E-8	0.004528
4.840000E-8	0.004275
4.845000E-8	0.004075
4.850000E-8	0.003772
4.855000E-8	0.003363
4.860000E-8	0.002906
4.865000E-8	0.002638
4.870000E-8	0.002347
4.875000E-8	0.002044
4.880000E-8	0.001722
4.885000E-8	0.001603
4.890000E-8	0.001475
4.895000E-8	0.001475
4.900000E-8	0.001472
4.905000E-8	0.001700
4.910000E-8	0.001809
4.915000E-8	0.002172
4.920000E-8	0.002350
4.925000E-8	0.002747
4.930000E-8	0.003006
4.935000E-8	0.003438
4.940000E-8	0.003619
4.945000E-8	0.003894
4.950000E-8	0.004203
4.955000E-8	0.004244
4.960000E-8	0.004294
4.965000E-8	0.004306
4.970000E-8	0.004213
4.975000E-8	0.004112
4.980000E-8	0.003875
4.985000E-8	0.003603
4.990000E-8	0.003128
4.995000E-8	0.002844
5.000000E-8	0.002422
5.005000E-8	0.002025
5.010000E-8	0.001800
5.015000E-8	0.001472
5.020000E-8	0.001244
5.025000E-8	0.001134
5.030000E-8	0.001153
5.035000E-8	0.001272
5.040000E-8	0.001444
5.045000E-8	0.001781
5.050000E-8	0.002031
5.055000E-8	0.002466
5.060000E-8	0.002753
5.065000E-8	0.003125
5.070000E-8	0.003356
5.075000E-8	0.003641
5.080000E-8	0.003775
5.085000E-8	0.004053
5.090000E-8	0.004116
5.095000E-8	0.004109
5.100000E-8	0.003972
5.105000E-8	0.003966
5.110000E-8	0.003819
5.115000E-8	0.003581
5.120000E-8	0.003250
5.125000E-8	0.002969
5.130000E-8	0.002769
5.135000E-8	0.002522
5.140000E-8	0.002175
5.145000E-8	0.001913
5.150000E-8	0.001669
5.155000E-8	0.001687
5.160000E-8	0.001641
5.165000E-8	0.001638
5.170000E-8	0.001697
5.175000E-8	0.001828
5.180000E-8	0.002056
5.185000E-8	0.002447
5.190000E-8	0.002731
5.195000E-8	0.003150
5.200000E-8	0.003428
5.205000E-8	0.003803
5.210000E-8	0.004063
5.215000E-8	0.004250
5.220000E-8	0.004478
5.225000E-8	0.004381
5.230000E-8	0.004184
5.235000E-8	0.004003
5.240000E-8	0.003813
5.245000E-8	0.003481
5.250000E-8	0.003275
5.255000E-8	0.002934
5.260000E-8	0.002581
5.265000E-8	0.002306
5.270000E-8	0.002144
5.275000E-8	0.001953
5.280000E-8	0.001831
5.285000E-8	0.001788
5.290000E-8	0.001822
5.295000E-8	0.001847
5.300000E-8	0.001781
5.305000E-8	0.001984
5.310000E-8	0.002078
5.315000E-8	0.002375
5.320000E-8	0.002641
5.325000E-8	0.002981
5.330000E-8	0.003272
5.335000E-8	0.003506
5.340000E-8	0.003697
5.345000E-8	0.003913
5.350000E-8	0.004038
5.355000E-8	0.004213
5.360000E-8	0.004059
5.365000E-8	0.003978
5.370000E-8	0.003763
5.375000E-8	0.003619
5.380000E-8	0.003434
5.385000E-8	0.003159
5.390000E-8	0.002913
5.395000E-8	0.002628
5.400000E-8	0.002306
5.405000E-8	0.002059
5.410000E-8	0.001906
5.415000E-8	0.001800
5.420000E-8	0.001888
5.425000E-8	0.001994
5.430000E-8	0.001947
5.435000E-8	0.002113
5.440000E-8	0.002303
5.445000E-8	0.002488
5.450000E-8	0.002741
5.455000E-8	0.002978
5.460000E-8	0.003241
5.465000E-8	0.003531
5.470000E-8	0.003738
5.475000E-8	0.003897
5.480000E-8	0.004009
5.485000E-8	0.004106
5.490000E-8	0.004091
5.495000E-8	0.004028
5.500000E-8	0.003859
5.505000E-8	0.003603
5.510000E-8	0.003316
5.515000E-8	0.003087
5.520000E-8	0.002672
5.525000E-8	0.002441
5.530000E-8	0.002181
5.535000E-8	0.002003
5.540000E-8	0.001797
5.545000E-8	0.001844
5.550000E-8	0.001709
5.555000E-8	0.001687
5.560000E-8	0.001744
5.565000E-8	0.001975
5.570000E-8	0.002231
5.575000E-8	0.002522
5.580000E-8	0.002725
5.585000E-8	0.002950
5.590000E-8	0.003284
5.595000E-8	0.003409
5.600000E-8	0.003522
5.605000E-8	0.003675
5.610000E-8	0.003803
5.615000E-8	0.003972
5.620000E-8	0.003906
5.625000E-8	0.003747
5.630000E-8	0.003519
5.635000E-8	0.003369
5.640000E-8	0.003028
5.645000E-8	0.002769
5.650000E-8	0.002541
5.655000E-8	0.002250
5.660000E-8	0.001934
5.665000E-8	0.001716
5.670000E-8	0.001600
5.675000E-8	0.001494
5.680000E-8	0.001397
5.685000E-8	0.001478
5.690000E-8	0.001606
5.695000E-8	0.001822
5.700000E-8	0.001988
5.705000E-8	0.002413
5.710000E-8	0.002697
5.715000E-8	0.003087
5.720000E-8	0.003363
5.725000E-8	0.003700
5.730000E-8	0.003884
5.735000E-8	0.004213
5.740000E-8	0.004334
5.745000E-8	0.004309
5.750000E-8	0.004278
5.755000E-8	0.004169
5.760000E-8	0.004028
5.765000E-8	0.003859
5.770000E-8	0.003650
5.775000E-8	0.003375
5.780000E-8	0.002981
5.785000E-8	0.002716
5.790000E-8	0.002466
5.795000E-8	0.002231
5.800000E-8	0.002038
5.805000E-8	0.001897
5.810000E-8	0.001822
5.815000E-8	0.001809
5.820000E-8	0.001881
5.825000E-8	0.002059
5.830000E-8	0.002213
5.835000E-8	0.002400
5.840000E-8	0.002566
5.845000E-8	0.002816
5.850000E-8	0.003144
5.855000E-8	0.003403
5.860000E-8	0.003509
5.865000E-8	0.003738
5.870000E-8	0.003788
5.875000E-8	0.003878
5.880000E-8	0.003872
5.885000E-8	0.003875
5.890000E-8	0.003778
5.895000E-8	0.003566
5.900000E-8	0.003366
5.905000E-8	0.003200
5.910000E-8	0.002956
5.915000E-8	0.002628
5.920000E-8	0.002384
5.925000E-8	0.002147
5.930000E-8	0.001844
5.935000E-8	0.001622
5.940000E-8	0.001531
5.945000E-8	0.001516
5.950000E-8	0.001400
5.955000E-8	0.001509
5.960000E-8	0.001759
5.965000E-8	0.002038
5.970000E-8	0.002494
5.975000E-8	0.002828
5.980000E-8	0.003178
5.985000E-8	0.003644
5.990000E-8	0.003813
5.995000E-8	0.004078
6.000000E-8	0.004172
6.005000E-8	0.004219
6.010000E-8	0.004181
6.015000E-8	0.003972
6.020000E-8	0.003753
6.025000E-8	0.003684
6.030000E-8	0.003381
6.035000E-8	0.003338
6.040000E-8	0.002969
6.045000E-8	0.002828
6.050000E-8	0.002672
6.055000E-8	0.002519
6.060000E-8	0.002316
6.065000E-8	0.002131
6.070000E-8	0.002084
6.075000E-8	0.002025
6.080000E-8	0.001994
6.085000E-8	0.002144
6.090000E-8	0.002278
6.095000E-8	0.002428
6.100000E-8	0.002688
6.105000E-8	0.003041
6.110000E-8	0.003219
6.115000E-8	0.003559
6.120000E-8	0.003809
6.125000E-8	0.003928
6.130000E-8	0.004000
6.135000E-8	0.004122
6.140000E-8	0.003991
6.145000E-8	0.004081
6.150000E-8	0.003913
6.155000E-8	0.003788
6.160000E-8	0.003528
6.165000E-8	0.003353
6.170000E-8	0.003162
6.175000E-8	0.002950
6.180000E-8	0.002666
6.185000E-8	0.002428
6.190000E-8	0.002159
6.195000E-8	0.002025
6.200000E-8	0.002006
6.205000E-8	0.001988
6.210000E-8	0.001878
6.215000E-8	0.001969
6.220000E-8	0.002153
6.225000E-8	0.002256
6.230000E-8	0.002475
6.235000E-8	0.002728
6.240000E-8	0.002981
6.245000E-8	0.003309
6.250000E-8	0.003528
6.255000E-8	0.003803
6.260000E-8	0.004003
6.265000E-8	0.004022
6.270000E-8	0.004038
6.275000E-8	0.004009
6.280000E-8	0.003959
6.285000E-8	0.003906
6.290000E-8	0.003688
6.295000E-8	0.003675
6.300000E-8	0.003434
6.305000E-8	0.003288
6.310000E-8	0.003012
6.315000E-8	0.002806
6.320000E-8	0.002447
6.325000E-8	0.002219
6.330000E-8	0.002044
6.335000E-8	0.002063
6.340000E-8	0.001966
6.345000E-8	0.002009
6.350000E-8	0.002000
6.355000E-8	0.002194
6.360000E-8	0.002409
6.365000E-8	0.002544
6.370000E-8	0.002756
6.375000E-8	0.002978
6.380000E-8	0.003178
6.385000E-8	0.003356
6.390000E-8	0.003525
6.395000E-8	0.003688
6.400000E-8	0.003766
6.405000E-8	0.003881
6.410000E-8	0.003856
6.415000E-8	0.003844
6.420000E-8	0.003659
6.425000E-8	0.003534
6.430000E-8	0.003441
6.435000E-8	0.003209
6.440000E-8	0.002928
6.445000E-8	0.002563
6.450000E-8	0.002244
6.455000E-8	0.002134
6.460000E-8	0.001913
6.465000E-8	0.001763
6.470000E-8	0.001716
6.475000E-8	0.001903
6.480000E-8	0.001919
6.485000E-8	0.002063
6.490000E-8	0.002300
6.495000E-8	0.002584
6.500000E-8	0.002684
6.505000E-8	0.003025
6.510000E-8	0.003238
6.515000E-8	0.003366
6.520000E-8	0.003544
6.525000E-8	0.003800
6.530000E-8	0.003722
6.535000E-8	0.003772
6.540000E-8	0.003766
6.545000E-8	0.003744
6.550000E-8	0.003631
6.555000E-8	0.003500
6.560000E-8	0.003272
6.565000E-8	0.003019
6.570000E-8	0.002875
6.575000E-8	0.002616
6.580000E-8	0.002469
6.585000E-8	0.002319
6.590000E-8	0.002203
6.595000E-8	0.002209
6.600000E-8	0.002103
6.605000E-8	0.002122
6.610000E-8	0.002131
6.615000E-8	0.002306
6.620000E-8	0.002459
6.625000E-8	0.002659
6.630000E-8	0.002972
6.635000E-8	0.003019
6.640000E-8	0.003206
6.645000E-8	0.003500
6.650000E-8	0.003713
6.655000E-8	0.003863
6.660000E-8	0.003950
6.665000E-8	0.003988
6.670000E-8	0.003966
6.675000E-8	0.003844
6.680000E-8	0.003628
6.685000E-8	0.003406
6.690000E-8	0.003331
6.695000E-8	0.003031
6.700000E-8	0.002741
6.705000E-8	0.002650
6.710000E-8	0.002475
6.715000E-8	0.002341
6.720000E-8	0.002169
6.725000E-8	0.002119
6.730000E-8	0.002000
6.735000E-8	0.002003
6.740000E-8	0.002044
6.745000E-8	0.002138
6.750000E-8	0.002294
6.755000E-8	0.002519
6.760000E-8	0.002594
6.765000E-8	0.002703
6.770000E-8	0.002978
6.775000E-8	0.003213
6.780000E-8	0.003331
6.785000E-8	0.003556
6.790000E-8	0.003653
6.795000E-8	0.003869
6.800000E-8	0.003719
6.805000E-8	0.003659
6.810000E-8	0.003434
6.815000E-8	0.003278
6.820000E-8	0.003103
6.825000E-8	0.003016
6.830000E-8	0.002659
6.835000E-8	0.002628
6.840000E-8	0.002569
6.845000E-8	0.002506
6.850000E-8	0.002353
6.855000E-8	0.002419
6.860000E-8	0.002422
6.865000E-8	0.002441
6.870000E-8	0.002566
6.875000E-8	0.002563
6.880000E-8	0.002622
6.885000E-8	0.002806
6.890000E-8	0.002959
6.895000E-8	0.003038
6.900000E-8	0.003319
6.905000E-8	0.003441
6.910000E-8	0.003566
6.915000E-8	0.003738
6.920000E-8	0.003778
6.925000E-8	0.003822
6.930000E-8	0.003747
6.935000E-8	0.003731
6.940000E-8	0.003591
6.945000E-8	0.003388
6.950000E-8	0.003225
6.955000E-8	0.003097
6.960000E-8	0.002819
6.965000E-8	0.002662
6.970000E-8	0.002616
6.975000E-8	0.002406
6.980000E-8	0.002328
6.985000E-8	0.002344
6.990000E-8	0.002325
6.995000E-8	0.002391
7.000000E-8	0.002528
7.005000E-8	0.002613
7.010000E-8	0.002638
7.015000E-8	0.002744
7.020000E-8	0.002884
7.025000E-8	0.003113
7.030000E-8	0.003141
7.035000E-8	0.003316
7.040000E-8	0.003347
7.045000E-8	0.003366
7.050000E-8	0.003313
7.055000E-8	0.003322
7.060000E-8	0.003328
7.065000E-8	0.003384
7.070000E-8	0.003356
7.075000E-8	0.003328
7.080000E-8	0.003344
7.085000E-8	0.003291
7.090000E-8	0.003156
7.095000E-8	0.003059
7.100000E-8	0.002900
7.105000E-8	0.002709
7.110000E-8	0.002594
7.115000E-8	0.002528
7.120000E-8	0.002403
7.125000E-8	0.002409
7.130000E-8	0.002313
7.135000E-8	0.002488
7.140000E-8	0.002500
7.145000E-8	0.002447
7.150000E-8	0.002634
7.155000E-8	0.002769
7.160000E-8	0.002909
7.165000E-8	0.003188
7.170000E-8	0.003184
7.175000E-8	0.003409
7.180000E-8	0.003500
7.185000E-8	0.003628
7.190000E-8	0.003703
7.195000E-8	0.003697
7.200000E-8	0.003603
7.205000E-8	0.003653
7.210000E-8	0.003534
7.215000E-8	0.003384
7.220000E-8	0.003200
7.225000E-8	0.003069
7.230000E-8	0.002856
7.235000E-8	0.002788
7.240000E-8	0.002706
7.245000E-8	0.002519
7.250000E-8	0.002522
7.255000E-8	0.002466
7.260000E-8	0.002384
7.265000E-8	0.002478
7.270000E-8	0.002409
7.275000E-8	0.002587
7.280000E-8	0.002659
7.285000E-8	0.002741
7.290000E-8	0.002913
7.295000E-8	0.003056
7.300000E-8	0.003206
7.305000E-8	0.003375
7.310000E-8	0.003506
7.315000E-8	0.003681
7.320000E-8	0.003772
7.325000E-8	0.003688
7.330000E-8	0.003584
7.335000E-8	0.003481
7.340000E-8	0.003238
7.345000E-8	0.003194
7.350000E-8	0.003078
7.355000E-8	0.002950
7.360000E-8	0.002691
7.365000E-8	0.002512
7.370000E-8	0.002450
7.375000E-8	0.002353
7.380000E-8	0.002269
7.385000E-8	0.002341
7.390000E-8	0.002319
7.395000E-8	0.002569
7.400000E-8	0.002481
7.405000E-8	0.002619
7.410000E-8	0.002806
7.415000E-8	0.002878
7.420000E-8	0.002969
7.425000E-8	0.003138
7.430000E-8	0.003191
7.435000E-8	0.003350
7.440000E-8	0.003272
7.445000E-8	0.003356
7.450000E-8	0.003359
7.455000E-8	0.003369
7.460000E-8	0.003353
7.465000E-8	0.003406
7.470000E-8	0.003241
7.475000E-8	0.003094
7.480000E-8	0.002906
7.485000E-8	0.002813
7.490000E-8	0.002625
7.495000E-8	0.002681
7.500000E-8	0.002331
7.505000E-8	0.002300
7.510000E-8	0.002097
7.515000E-8	0.002159
7.520000E-8	0.002097
7.525000E-8	0.002200
7.530000E-8	0.002372
7.535000E-8	0.002512
7.540000E-8	0.002719
7.545000E-8	0.002863
7.550000E-8	0.003006
7.555000E-8	0.003216
7.560000E-8	0.003278
7.565000E-8	0.003394
7.570000E-8	0.003438
7.575000E-8	0.003625
7.580000E-8	0.003587
7.585000E-8	0.003584
7.590000E-8	0.003434
7.595000E-8	0.003381
7.600000E-8	0.003213
7.605000E-8	0.003119
7.610000E-8	0.003009
7.615000E-8	0.002891
7.620000E-8	0.002769
7.625000E-8	0.002688
7.630000E-8	0.002606
7.635000E-8	0.002469
7.640000E-8	0.002428
7.645000E-8	0.002466
7.650000E-8	0.002400
7.655000E-8	0.002484
7.660000E-8	0.002547
7.665000E-8	0.002662
7.670000E-8	0.002753
7.675000E-8	0.002963
7.680000E-8	0.002906
7.685000E-8	0.003150
7.690000E-8	0.003191
7.695000E-8	0.003369
7.700000E-8	0.003512
7.705000E-8	0.003484
7.710000E-8	0.003509
7.715000E-8	0.003475
7.720000E-8	0.003422
7.725000E-8	0.003359
7.730000E-8	0.003188
7.735000E-8	0.003197
7.740000E-8	0.002975
7.745000E-8	0.002909
7.750000E-8	0.002822
7.755000E-8	0.002825
7.760000E-8	0.002697
7.765000E-8	0.002697
7.770000E-8	0.002569
7.775000E-8	0.002719
7.780000E-8	0.002703
7.785000E-8	0.002691
7.790000E-8	0.002822
7.795000E-8	0.002878
7.800000E-8	0.002978
7.805000E-8	0.003072
7.810000E-8	0.003238
7.815000E-8	0.003284
7.820000E-8	0.003356
7.825000E-8	0.003425
7.830000E-8	0.003347
7.835000E-8	0.003625
7.840000E-8	0.003512
7.845000E-8	0.003641
7.850000E-8	0.003553
7.855000E-8	0.003572
7.860000E-8	0.003516
7.865000E-8	0.003503
7.870000E-8	0.003397
7.875000E-8	0.003369
7.880000E-8	0.003266
7.885000E-8	0.003059
7.890000E-8	0.002838
7.895000E-8	0.002713
7.900000E-8	0.002600
7.905000E-8	0.002431
7.910000E-8	0.002253
7.915000E-8	0.002356
7.920000E-8	0.002181
7.925000E-8	0.002309
7.930000E-8	0.002488
7.935000E-8	0.002609
7.940000E-8	0.002816
7.945000E-8	0.002947
7.950000E-8	0.003125
7.955000E-8	0.003234
7.960000E-8	0.003334
7.965000E-8	0.003341
7.970000E-8	0.003347
7.975000E-8	0.003381
7.980000E-8	0.003162
7.985000E-8	0.003109
7.990000E-8	0.002950
7.995000E-8	0.002772
8.000000E-8	0.002575
8.005000E-8	0.002400
8.010000E-8	0.002419
8.015000E-8	0.002269
8.020000E-8	0.002228
8.025000E-8	0.002322
8.030000E-8	0.002391
8.035000E-8	0.002478
8.040000E-8	0.002584
8.045000E-8	0.002709
8.050000E-8	0.002763
8.055000E-8	0.002863
8.060000E-8	0.002994
8.065000E-8	0.003113
8.070000E-8	0.003131
8.075000E-8	0.003175
8.080000E-8	0.003175
8.085000E-8	0.003347
8.090000E-8	0.003344
8.095000E-8	0.003291
8.100000E-8	0.003344
8.105000E-8	0.003259
8.110000E-8	0.003222
8.115000E-8	0.003284
8.120000E-8	0.003166
8.125000E-8	0.003178
8.130000E-8	0.003103
8.135000E-8	0.003069
8.140000E-8	0.003072
8.145000E-8	0.002969
8.150000E-8	0.002950
8.155000E-8	0.002872
8.160000E-8	0.002828
8.165000E-8	0.002775
8.170000E-8	0.002541
8.175000E-8	0.002538
8.180000E-8	0.002516
8.185000E-8	0.002575
8.190000E-8	0.002647
8.195000E-8	0.002788
8.200000E-8	0.002878
8.205000E-8	0.002991
8.210000E-8	0.003116
8.215000E-8	0.003288
8.220000E-8	0.003419
8.225000E-8	0.003481
8.230000E-8	0.003472
8.235000E-8	0.003341
8.240000E-8	0.003400
8.245000E-8	0.003319
8.250000E-8	0.003300
8.255000E-8	0.003172
8.260000E-8	0.002963
8.265000E-8	0.002859
8.270000E-8	0.002722
8.275000E-8	0.002731
8.280000E-8	0.002538
8.285000E-8	0.002584
8.290000E-8	0.002434
8.295000E-8	0.002400
8.300000E-8	0.002319
8.305000E-8	0.002416
8.310000E-8	0.002459
8.315000E-8	0.002503
8.320000E-8	0.002472
8.325000E-8	0.002678
8.330000E-8	0.002797
8.335000E-8	0.002859
8.340000E-8	0.002972
8.345000E-8	0.003134
8.350000E-8	0.003213
8.355000E-8	0.003303
8.360000E-8	0.003388
8.365000E-8	0.003353
8.370000E-8	0.003422
8.375000E-8	0.003431
8.380000E-8	0.003425
8.385000E-8	0.003428
8.390000E-8	0.003288
8.395000E-8	0.003234
8.400000E-8	0.003131
8.405000E-8	0.003009
8.410000E-8	0.002781
8.415000E-8	0.002766
8.420000E-8	0.002697
8.425000E-8	0.002675
8.430000E-8	0.002625
8.435000E-8	0.002688
8.440000E-8	0.002638
8.445000E-8	0.002606
8.450000E-8	0.002656
8.455000E-8	0.002763
8.460000E-8	0.002797
8.465000E-8	0.002897
8.470000E-8	0.002978
8.475000E-8	0.002988
8.480000E-8	0.003194
8.485000E-8	0.003331
8.490000E-8	0.003344
8.495000E-8	0.003297
8.500000E-8	0.003316
8.505000E-8	0.003303
8.510000E-8	0.003269
8.515000E-8	0.003263
8.520000E-8	0.003150
8.525000E-8	0.003053
8.530000E-8	0.002903
8.535000E-8	0.002903
8.540000E-8	0.002675
8.545000E-8	0.002619
8.550000E-8	0.002397
8.555000E-8	0.002400
8.560000E-8	0.002306
8.565000E-8	0.002409
8.570000E-8	0.002419
8.575000E-8	0.002519
8.580000E-8	0.002634
8.585000E-8	0.002722
8.590000E-8	0.002731
8.595000E-8	0.002831
8.600000E-8	0.002941
8.605000E-8	0.003072
8.610000E-8	0.003028
8.615000E-8	0.003134
8.620000E-8	0.003122
8.625000E-8	0.003222
8.630000E-8	0.003172
8.635000E-8	0.003162
8.640000E-8	0.003034
8.645000E-8	0.002991
8.650000E-8	0.002947
8.655000E-8	0.002903
8.660000E-8	0.002803
8.665000E-8	0.002591
8.670000E-8	0.002566
8.675000E-8	0.002472
8.680000E-8	0.002444
8.685000E-8	0.002413
8.690000E-8	0.002369
8.695000E-8	0.002363
8.700000E-8	0.002378
8.705000E-8	0.002481
8.710000E-8	0.002425
8.715000E-8	0.002450
8.720000E-8	0.002619
8.725000E-8	0.002734
8.730000E-8	0.002775
8.735000E-8	0.002941
8.740000E-8	0.003000
8.745000E-8	0.003178
8.750000E-8	0.003234
8.755000E-8	0.003350
8.760000E-8	0.003303
8.765000E-8	0.003278
8.770000E-8	0.003281
8.775000E-8	0.003284
8.780000E-8	0.003166
8.785000E-8	0.003125
8.790000E-8	0.003016
8.795000E-8	0.002903
8.800000E-8	0.002775
8.805000E-8	0.002669
8.810000E-8	0.002650
8.815000E-8	0.002613
8.820000E-8	0.002575
8.825000E-8	0.002619
8.830000E-8	0.002606
8.835000E-8	0.002506
8.840000E-8	0.002556
8.845000E-8	0.002775
8.850000E-8	0.002794
8.855000E-8	0.002994
8.860000E-8	0.003059
8.865000E-8	0.003200
8.870000E-8	0.003238
8.875000E-8	0.003416
8.880000E-8	0.003403
8.885000E-8	0.003503
8.890000E-8	0.003466
8.895000E-8	0.003488
8.900000E-8	0.003525
8.905000E-8	0.003444
8.910000E-8	0.003391
8.915000E-8	0.003375
8.920000E-8	0.003188
8.925000E-8	0.003134
8.930000E-8	0.002969
8.935000E-8	0.002925
8.940000E-8	0.002859
8.945000E-8	0.002803
8.950000E-8	0.002809
8.955000E-8	0.002797
8.960000E-8	0.002797
8.965000E-8	0.002859
8.970000E-8	0.002816
8.975000E-8	0.002875
8.980000E-8	0.002909
8.985000E-8	0.002969
8.990000E-8	0.003012
8.995000E-8	0.003047
9.000000E-8	0.003041
9.005000E-8	0.003134
9.010000E-8	0.003159
9.015000E-8	0.003094
9.020000E-8	0.003125
9.025000E-8	0.003156
9.030000E-8	0.003056
9.035000E-8	0.003019
9.040000E-8	0.002847
9.045000E-8	0.002844
9.050000E-8	0.002806
9.055000E-8	0.002681
9.060000E-8	0.002591
9.065000E-8	0.002528
9.070000E-8	0.002475
9.075000E-8	0.002381
9.080000E-8	0.002456
9.085000E-8	0.002606
9.090000E-8	0.002584
9.095000E-8	0.002725
9.100000E-8	0.002925
9.105000E-8	0.003025
9.110000E-8	0.003050
9.115000E-8	0.003200
9.120000E-8	0.003313
9.125000E-8	0.003250
9.130000E-8	0.003347
9.135000E-8	0.003391
9.140000E-8	0.003331
9.145000E-8	0.003528
9.150000E-8	0.003369
9.155000E-8	0.003428
9.160000E-8	0.003325
9.165000E-8	0.003378
9.170000E-8	0.003259
9.175000E-8	0.003063
9.180000E-8	0.002866
9.185000E-8	0.002825
9.190000E-8	0.002713
9.195000E-8	0.002622
9.200000E-8	0.002512
9.205000E-8	0.002416
9.210000E-8	0.002428
9.215000E-8	0.002422
9.220000E-8	0.002284
9.225000E-8	0.002444
9.230000E-8	0.002456
9.235000E-8	0.002603
9.240000E-8	0.002681
9.245000E-8	0.002938
9.250000E-8	0.002863
9.255000E-8	0.003200
9.260000E-8	0.003184
9.265000E-8	0.003328
9.270000E-8	0.003359
9.275000E-8	0.003328
9.280000E-8	0.003263
9.285000E-8	0.003391
9.290000E-8	0.003300
9.295000E-8	0.003300
9.300000E-8	0.003281
9.305000E-8	0.003272
9.310000E-8	0.003094
9.315000E-8	0.003138
9.320000E-8	0.002978
9.325000E-8	0.002975
9.330000E-8	0.002900
9.335000E-8	0.002878
9.340000E-8	0.002728
9.345000E-8	0.002784
9.350000E-8	0.002734
9.355000E-8	0.002809
9.360000E-8	0.002706
9.365000E-8	0.002859
9.370000E-8	0.002788
9.375000E-8	0.002850
9.380000E-8	0.002931
9.385000E-8	0.002934
9.390000E-8	0.002916
9.395000E-8	0.003028
9.400000E-8	0.003087
9.405000E-8	0.003041
9.410000E-8	0.003025
9.415000E-8	0.003041
9.420000E-8	0.003012
9.425000E-8	0.003038
9.430000E-8	0.003041
9.435000E-8	0.003031
9.440000E-8	0.003016
9.445000E-8	0.002916
9.450000E-8	0.002763
9.455000E-8	0.002741
9.460000E-8	0.002647
9.465000E-8	0.002613
9.470000E-8	0.002638
9.475000E-8	0.002597
9.480000E-8	0.002603
9.485000E-8	0.002662
9.490000E-8	0.002675
9.495000E-8	0.002819
9.500000E-8	0.002713
9.505000E-8	0.002928
9.510000E-8	0.002991
9.515000E-8	0.002922
9.520000E-8	0.002938
9.525000E-8	0.003072
9.530000E-8	0.003072
9.535000E-8	0.003044
9.540000E-8	0.003019
9.545000E-8	0.003044
9.550000E-8	0.002956
9.555000E-8	0.003059
9.560000E-8	0.002916
9.565000E-8	0.002900
9.570000E-8	0.002781
9.575000E-8	0.002650
9.580000E-8	0.002613
9.585000E-8	0.002634
9.590000E-8	0.002606
9.595000E-8	0.002616
9.600000E-8	0.002700
9.605000E-8	0.002763
9.610000E-8	0.002672
9.615000E-8	0.002659
9.620000E-8	0.002753
9.625000E-8	0.002838
9.630000E-8	0.002981
9.635000E-8	0.002953
9.640000E-8	0.002938
9.645000E-8	0.003016
9.650000E-8	0.003006
9.655000E-8	0.003106
9.660000E-8	0.003056
9.665000E-8	0.003109
9.670000E-8	0.003069
9.675000E-8	0.003087
9.680000E-8	0.003034
9.685000E-8	0.003019
9.690000E-8	0.002991
9.695000E-8	0.003019
9.700000E-8	0.002791
9.705000E-8	0.002794
9.710000E-8	0.002572
9.715000E-8	0.002534
9.720000E-8	0.002506
9.725000E-8	0.002503
9.730000E-8	0.002397
9.735000E-8	0.002463
9.740000E-8	0.002450
9.745000E-8	0.002628
9.750000E-8	0.002559
9.755000E-8	0.002584
9.760000E-8	0.002519
9.765000E-8	0.002691
9.770000E-8	0.002675
9.775000E-8	0.002822
9.780000E-8	0.002863
9.785000E-8	0.002888
9.790000E-8	0.002919
9.795000E-8	0.003066
9.800000E-8	0.003209
9.805000E-8	0.003269
9.810000E-8	0.003344
9.815000E-8	0.003331
9.820000E-8	0.003331
9.825000E-8	0.003278
9.830000E-8	0.003253
9.835000E-8	0.003175
9.840000E-8	0.003131
9.845000E-8	0.003053
9.850000E-8	0.002944
9.855000E-8	0.002813
9.860000E-8	0.002784
9.865000E-8	0.002722
9.870000E-8	0.002538
9.875000E-8	0.002544
9.880000E-8	0.002484
9.885000E-8	0.002666
9.890000E-8	0.002747
9.895000E-8	0.002863
9.900000E-8	0.002950
9.905000E-8	0.003066
9.910000E-8	0.003050
9.915000E-8	0.003094
9.920000E-8	0.003066
9.925000E-8	0.003125
9.930000E-8	0.002978
9.935000E-8	0.003047
9.940000E-8	0.002894
9.945000E-8	0.002759
9.950000E-8	0.002784
9.955000E-8	0.002838
9.960000E-8	0.002816
9.965000E-8	0.002903
9.970000E-8	0.002850
9.975000E-8	0.002850
9.980000E-8	0.003003
9.985000E-8	0.002878
9.990000E-8	0.002853
9.995000E-8	0.002834
