LabVIEW Measurement	
Writer_Version	2
Reader_Version	2
Separator	Tab
Decimal_Separator	.
Multi_Headings	No
X_Columns	Multi
Time_Pref	Relative
Operator	TG lab
Date	2015/03/06
Time	16:24:34.2482666969299316406
***End_of_Header***	
	
Channels	1	
Samples	2000	
Date	1903/12/31	
Time	19:00:00	
X_Dimension	Time	
X0	0.0000000000000000E+0	
Delta_X	5.000000E-11	
***End_of_Header***		
X_Value	Untitled	Comment
0.000000	0.001847
5.000000E-11	0.001869
1.000000E-10	0.001884
1.500000E-10	0.002006
2.000000E-10	0.001991
2.500000E-10	0.002072
3.000000E-10	0.002128
3.500000E-10	0.002297
4.000000E-10	0.002256
4.500000E-10	0.002350
5.000000E-10	0.002341
5.500000E-10	0.002466
6.000000E-10	0.002350
6.500000E-10	0.002294
7.000000E-10	0.002153
7.500000E-10	0.002100
8.000000E-10	0.001925
8.500000E-10	0.001791
9.000000E-10	0.001778
9.500000E-10	0.001750
1.000000E-9	0.001750
1.050000E-9	0.001788
1.100000E-9	0.001644
1.150000E-9	0.001684
1.200000E-9	0.001675
1.250000E-9	0.001794
1.300000E-9	0.001841
1.350000E-9	0.001953
1.400000E-9	0.002028
1.450000E-9	0.002031
1.500000E-9	0.002003
1.550000E-9	0.002044
1.600000E-9	0.002028
1.650000E-9	0.001925
1.700000E-9	0.001869
1.750000E-9	0.001884
1.800000E-9	0.001875
1.850000E-9	0.001853
1.900000E-9	0.001816
1.950000E-9	0.001934
2.000000E-9	0.002025
2.050000E-9	0.001953
2.100000E-9	0.001984
2.150000E-9	0.002072
2.200000E-9	0.002031
2.250000E-9	0.002131
2.300000E-9	0.002225
2.350000E-9	0.002234
2.400000E-9	0.002200
2.450000E-9	0.002106
2.500000E-9	0.002116
2.550000E-9	0.002184
2.600000E-9	0.002097
2.650000E-9	0.002216
2.700000E-9	0.002231
2.750000E-9	0.002241
2.800000E-9	0.002209
2.850000E-9	0.002219
2.900000E-9	0.002237
2.950000E-9	0.002278
3.000000E-9	0.002241
3.050000E-9	0.002244
3.100000E-9	0.002175
3.150000E-9	0.002331
3.200000E-9	0.002275
3.250000E-9	0.002272
3.300000E-9	0.002281
3.350000E-9	0.002363
3.400000E-9	0.002369
3.450000E-9	0.002366
3.500000E-9	0.002313
3.550000E-9	0.002469
3.600000E-9	0.002419
3.650000E-9	0.002437
3.700000E-9	0.002428
3.750000E-9	0.002444
3.800000E-9	0.002347
3.850000E-9	0.002397
3.900000E-9	0.002259
3.950000E-9	0.002344
4.000000E-9	0.002375
4.050000E-9	0.002406
4.100000E-9	0.002384
4.150000E-9	0.002447
4.200000E-9	0.002406
4.250000E-9	0.002453
4.300000E-9	0.002272
4.350000E-9	0.002297
4.400000E-9	0.002225
4.450000E-9	0.002156
4.500000E-9	0.002103
4.550000E-9	0.002300
4.600000E-9	0.002263
4.650000E-9	0.002341
4.700000E-9	0.002325
4.750000E-9	0.002388
4.800000E-9	0.002422
4.850000E-9	0.002609
4.900000E-9	0.002544
4.950000E-9	0.002484
5.000000E-9	0.002450
5.050000E-9	0.002475
5.100000E-9	0.002434
5.150000E-9	0.002488
5.200000E-9	0.002503
5.250000E-9	0.002447
5.300000E-9	0.002422
5.350000E-9	0.002587
5.400000E-9	0.002447
5.450000E-9	0.002628
5.500000E-9	0.002634
5.550000E-9	0.002709
5.600000E-9	0.002703
5.650000E-9	0.002638
5.700000E-9	0.002603
5.750000E-9	0.002613
5.800000E-9	0.002553
5.850000E-9	0.002656
5.900000E-9	0.002631
5.950000E-9	0.002566
6.000000E-9	0.002572
6.050000E-9	0.002669
6.100000E-9	0.002763
6.150000E-9	0.002922
6.200000E-9	0.002956
6.250000E-9	0.003034
6.300000E-9	0.003094
6.350000E-9	0.003131
6.400000E-9	0.003097
6.450000E-9	0.003087
6.500000E-9	0.003238
6.550000E-9	0.003131
6.600000E-9	0.003084
6.650000E-9	0.003200
6.700000E-9	0.003169
6.750000E-9	0.003319
6.800000E-9	0.003225
6.850000E-9	0.003453
6.900000E-9	0.003628
6.950000E-9	0.003766
7.000000E-9	0.004016
7.050000E-9	0.004309
7.100000E-9	0.004513
7.150000E-9	0.004775
7.200000E-9	0.005044
7.250000E-9	0.005550
7.300000E-9	0.006053
7.350000E-9	0.006706
7.400000E-9	0.007428
7.450000E-9	0.008372
7.500000E-9	0.009403
7.550000E-9	0.010684
7.600000E-9	0.012128
7.650000E-9	0.013434
7.700000E-9	0.014741
7.750000E-9	0.016081
7.800000E-9	0.017128
7.850000E-9	0.018256
7.900000E-9	0.019388
7.950000E-9	0.020475
8.000000E-9	0.021544
8.050000E-9	0.022509
8.100000E-9	0.023741
8.150000E-9	0.025191
8.200000E-9	0.026575
8.250000E-9	0.028028
8.300000E-9	0.029588
8.350000E-9	0.031047
8.400000E-9	0.032047
8.450000E-9	0.032762
8.500000E-9	0.032916
8.550000E-9	0.032741
8.600000E-9	0.031866
8.650000E-9	0.030641
8.700000E-9	0.028844
8.750000E-9	0.026869
8.800000E-9	0.024706
8.850000E-9	0.022631
8.900000E-9	0.020728
8.950000E-9	0.019288
9.000000E-9	0.018316
9.050000E-9	0.017709
9.100000E-9	0.017441
9.150000E-9	0.017653
9.200000E-9	0.018234
9.250000E-9	0.018884
9.300000E-9	0.019709
9.350000E-9	0.020341
9.400000E-9	0.020769
9.450000E-9	0.020922
9.500000E-9	0.020806
9.550000E-9	0.020234
9.600000E-9	0.019331
9.650000E-9	0.018069
9.700000E-9	0.016575
9.750000E-9	0.015144
9.800000E-9	0.013578
9.850000E-9	0.012281
9.900000E-9	0.011137
9.950000E-9	0.010359
1.000000E-8	0.009825
1.005000E-8	0.009713
1.010000E-8	0.009903
1.015000E-8	0.010406
1.020000E-8	0.011031
1.025000E-8	0.011738
1.030000E-8	0.012422
1.035000E-8	0.013016
1.040000E-8	0.013422
1.045000E-8	0.013669
1.050000E-8	0.013613
1.055000E-8	0.013313
1.060000E-8	0.012591
1.065000E-8	0.011800
1.070000E-8	0.010816
1.075000E-8	0.009872
1.080000E-8	0.008734
1.085000E-8	0.007888
1.090000E-8	0.007106
1.095000E-8	0.006541
1.100000E-8	0.006303
1.105000E-8	0.006194
1.110000E-8	0.006384
1.115000E-8	0.006881
1.120000E-8	0.007419
1.125000E-8	0.008019
1.130000E-8	0.008744
1.135000E-8	0.009213
1.140000E-8	0.009609
1.145000E-8	0.009675
1.150000E-8	0.009584
1.155000E-8	0.009216
1.160000E-8	0.008594
1.165000E-8	0.007834
1.170000E-8	0.006881
1.175000E-8	0.005856
1.180000E-8	0.004950
1.185000E-8	0.004169
1.190000E-8	0.003450
1.195000E-8	0.003197
1.200000E-8	0.002969
1.205000E-8	0.003222
1.210000E-8	0.003634
1.215000E-8	0.004313
1.220000E-8	0.004962
1.225000E-8	0.005653
1.230000E-8	0.006366
1.235000E-8	0.006981
1.240000E-8	0.007369
1.245000E-8	0.007559
1.250000E-8	0.007394
1.255000E-8	0.007063
1.260000E-8	0.006503
1.265000E-8	0.005950
1.270000E-8	0.005066
1.275000E-8	0.004322
1.280000E-8	0.003472
1.285000E-8	0.002859
1.290000E-8	0.002313
1.295000E-8	0.002053
1.300000E-8	0.001903
1.305000E-8	0.002181
1.310000E-8	0.002556
1.315000E-8	0.003128
1.320000E-8	0.003703
1.325000E-8	0.004569
1.330000E-8	0.005272
1.335000E-8	0.006003
1.340000E-8	0.006325
1.345000E-8	0.006450
1.350000E-8	0.006263
1.355000E-8	0.006025
1.360000E-8	0.005447
1.365000E-8	0.004822
1.370000E-8	0.004075
1.375000E-8	0.003363
1.380000E-8	0.002587
1.385000E-8	0.001909
1.390000E-8	0.001447
1.395000E-8	0.001259
1.400000E-8	0.001338
1.405000E-8	0.001678
1.410000E-8	0.002125
1.415000E-8	0.002906
1.420000E-8	0.003641
1.425000E-8	0.004456
1.430000E-8	0.005025
1.435000E-8	0.005563
1.440000E-8	0.006016
1.445000E-8	0.005962
1.450000E-8	0.005784
1.455000E-8	0.005409
1.460000E-8	0.004728
1.465000E-8	0.003863
1.470000E-8	0.003031
1.475000E-8	0.002156
1.480000E-8	0.001278
1.485000E-8	0.000844
1.490000E-8	0.000422
1.495000E-8	0.000391
1.500000E-8	0.000497
1.505000E-8	0.000894
1.510000E-8	0.001572
1.515000E-8	0.002447
1.520000E-8	0.003228
1.525000E-8	0.004091
1.530000E-8	0.004803
1.535000E-8	0.005334
1.540000E-8	0.005616
1.545000E-8	0.005547
1.550000E-8	0.005294
1.555000E-8	0.004800
1.560000E-8	0.003922
1.565000E-8	0.003091
1.570000E-8	0.002128
1.575000E-8	0.001431
1.580000E-8	0.000688
1.585000E-8	0.000263
1.590000E-8	0.000138
1.595000E-8	0.000275
1.600000E-8	0.000569
1.605000E-8	0.001084
1.610000E-8	0.001950
1.615000E-8	0.002909
1.620000E-8	0.003697
1.625000E-8	0.004425
1.630000E-8	0.004991
1.635000E-8	0.005272
1.640000E-8	0.005416
1.645000E-8	0.005397
1.650000E-8	0.004884
1.655000E-8	0.004234
1.660000E-8	0.003438
1.665000E-8	0.002616
1.670000E-8	0.001747
1.675000E-8	0.001047
1.680000E-8	0.000509
1.685000E-8	0.000175
1.690000E-8	1.875000E-5
1.695000E-8	0.000287
1.700000E-8	0.000741
1.705000E-8	0.001403
1.710000E-8	0.002241
1.715000E-8	0.003075
1.720000E-8	0.003872
1.725000E-8	0.004559
1.730000E-8	0.004884
1.735000E-8	0.005253
1.740000E-8	0.005237
1.745000E-8	0.004931
1.750000E-8	0.004313
1.755000E-8	0.003656
1.760000E-8	0.002750
1.765000E-8	0.001947
1.770000E-8	0.001075
1.775000E-8	0.000453
1.780000E-8	-0.000106
1.785000E-8	-0.000244
1.790000E-8	-0.000147
1.795000E-8	0.000131
1.800000E-8	0.000684
1.805000E-8	0.001400
1.810000E-8	0.002219
1.815000E-8	0.003022
1.820000E-8	0.003691
1.825000E-8	0.004209
1.830000E-8	0.004522
1.835000E-8	0.004563
1.840000E-8	0.004269
1.845000E-8	0.003925
1.850000E-8	0.003366
1.855000E-8	0.002747
1.860000E-8	0.001834
1.865000E-8	0.001181
1.870000E-8	0.000444
1.875000E-8	8.750000E-5
1.880000E-8	-0.000144
1.885000E-8	-0.000100
1.890000E-8	0.000213
1.895000E-8	0.000625
1.900000E-8	0.001213
1.905000E-8	0.001850
1.910000E-8	0.002541
1.915000E-8	0.003369
1.920000E-8	0.003966
1.925000E-8	0.004391
1.930000E-8	0.004613
1.935000E-8	0.004466
1.940000E-8	0.004303
1.945000E-8	0.003856
1.950000E-8	0.003291
1.955000E-8	0.002688
1.960000E-8	0.001909
1.965000E-8	0.001247
1.970000E-8	0.000684
1.975000E-8	0.000334
1.980000E-8	0.000169
1.985000E-8	0.000244
1.990000E-8	0.000497
1.995000E-8	0.000953
2.000000E-8	0.001609
2.005000E-8	0.002453
2.010000E-8	0.003238
2.015000E-8	0.003956
2.020000E-8	0.004384
2.025000E-8	0.004844
2.030000E-8	0.004794
2.035000E-8	0.004741
2.040000E-8	0.004269
2.045000E-8	0.003775
2.050000E-8	0.002997
2.055000E-8	0.002266
2.060000E-8	0.001400
2.065000E-8	0.000716
2.070000E-8	0.000191
2.075000E-8	-3.125000E-6
2.080000E-8	-3.125000E-6
2.085000E-8	7.812500E-5
2.090000E-8	0.000475
2.095000E-8	0.000966
2.100000E-8	0.001500
2.105000E-8	0.002241
2.110000E-8	0.002950
2.115000E-8	0.003544
2.120000E-8	0.003984
2.125000E-8	0.004247
2.130000E-8	0.004216
2.135000E-8	0.004022
2.140000E-8	0.003525
2.145000E-8	0.002991
2.150000E-8	0.002272
2.155000E-8	0.001528
2.160000E-8	0.000775
2.165000E-8	0.000237
2.170000E-8	-7.187500E-5
2.175000E-8	-0.000166
2.180000E-8	-0.000141
2.185000E-8	0.000244
2.190000E-8	0.000841
2.195000E-8	0.001600
2.200000E-8	0.002319
2.205000E-8	0.003059
2.210000E-8	0.003684
2.215000E-8	0.004169
2.220000E-8	0.004472
2.225000E-8	0.004534
2.230000E-8	0.004334
2.235000E-8	0.004122
2.240000E-8	0.003394
2.245000E-8	0.002716
2.250000E-8	0.002044
2.255000E-8	0.001347
2.260000E-8	0.000638
2.265000E-8	0.000181
2.270000E-8	-8.750000E-5
2.275000E-8	-6.562500E-5
2.280000E-8	0.000194
2.285000E-8	0.000609
2.290000E-8	0.001059
2.295000E-8	0.001650
2.300000E-8	0.002291
2.305000E-8	0.002916
2.310000E-8	0.003431
2.315000E-8	0.003950
2.320000E-8	0.004084
2.325000E-8	0.004100
2.330000E-8	0.003825
2.335000E-8	0.003353
2.340000E-8	0.002766
2.345000E-8	0.002063
2.350000E-8	0.001441
2.355000E-8	0.000841
2.360000E-8	0.000363
2.365000E-8	8.437500E-5
2.370000E-8	-5.625000E-5
2.375000E-8	0.000122
2.380000E-8	0.000363
2.385000E-8	0.000953
2.390000E-8	0.001631
2.395000E-8	0.002328
2.400000E-8	0.002975
2.405000E-8	0.003591
2.410000E-8	0.003969
2.415000E-8	0.004203
2.420000E-8	0.004053
2.425000E-8	0.003813
2.430000E-8	0.003419
2.435000E-8	0.002909
2.440000E-8	0.002222
2.445000E-8	0.001691
2.450000E-8	0.001000
2.455000E-8	0.000397
2.460000E-8	6.875000E-5
2.465000E-8	-0.000113
2.470000E-8	-0.000134
2.475000E-8	0.000200
2.480000E-8	0.000622
2.485000E-8	0.001181
2.490000E-8	0.001841
2.495000E-8	0.002584
2.500000E-8	0.003206
2.505000E-8	0.003675
2.510000E-8	0.003897
2.515000E-8	0.004059
2.520000E-8	0.003906
2.525000E-8	0.003522
2.530000E-8	0.003031
2.535000E-8	0.002550
2.540000E-8	0.001838
2.545000E-8	0.001184
2.550000E-8	0.000647
2.555000E-8	0.000256
2.560000E-8	-8.437500E-5
2.565000E-8	-2.500000E-5
2.570000E-8	0.000109
2.575000E-8	0.000484
2.580000E-8	0.000994
2.585000E-8	0.001566
2.590000E-8	0.002216
2.595000E-8	0.002934
2.600000E-8	0.003397
2.605000E-8	0.003881
2.610000E-8	0.004125
2.615000E-8	0.004163
2.620000E-8	0.003856
2.625000E-8	0.003538
2.630000E-8	0.002991
2.635000E-8	0.002300
2.640000E-8	0.001569
2.645000E-8	0.001044
2.650000E-8	0.000500
2.655000E-8	0.000113
2.660000E-8	-0.000216
2.665000E-8	-0.000216
2.670000E-8	-7.500000E-5
2.675000E-8	0.000366
2.680000E-8	0.000884
2.685000E-8	0.001594
2.690000E-8	0.002156
2.695000E-8	0.002784
2.700000E-8	0.003306
2.705000E-8	0.003775
2.710000E-8	0.003922
2.715000E-8	0.003872
2.720000E-8	0.003584
2.725000E-8	0.003247
2.730000E-8	0.002675
2.735000E-8	0.002144
2.740000E-8	0.001403
2.745000E-8	0.000788
2.750000E-8	0.000228
2.755000E-8	0.000159
2.760000E-8	6.875000E-5
2.765000E-8	0.000128
2.770000E-8	0.000450
2.775000E-8	0.000822
2.780000E-8	0.001472
2.785000E-8	0.002128
2.790000E-8	0.002672
2.795000E-8	0.003172
2.800000E-8	0.003428
2.805000E-8	0.003700
2.810000E-8	0.003706
2.815000E-8	0.003672
2.820000E-8	0.003275
2.825000E-8	0.002941
2.830000E-8	0.002350
2.835000E-8	0.001834
2.840000E-8	0.001256
2.845000E-8	0.000916
2.850000E-8	0.000619
2.855000E-8	0.000434
2.860000E-8	0.000488
2.865000E-8	0.000681
2.870000E-8	0.001081
2.875000E-8	0.001469
2.880000E-8	0.002053
2.885000E-8	0.002616
2.890000E-8	0.003019
2.895000E-8	0.003466
2.900000E-8	0.003728
2.905000E-8	0.003962
2.910000E-8	0.003813
2.915000E-8	0.003534
2.920000E-8	0.003113
2.925000E-8	0.002688
2.930000E-8	0.002116
2.935000E-8	0.001541
2.940000E-8	0.001016
2.945000E-8	0.000653
2.950000E-8	0.000391
2.955000E-8	0.000403
2.960000E-8	0.000344
2.965000E-8	0.000713
2.970000E-8	0.000959
2.975000E-8	0.001619
2.980000E-8	0.002153
2.985000E-8	0.002759
2.990000E-8	0.003219
2.995000E-8	0.003578
3.000000E-8	0.003838
3.005000E-8	0.003922
3.010000E-8	0.003847
3.015000E-8	0.003484
3.020000E-8	0.003028
3.025000E-8	0.002500
3.030000E-8	0.001947
3.035000E-8	0.001494
3.040000E-8	0.001034
3.045000E-8	0.000666
3.050000E-8	0.000506
3.055000E-8	0.000528
3.060000E-8	0.000681
3.065000E-8	0.001012
3.070000E-8	0.001341
3.075000E-8	0.001872
3.080000E-8	0.002372
3.085000E-8	0.002956
3.090000E-8	0.003216
3.095000E-8	0.003512
3.100000E-8	0.003531
3.105000E-8	0.003531
3.110000E-8	0.003206
3.115000E-8	0.002909
3.120000E-8	0.002388
3.125000E-8	0.001884
3.130000E-8	0.001400
3.135000E-8	0.000969
3.140000E-8	0.000563
3.145000E-8	0.000306
3.150000E-8	0.000338
3.155000E-8	0.000453
3.160000E-8	0.000719
3.165000E-8	0.001213
3.170000E-8	0.001625
3.175000E-8	0.002278
3.180000E-8	0.002713
3.185000E-8	0.003263
3.190000E-8	0.003478
3.195000E-8	0.003631
3.200000E-8	0.003622
3.205000E-8	0.003434
3.210000E-8	0.002969
3.215000E-8	0.002587
3.220000E-8	0.002113
3.225000E-8	0.001538
3.230000E-8	0.001081
3.235000E-8	0.000703
3.240000E-8	0.000419
3.245000E-8	0.000400
3.250000E-8	0.000463
3.255000E-8	0.000728
3.260000E-8	0.001094
3.265000E-8	0.001616
3.270000E-8	0.002128
3.275000E-8	0.002628
3.280000E-8	0.003091
3.285000E-8	0.003463
3.290000E-8	0.003703
3.295000E-8	0.003731
3.300000E-8	0.003466
3.305000E-8	0.003122
3.310000E-8	0.002806
3.315000E-8	0.002347
3.320000E-8	0.001906
3.325000E-8	0.001584
3.330000E-8	0.001141
3.335000E-8	0.000875
3.340000E-8	0.000678
3.345000E-8	0.000750
3.350000E-8	0.000794
3.355000E-8	0.001078
3.360000E-8	0.001394
3.365000E-8	0.001937
3.370000E-8	0.002437
3.375000E-8	0.002788
3.380000E-8	0.003094
3.385000E-8	0.003259
3.390000E-8	0.003403
3.395000E-8	0.003428
3.400000E-8	0.003313
3.405000E-8	0.003012
3.410000E-8	0.002525
3.415000E-8	0.002213
3.420000E-8	0.001713
3.425000E-8	0.001394
3.430000E-8	0.000925
3.435000E-8	0.000769
3.440000E-8	0.000588
3.445000E-8	0.000612
3.450000E-8	0.000841
3.455000E-8	0.001181
3.460000E-8	0.001500
3.465000E-8	0.001884
3.470000E-8	0.002184
3.475000E-8	0.002684
3.480000E-8	0.002944
3.485000E-8	0.003063
3.490000E-8	0.003022
3.495000E-8	0.002941
3.500000E-8	0.002781
3.505000E-8	0.002703
3.510000E-8	0.002278
3.515000E-8	0.001969
3.520000E-8	0.001441
3.525000E-8	0.001069
3.530000E-8	0.000778
3.535000E-8	0.000634
3.540000E-8	0.000488
3.545000E-8	0.000556
3.550000E-8	0.000709
3.555000E-8	0.001063
3.560000E-8	0.001403
3.565000E-8	0.001734
3.570000E-8	0.002147
3.575000E-8	0.002525
3.580000E-8	0.002784
3.585000E-8	0.002906
3.590000E-8	0.002972
3.595000E-8	0.002888
3.600000E-8	0.002694
3.605000E-8	0.002503
3.610000E-8	0.002134
3.615000E-8	0.001738
3.620000E-8	0.001263
3.625000E-8	0.000894
3.630000E-8	0.000612
3.635000E-8	0.000494
3.640000E-8	0.000491
3.645000E-8	0.000753
3.650000E-8	0.001000
3.655000E-8	0.001362
3.660000E-8	0.001725
3.665000E-8	0.002209
3.670000E-8	0.002634
3.675000E-8	0.003081
3.680000E-8	0.003241
3.685000E-8	0.003419
3.690000E-8	0.003403
3.695000E-8	0.003309
3.700000E-8	0.003056
3.705000E-8	0.002700
3.710000E-8	0.002213
3.715000E-8	0.001700
3.720000E-8	0.001197
3.725000E-8	0.000769
3.730000E-8	0.000453
3.735000E-8	0.000419
3.740000E-8	0.000519
3.745000E-8	0.000838
3.750000E-8	0.001100
3.755000E-8	0.001588
3.760000E-8	0.002150
3.765000E-8	0.002550
3.770000E-8	0.002909
3.775000E-8	0.003234
3.780000E-8	0.003394
3.785000E-8	0.003475
3.790000E-8	0.003381
3.795000E-8	0.003172
3.800000E-8	0.002713
3.805000E-8	0.002344
3.810000E-8	0.001819
3.815000E-8	0.001469
3.820000E-8	0.001156
3.825000E-8	0.000900
3.830000E-8	0.000753
3.835000E-8	0.000941
3.840000E-8	0.001044
3.845000E-8	0.001409
3.850000E-8	0.001791
3.855000E-8	0.002334
3.860000E-8	0.002684
3.865000E-8	0.003087
3.870000E-8	0.003284
3.875000E-8	0.003581
3.880000E-8	0.003481
3.885000E-8	0.003419
3.890000E-8	0.003169
3.895000E-8	0.002825
3.900000E-8	0.002316
3.905000E-8	0.001937
3.910000E-8	0.001563
3.915000E-8	0.001172
3.920000E-8	0.000994
3.925000E-8	0.000806
3.930000E-8	0.000763
3.935000E-8	0.000991
3.940000E-8	0.001241
3.945000E-8	0.001678
3.950000E-8	0.002066
3.955000E-8	0.002388
3.960000E-8	0.002806
3.965000E-8	0.003125
3.970000E-8	0.003256
3.975000E-8	0.003434
3.980000E-8	0.003375
3.985000E-8	0.003213
3.990000E-8	0.002963
3.995000E-8	0.002534
4.000000E-8	0.002206
4.005000E-8	0.001903
4.010000E-8	0.001594
4.015000E-8	0.001434
4.020000E-8	0.001247
4.025000E-8	0.001187
4.030000E-8	0.001313
4.035000E-8	0.001622
4.040000E-8	0.001769
4.045000E-8	0.002131
4.050000E-8	0.002366
4.055000E-8	0.002744
4.060000E-8	0.002916
4.065000E-8	0.003162
4.070000E-8	0.003294
4.075000E-8	0.003475
4.080000E-8	0.003225
4.085000E-8	0.003194
4.090000E-8	0.002909
4.095000E-8	0.002709
4.100000E-8	0.002313
4.105000E-8	0.002028
4.110000E-8	0.001753
4.115000E-8	0.001416
4.120000E-8	0.001272
4.125000E-8	0.001088
4.130000E-8	0.001066
4.135000E-8	0.001187
4.140000E-8	0.001213
4.145000E-8	0.001559
4.150000E-8	0.001869
4.155000E-8	0.002200
4.160000E-8	0.002528
4.165000E-8	0.002916
4.170000E-8	0.003169
4.175000E-8	0.003400
4.180000E-8	0.003281
4.185000E-8	0.003072
4.190000E-8	0.002725
4.195000E-8	0.002437
4.200000E-8	0.002009
4.205000E-8	0.001687
4.210000E-8	0.001281
4.215000E-8	0.001131
4.220000E-8	0.000997
4.225000E-8	0.000938
4.230000E-8	0.001128
4.235000E-8	0.001409
4.240000E-8	0.001741
4.245000E-8	0.002078
4.250000E-8	0.002406
4.255000E-8	0.002878
4.260000E-8	0.003031
4.265000E-8	0.003203
4.270000E-8	0.003241
4.275000E-8	0.003216
4.280000E-8	0.002956
4.285000E-8	0.002734
4.290000E-8	0.002428
4.295000E-8	0.002066
4.300000E-8	0.001663
4.305000E-8	0.001475
4.310000E-8	0.001191
4.315000E-8	0.001072
4.320000E-8	0.001034
4.325000E-8	0.001050
4.330000E-8	0.001209
4.335000E-8	0.001416
4.340000E-8	0.001663
4.345000E-8	0.002022
4.350000E-8	0.002213
4.355000E-8	0.002516
4.360000E-8	0.002769
4.365000E-8	0.002972
4.370000E-8	0.003100
4.375000E-8	0.003150
4.380000E-8	0.003025
4.385000E-8	0.002872
4.390000E-8	0.002575
4.395000E-8	0.002247
4.400000E-8	0.001903
4.405000E-8	0.001622
4.410000E-8	0.001291
4.415000E-8	0.001122
4.420000E-8	0.001012
4.425000E-8	0.001147
4.430000E-8	0.001344
4.435000E-8	0.001528
4.440000E-8	0.001791
4.445000E-8	0.002175
4.450000E-8	0.002469
4.455000E-8	0.002769
4.460000E-8	0.002803
4.465000E-8	0.002878
4.470000E-8	0.002838
4.475000E-8	0.002781
4.480000E-8	0.002634
4.485000E-8	0.002388
4.490000E-8	0.002000
4.495000E-8	0.001747
4.500000E-8	0.001450
4.505000E-8	0.001300
4.510000E-8	0.001216
4.515000E-8	0.001172
4.520000E-8	0.001084
4.525000E-8	0.001278
4.530000E-8	0.001494
4.535000E-8	0.001700
4.540000E-8	0.001916
4.545000E-8	0.002216
4.550000E-8	0.002309
4.555000E-8	0.002631
4.560000E-8	0.002584
4.565000E-8	0.002616
4.570000E-8	0.002447
4.575000E-8	0.002309
4.580000E-8	0.002097
4.585000E-8	0.001856
4.590000E-8	0.001663
4.595000E-8	0.001513
4.600000E-8	0.001288
4.605000E-8	0.001225
4.610000E-8	0.001091
4.615000E-8	0.001063
4.620000E-8	0.001178
4.625000E-8	0.001375
4.630000E-8	0.001631
4.635000E-8	0.001919
4.640000E-8	0.002138
4.645000E-8	0.002466
4.650000E-8	0.002644
4.655000E-8	0.002828
4.660000E-8	0.002919
4.665000E-8	0.002963
4.670000E-8	0.002803
4.675000E-8	0.002669
4.680000E-8	0.002534
4.685000E-8	0.002353
4.690000E-8	0.002025
4.695000E-8	0.001775
4.700000E-8	0.001525
4.705000E-8	0.001394
4.710000E-8	0.001306
4.715000E-8	0.001297
4.720000E-8	0.001288
4.725000E-8	0.001488
4.730000E-8	0.001697
4.735000E-8	0.002100
4.740000E-8	0.002203
4.745000E-8	0.002531
4.750000E-8	0.002716
4.755000E-8	0.002744
4.760000E-8	0.002781
4.765000E-8	0.002916
4.770000E-8	0.002625
4.775000E-8	0.002463
4.780000E-8	0.002169
4.785000E-8	0.002012
4.790000E-8	0.001638
4.795000E-8	0.001478
4.800000E-8	0.001303
4.805000E-8	0.001269
4.810000E-8	0.001181
4.815000E-8	0.001369
4.820000E-8	0.001434
4.825000E-8	0.001700
4.830000E-8	0.001953
4.835000E-8	0.002375
4.840000E-8	0.002503
4.845000E-8	0.002641
4.850000E-8	0.002691
4.855000E-8	0.002731
4.860000E-8	0.002644
4.865000E-8	0.002441
4.870000E-8	0.002241
4.875000E-8	0.002084
4.880000E-8	0.001813
4.885000E-8	0.001503
4.890000E-8	0.001222
4.895000E-8	0.001103
4.900000E-8	0.000947
4.905000E-8	0.000906
4.910000E-8	0.000897
4.915000E-8	0.001088
4.920000E-8	0.001213
4.925000E-8	0.001541
4.930000E-8	0.001703
4.935000E-8	0.002047
4.940000E-8	0.002284
4.945000E-8	0.002503
4.950000E-8	0.002587
4.955000E-8	0.002591
4.960000E-8	0.002550
4.965000E-8	0.002409
4.970000E-8	0.002275
4.975000E-8	0.001928
4.980000E-8	0.001772
4.985000E-8	0.001578
4.990000E-8	0.001319
4.995000E-8	0.001306
5.000000E-8	0.001288
5.005000E-8	0.001394
5.010000E-8	0.001441
5.015000E-8	0.001513
5.020000E-8	0.001703
5.025000E-8	0.001934
5.030000E-8	0.002125
5.035000E-8	0.002356
5.040000E-8	0.002434
5.045000E-8	0.002613
5.050000E-8	0.002697
5.055000E-8	0.002775
5.060000E-8	0.002644
5.065000E-8	0.002556
5.070000E-8	0.002350
5.075000E-8	0.002122
5.080000E-8	0.001931
5.085000E-8	0.001725
5.090000E-8	0.001366
5.095000E-8	0.001334
5.100000E-8	0.001159
5.105000E-8	0.001150
5.110000E-8	0.001150
5.115000E-8	0.001406
5.120000E-8	0.001528
5.125000E-8	0.001763
5.130000E-8	0.002047
5.135000E-8	0.002391
5.140000E-8	0.002434
5.145000E-8	0.002700
5.150000E-8	0.002713
5.155000E-8	0.002756
5.160000E-8	0.002566
5.165000E-8	0.002444
5.170000E-8	0.002172
5.175000E-8	0.001956
5.180000E-8	0.001666
5.185000E-8	0.001472
5.190000E-8	0.001397
5.195000E-8	0.001338
5.200000E-8	0.001362
5.205000E-8	0.001369
5.210000E-8	0.001378
5.215000E-8	0.001722
5.220000E-8	0.001844
5.225000E-8	0.002022
5.230000E-8	0.002272
5.235000E-8	0.002491
5.240000E-8	0.002603
5.245000E-8	0.002622
5.250000E-8	0.002556
5.255000E-8	0.002531
5.260000E-8	0.002375
5.265000E-8	0.002216
5.270000E-8	0.001916
5.275000E-8	0.001728
5.280000E-8	0.001581
5.285000E-8	0.001375
5.290000E-8	0.001375
5.295000E-8	0.001366
5.300000E-8	0.001394
5.305000E-8	0.001594
5.310000E-8	0.001713
5.315000E-8	0.001997
5.320000E-8	0.002162
5.325000E-8	0.002284
5.330000E-8	0.002303
5.335000E-8	0.002569
5.340000E-8	0.002516
5.345000E-8	0.002491
5.350000E-8	0.002447
5.355000E-8	0.002303
5.360000E-8	0.002200
5.365000E-8	0.002138
5.370000E-8	0.001869
5.375000E-8	0.001825
5.380000E-8	0.001703
5.385000E-8	0.001494
5.390000E-8	0.001366
5.395000E-8	0.001444
5.400000E-8	0.001484
5.405000E-8	0.001672
5.410000E-8	0.001653
5.415000E-8	0.001972
5.420000E-8	0.002175
5.425000E-8	0.002344
5.430000E-8	0.002481
5.435000E-8	0.002781
5.440000E-8	0.002734
5.445000E-8	0.002775
5.450000E-8	0.002619
5.455000E-8	0.002444
5.460000E-8	0.002184
5.465000E-8	0.001909
5.470000E-8	0.001694
5.475000E-8	0.001431
5.480000E-8	0.001322
5.485000E-8	0.001222
5.490000E-8	0.001141
5.495000E-8	0.001250
5.500000E-8	0.001344
5.505000E-8	0.001541
5.510000E-8	0.001763
5.515000E-8	0.001897
5.520000E-8	0.002012
5.525000E-8	0.002225
5.530000E-8	0.002356
5.535000E-8	0.002466
5.540000E-8	0.002525
5.545000E-8	0.002444
5.550000E-8	0.002281
5.555000E-8	0.002147
5.560000E-8	0.002044
5.565000E-8	0.001869
5.570000E-8	0.001684
5.575000E-8	0.001516
5.580000E-8	0.001378
5.585000E-8	0.001309
5.590000E-8	0.001231
5.595000E-8	0.001303
5.600000E-8	0.001362
5.605000E-8	0.001538
5.610000E-8	0.001594
5.615000E-8	0.001803
5.620000E-8	0.001969
5.625000E-8	0.002006
5.630000E-8	0.002097
5.635000E-8	0.002178
5.640000E-8	0.002109
5.645000E-8	0.002087
5.650000E-8	0.001937
5.655000E-8	0.001816
5.660000E-8	0.001581
5.665000E-8	0.001528
5.670000E-8	0.001369
5.675000E-8	0.001344
5.680000E-8	0.001072
5.685000E-8	0.001184
5.690000E-8	0.001319
5.695000E-8	0.001350
5.700000E-8	0.001406
5.705000E-8	0.001553
5.710000E-8	0.001619
5.715000E-8	0.001850
5.720000E-8	0.002000
5.725000E-8	0.002244
5.730000E-8	0.002363
5.735000E-8	0.002463
5.740000E-8	0.002484
5.745000E-8	0.002422
5.750000E-8	0.002328
5.755000E-8	0.002228
5.760000E-8	0.001984
5.765000E-8	0.001763
5.770000E-8	0.001566
5.775000E-8	0.001509
5.780000E-8	0.001419
5.785000E-8	0.001506
5.790000E-8	0.001544
5.795000E-8	0.001753
5.800000E-8	0.001884
5.805000E-8	0.002097
5.810000E-8	0.002316
5.815000E-8	0.002550
5.820000E-8	0.002634
5.825000E-8	0.002719
5.830000E-8	0.002800
5.835000E-8	0.002681
5.840000E-8	0.002531
5.845000E-8	0.002431
5.850000E-8	0.002178
5.855000E-8	0.001944
5.860000E-8	0.001684
5.865000E-8	0.001466
5.870000E-8	0.001350
5.875000E-8	0.001281
5.880000E-8	0.001191
5.885000E-8	0.001366
5.890000E-8	0.001322
5.895000E-8	0.001488
5.900000E-8	0.001687
5.905000E-8	0.001931
5.910000E-8	0.002122
5.915000E-8	0.002275
5.920000E-8	0.002334
5.925000E-8	0.002403
5.930000E-8	0.002381
5.935000E-8	0.002388
5.940000E-8	0.002284
5.945000E-8	0.002275
5.950000E-8	0.002050
5.955000E-8	0.001828
5.960000E-8	0.001491
5.965000E-8	0.001372
5.970000E-8	0.001263
5.975000E-8	0.001219
5.980000E-8	0.001231
5.985000E-8	0.001375
5.990000E-8	0.001503
5.995000E-8	0.001731
6.000000E-8	0.001894
6.005000E-8	0.002138
6.010000E-8	0.002331
6.015000E-8	0.002444
6.020000E-8	0.002531
6.025000E-8	0.002603
6.030000E-8	0.002437
6.035000E-8	0.002434
6.040000E-8	0.002338
6.045000E-8	0.002266
6.050000E-8	0.002044
6.055000E-8	0.001869
6.060000E-8	0.001763
6.065000E-8	0.001744
6.070000E-8	0.001716
6.075000E-8	0.001694
6.080000E-8	0.001619
6.085000E-8	0.001744
6.090000E-8	0.001744
6.095000E-8	0.001881
6.100000E-8	0.002056
6.105000E-8	0.002203
6.110000E-8	0.002306
6.115000E-8	0.002406
6.120000E-8	0.002475
6.125000E-8	0.002503
6.130000E-8	0.002328
6.135000E-8	0.002219
6.140000E-8	0.002131
6.145000E-8	0.002116
6.150000E-8	0.001800
6.155000E-8	0.001763
6.160000E-8	0.001591
6.165000E-8	0.001547
6.170000E-8	0.001369
6.175000E-8	0.001437
6.180000E-8	0.001413
6.185000E-8	0.001397
6.190000E-8	0.001616
6.195000E-8	0.001766
6.200000E-8	0.001806
6.205000E-8	0.002103
6.210000E-8	0.002209
6.215000E-8	0.002366
6.220000E-8	0.002347
6.225000E-8	0.002331
6.230000E-8	0.002325
6.235000E-8	0.002197
6.240000E-8	0.002059
6.245000E-8	0.001875
6.250000E-8	0.001781
6.255000E-8	0.001509
6.260000E-8	0.001456
6.265000E-8	0.001409
6.270000E-8	0.001328
6.275000E-8	0.001350
6.280000E-8	0.001356
6.285000E-8	0.001472
6.290000E-8	0.001556
6.295000E-8	0.001747
6.300000E-8	0.001816
6.305000E-8	0.002084
6.310000E-8	0.002191
6.315000E-8	0.002328
6.320000E-8	0.002388
6.325000E-8	0.002453
6.330000E-8	0.002253
6.335000E-8	0.002272
6.340000E-8	0.002256
6.345000E-8	0.002228
6.350000E-8	0.002103
6.355000E-8	0.002012
6.360000E-8	0.001897
6.365000E-8	0.002006
6.370000E-8	0.001806
6.375000E-8	0.001791
6.380000E-8	0.001750
6.385000E-8	0.001888
6.390000E-8	0.001722
6.395000E-8	0.001934
6.400000E-8	0.002028
6.405000E-8	0.002128
6.410000E-8	0.002175
6.415000E-8	0.002278
6.420000E-8	0.002325
6.425000E-8	0.002325
6.430000E-8	0.002303
6.435000E-8	0.002325
6.440000E-8	0.002322
6.445000E-8	0.002263
6.450000E-8	0.002041
6.455000E-8	0.001934
6.460000E-8	0.001847
6.465000E-8	0.001697
6.470000E-8	0.001553
6.475000E-8	0.001538
6.480000E-8	0.001534
6.485000E-8	0.001578
6.490000E-8	0.001628
6.495000E-8	0.001747
6.500000E-8	0.001687
6.505000E-8	0.001794
6.510000E-8	0.001922
6.515000E-8	0.002066
6.520000E-8	0.001975
6.525000E-8	0.002022
6.530000E-8	0.001969
6.535000E-8	0.001972
6.540000E-8	0.001947
6.545000E-8	0.001809
6.550000E-8	0.001766
6.555000E-8	0.001756
6.560000E-8	0.001691
6.565000E-8	0.001634
6.570000E-8	0.001603
6.575000E-8	0.001722
6.580000E-8	0.001731
6.585000E-8	0.001909
6.590000E-8	0.001956
6.595000E-8	0.002106
6.600000E-8	0.002147
6.605000E-8	0.002253
6.610000E-8	0.002275
6.615000E-8	0.002297
6.620000E-8	0.002263
6.625000E-8	0.002381
6.630000E-8	0.002213
6.635000E-8	0.002181
6.640000E-8	0.001969
6.645000E-8	0.001897
6.650000E-8	0.001919
6.655000E-8	0.001859
6.660000E-8	0.001625
6.665000E-8	0.001728
6.670000E-8	0.001741
6.675000E-8	0.001825
6.680000E-8	0.001947
6.685000E-8	0.002053
6.690000E-8	0.002094
6.695000E-8	0.002300
6.700000E-8	0.002359
6.705000E-8	0.002425
6.710000E-8	0.002422
6.715000E-8	0.002478
6.720000E-8	0.002388
6.725000E-8	0.002294
6.730000E-8	0.002125
6.735000E-8	0.002041
6.740000E-8	0.001906
6.745000E-8	0.001734
6.750000E-8	0.001544
6.755000E-8	0.001619
6.760000E-8	0.001541
6.765000E-8	0.001625
6.770000E-8	0.001634
6.775000E-8	0.001778
6.780000E-8	0.001844
6.785000E-8	0.001891
6.790000E-8	0.001900
6.795000E-8	0.001909
6.800000E-8	0.001813
6.805000E-8	0.001772
6.810000E-8	0.001772
6.815000E-8	0.001772
6.820000E-8	0.001722
6.825000E-8	0.001709
6.830000E-8	0.001681
6.835000E-8	0.001681
6.840000E-8	0.001641
6.845000E-8	0.001588
6.850000E-8	0.001531
6.855000E-8	0.001572
6.860000E-8	0.001619
6.865000E-8	0.001734
6.870000E-8	0.001803
6.875000E-8	0.001909
6.880000E-8	0.002066
6.885000E-8	0.002156
6.890000E-8	0.002322
6.895000E-8	0.002419
6.900000E-8	0.002472
6.905000E-8	0.002500
6.910000E-8	0.002453
6.915000E-8	0.002463
6.920000E-8	0.002259
6.925000E-8	0.002237
6.930000E-8	0.002094
6.935000E-8	0.001972
6.940000E-8	0.001759
6.945000E-8	0.001741
6.950000E-8	0.001625
6.955000E-8	0.001638
6.960000E-8	0.001719
6.965000E-8	0.001775
6.970000E-8	0.001925
6.975000E-8	0.001991
6.980000E-8	0.002016
6.985000E-8	0.002063
6.990000E-8	0.002075
6.995000E-8	0.002231
7.000000E-8	0.002175
7.005000E-8	0.002119
7.010000E-8	0.002038
7.015000E-8	0.001978
7.020000E-8	0.001781
7.025000E-8	0.001781
7.030000E-8	0.001744
7.035000E-8	0.001784
7.040000E-8	0.001706
7.045000E-8	0.001700
7.050000E-8	0.001775
7.055000E-8	0.001847
7.060000E-8	0.001934
7.065000E-8	0.002081
7.070000E-8	0.002200
7.075000E-8	0.002203
7.080000E-8	0.002203
7.085000E-8	0.002350
7.090000E-8	0.002184
7.095000E-8	0.002213
7.100000E-8	0.002213
7.105000E-8	0.002234
7.110000E-8	0.002138
7.115000E-8	0.002156
7.120000E-8	0.001997
7.125000E-8	0.001838
7.130000E-8	0.001875
7.135000E-8	0.001803
7.140000E-8	0.001641
7.145000E-8	0.001550
7.150000E-8	0.001644
7.155000E-8	0.001594
7.160000E-8	0.001684
7.165000E-8	0.001850
7.170000E-8	0.001972
7.175000E-8	0.002125
7.180000E-8	0.002184
7.185000E-8	0.002319
7.190000E-8	0.002456
7.195000E-8	0.002534
7.200000E-8	0.002453
7.205000E-8	0.002556
7.210000E-8	0.002322
7.215000E-8	0.002322
7.220000E-8	0.002094
7.225000E-8	0.002059
7.230000E-8	0.001900
7.235000E-8	0.001844
7.240000E-8	0.001834
7.245000E-8	0.001859
7.250000E-8	0.001697
7.255000E-8	0.001766
7.260000E-8	0.001853
7.265000E-8	0.001816
7.270000E-8	0.001884
7.275000E-8	0.002000
7.280000E-8	0.002128
7.285000E-8	0.002250
7.290000E-8	0.002209
7.295000E-8	0.002275
7.300000E-8	0.002278
7.305000E-8	0.002091
7.310000E-8	0.001975
7.315000E-8	0.001869
7.320000E-8	0.001709
7.325000E-8	0.001791
7.330000E-8	0.001644
7.335000E-8	0.001569
7.340000E-8	0.001478
7.345000E-8	0.001553
7.350000E-8	0.001609
7.355000E-8	0.001756
7.360000E-8	0.001806
7.365000E-8	0.001884
7.370000E-8	0.002019
7.375000E-8	0.002209
7.380000E-8	0.002166
7.385000E-8	0.002181
7.390000E-8	0.002125
7.395000E-8	0.002128
7.400000E-8	0.002031
7.405000E-8	0.002109
7.410000E-8	0.001984
7.415000E-8	0.001838
7.420000E-8	0.001856
7.425000E-8	0.001822
7.430000E-8	0.001831
7.435000E-8	0.001963
7.440000E-8	0.001888
7.445000E-8	0.002031
7.450000E-8	0.002031
7.455000E-8	0.002178
7.460000E-8	0.002284
7.465000E-8	0.002375
7.470000E-8	0.002403
7.475000E-8	0.002459
7.480000E-8	0.002494
7.485000E-8	0.002453
7.490000E-8	0.002428
7.495000E-8	0.002394
7.500000E-8	0.002294
7.505000E-8	0.002178
7.510000E-8	0.002144
7.515000E-8	0.002028
7.520000E-8	0.001847
7.525000E-8	0.001791
7.530000E-8	0.001759
7.535000E-8	0.001856
7.540000E-8	0.001916
7.545000E-8	0.001988
7.550000E-8	0.002050
7.555000E-8	0.002081
7.560000E-8	0.002172
7.565000E-8	0.002191
7.570000E-8	0.002266
7.575000E-8	0.002450
7.580000E-8	0.002319
7.585000E-8	0.002272
7.590000E-8	0.002138
7.595000E-8	0.002041
7.600000E-8	0.001956
7.605000E-8	0.001916
7.610000E-8	0.001788
7.615000E-8	0.001778
7.620000E-8	0.001713
7.625000E-8	0.001678
7.630000E-8	0.001675
7.635000E-8	0.001753
7.640000E-8	0.001809
7.645000E-8	0.001856
7.650000E-8	0.002016
7.655000E-8	0.002141
7.660000E-8	0.002203
7.665000E-8	0.002184
7.670000E-8	0.002213
7.675000E-8	0.002291
7.680000E-8	0.002275
7.685000E-8	0.002216
7.690000E-8	0.002200
7.695000E-8	0.002213
7.700000E-8	0.001994
7.705000E-8	0.001863
7.710000E-8	0.001806
7.715000E-8	0.001728
7.720000E-8	0.001663
7.725000E-8	0.001653
7.730000E-8	0.001622
7.735000E-8	0.001666
7.740000E-8	0.001916
7.745000E-8	0.001966
7.750000E-8	0.002072
7.755000E-8	0.002144
7.760000E-8	0.002169
7.765000E-8	0.002216
7.770000E-8	0.002216
7.775000E-8	0.002322
7.780000E-8	0.002200
7.785000E-8	0.002197
7.790000E-8	0.002197
7.795000E-8	0.002169
7.800000E-8	0.002087
7.805000E-8	0.002072
7.810000E-8	0.001991
7.815000E-8	0.001913
7.820000E-8	0.001863
7.825000E-8	0.001859
7.830000E-8	0.001838
7.835000E-8	0.001891
7.840000E-8	0.001850
7.845000E-8	0.001953
7.850000E-8	0.001931
7.855000E-8	0.001947
7.860000E-8	0.001903
7.865000E-8	0.002000
7.870000E-8	0.001966
7.875000E-8	0.002106
7.880000E-8	0.002150
7.885000E-8	0.002138
7.890000E-8	0.002128
7.895000E-8	0.002159
7.900000E-8	0.002178
7.905000E-8	0.002159
7.910000E-8	0.002184
7.915000E-8	0.002016
7.920000E-8	0.001847
7.925000E-8	0.001888
7.930000E-8	0.001903
7.935000E-8	0.001966
7.940000E-8	0.002019
7.945000E-8	0.002094
7.950000E-8	0.002069
7.955000E-8	0.002216
7.960000E-8	0.002272
7.965000E-8	0.002216
7.970000E-8	0.002225
7.975000E-8	0.002278
7.980000E-8	0.002237
7.985000E-8	0.002228
7.990000E-8	0.002175
7.995000E-8	0.002141
8.000000E-8	0.002047
8.005000E-8	0.002059
8.010000E-8	0.001934
8.015000E-8	0.001853
8.020000E-8	0.001872
8.025000E-8	0.001859
8.030000E-8	0.001825
8.035000E-8	0.001819
8.040000E-8	0.001875
8.045000E-8	0.002000
8.050000E-8	0.002147
8.055000E-8	0.002188
8.060000E-8	0.002275
8.065000E-8	0.002450
8.070000E-8	0.002463
8.075000E-8	0.002484
8.080000E-8	0.002434
8.085000E-8	0.002378
8.090000E-8	0.002244
8.095000E-8	0.002191
8.100000E-8	0.002100
8.105000E-8	0.002003
8.110000E-8	0.001834
8.115000E-8	0.001844
8.120000E-8	0.001784
8.125000E-8	0.001775
8.130000E-8	0.001806
8.135000E-8	0.001931
8.140000E-8	0.001884
8.145000E-8	0.001966
8.150000E-8	0.002044
8.155000E-8	0.002244
8.160000E-8	0.002166
8.165000E-8	0.002244
8.170000E-8	0.002328
8.175000E-8	0.002406
8.180000E-8	0.002378
8.185000E-8	0.002269
8.190000E-8	0.002122
8.195000E-8	0.002022
8.200000E-8	0.001806
8.205000E-8	0.001853
8.210000E-8	0.001925
8.215000E-8	0.001716
8.220000E-8	0.001669
8.225000E-8	0.001759
8.230000E-8	0.001775
8.235000E-8	0.001909
8.240000E-8	0.001919
8.245000E-8	0.001913
8.250000E-8	0.001981
8.255000E-8	0.001981
8.260000E-8	0.002016
8.265000E-8	0.002122
8.270000E-8	0.002106
8.275000E-8	0.002113
8.280000E-8	0.001994
8.285000E-8	0.001944
8.290000E-8	0.001931
8.295000E-8	0.001878
8.300000E-8	0.001813
8.305000E-8	0.001813
8.310000E-8	0.001791
8.315000E-8	0.001916
8.320000E-8	0.001897
8.325000E-8	0.002031
8.330000E-8	0.002147
8.335000E-8	0.002091
8.340000E-8	0.002269
8.345000E-8	0.002372
8.350000E-8	0.002381
8.355000E-8	0.002363
8.360000E-8	0.002269
8.365000E-8	0.002156
8.370000E-8	0.002091
8.375000E-8	0.002044
8.380000E-8	0.002044
8.385000E-8	0.001931
8.390000E-8	0.001863
8.395000E-8	0.001919
8.400000E-8	0.001744
8.405000E-8	0.001947
8.410000E-8	0.001972
8.415000E-8	0.001988
8.420000E-8	0.001981
8.425000E-8	0.001922
8.430000E-8	0.001988
8.435000E-8	0.001997
8.440000E-8	0.001956
8.445000E-8	0.002028
8.450000E-8	0.002022
8.455000E-8	0.002084
8.460000E-8	0.002138
8.465000E-8	0.002178
8.470000E-8	0.002153
8.475000E-8	0.002150
8.480000E-8	0.002016
8.485000E-8	0.001969
8.490000E-8	0.001872
8.495000E-8	0.001913
8.500000E-8	0.001797
8.505000E-8	0.001888
8.510000E-8	0.001831
8.515000E-8	0.001916
8.520000E-8	0.001828
8.525000E-8	0.001863
8.530000E-8	0.001738
8.535000E-8	0.001859
8.540000E-8	0.001697
8.545000E-8	0.001722
8.550000E-8	0.001709
8.555000E-8	0.001819
8.560000E-8	0.001875
8.565000E-8	0.001909
8.570000E-8	0.001875
8.575000E-8	0.001922
8.580000E-8	0.001763
8.585000E-8	0.001844
8.590000E-8	0.001844
8.595000E-8	0.001903
8.600000E-8	0.001891
8.605000E-8	0.001928
8.610000E-8	0.001853
8.615000E-8	0.001975
8.620000E-8	0.002041
8.625000E-8	0.002125
8.630000E-8	0.001988
8.635000E-8	0.001997
8.640000E-8	0.002009
8.645000E-8	0.002125
8.650000E-8	0.002147
8.655000E-8	0.002159
8.660000E-8	0.002041
8.665000E-8	0.002141
8.670000E-8	0.002100
8.675000E-8	0.002109
8.680000E-8	0.002119
8.685000E-8	0.002178
8.690000E-8	0.002072
8.695000E-8	0.002169
8.700000E-8	0.002041
8.705000E-8	0.002031
8.710000E-8	0.001944
8.715000E-8	0.001819
8.720000E-8	0.001800
8.725000E-8	0.001797
8.730000E-8	0.001775
8.735000E-8	0.001759
8.740000E-8	0.001725
8.745000E-8	0.001769
8.750000E-8	0.001797
8.755000E-8	0.001900
8.760000E-8	0.001934
8.765000E-8	0.002038
8.770000E-8	0.001966
8.775000E-8	0.002044
8.780000E-8	0.002044
8.785000E-8	0.002003
8.790000E-8	0.002019
8.795000E-8	0.002006
8.800000E-8	0.001984
8.805000E-8	0.001941
8.810000E-8	0.002006
8.815000E-8	0.002141
8.820000E-8	0.002144
8.825000E-8	0.002228
8.830000E-8	0.002244
8.835000E-8	0.002194
8.840000E-8	0.002162
8.845000E-8	0.002175
8.850000E-8	0.002119
8.855000E-8	0.002119
8.860000E-8	0.002059
8.865000E-8	0.002069
8.870000E-8	0.002059
8.875000E-8	0.002191
8.880000E-8	0.002272
8.885000E-8	0.002259
8.890000E-8	0.002219
8.895000E-8	0.002213
8.900000E-8	0.002125
8.905000E-8	0.002072
8.910000E-8	0.002109
8.915000E-8	0.002144
8.920000E-8	0.002091
8.925000E-8	0.002044
8.930000E-8	0.002106
8.935000E-8	0.002266
8.940000E-8	0.002206
8.945000E-8	0.002234
8.950000E-8	0.002150
8.955000E-8	0.002131
8.960000E-8	0.002209
8.965000E-8	0.002109
8.970000E-8	0.002056
8.975000E-8	0.001988
8.980000E-8	0.001906
8.985000E-8	0.001928
8.990000E-8	0.001859
8.995000E-8	0.001869
9.000000E-8	0.001687
9.005000E-8	0.001716
9.010000E-8	0.001581
9.015000E-8	0.001644
9.020000E-8	0.001672
9.025000E-8	0.001763
9.030000E-8	0.001753
9.035000E-8	0.001819
9.040000E-8	0.001922
9.045000E-8	0.002053
9.050000E-8	0.002153
9.055000E-8	0.002166
9.060000E-8	0.002178
9.065000E-8	0.002150
9.070000E-8	0.002084
9.075000E-8	0.002016
9.080000E-8	0.002000
9.085000E-8	0.002103
9.090000E-8	0.002069
9.095000E-8	0.002166
9.100000E-8	0.002056
9.105000E-8	0.001981
9.110000E-8	0.001897
9.115000E-8	0.001916
9.120000E-8	0.001978
9.125000E-8	0.002019
9.130000E-8	0.001981
9.135000E-8	0.002038
9.140000E-8	0.002044
9.145000E-8	0.002031
9.150000E-8	0.001944
9.155000E-8	0.002025
9.160000E-8	0.002072
9.165000E-8	0.002075
9.170000E-8	0.002038
9.175000E-8	0.002041
9.180000E-8	0.001988
9.185000E-8	0.002009
9.190000E-8	0.001984
9.195000E-8	0.002063
9.200000E-8	0.002041
9.205000E-8	0.002012
9.210000E-8	0.001925
9.215000E-8	0.001881
9.220000E-8	0.001878
9.225000E-8	0.001875
9.230000E-8	0.001816
9.235000E-8	0.001869
9.240000E-8	0.001844
9.245000E-8	0.001916
9.250000E-8	0.001963
9.255000E-8	0.002066
9.260000E-8	0.002031
9.265000E-8	0.002094
9.270000E-8	0.002028
9.275000E-8	0.001972
9.280000E-8	0.001916
9.285000E-8	0.001981
9.290000E-8	0.001975
9.295000E-8	0.001941
9.300000E-8	0.001791
9.305000E-8	0.001831
9.310000E-8	0.001806
9.315000E-8	0.001741
9.320000E-8	0.001772
9.325000E-8	0.001913
9.330000E-8	0.001950
9.335000E-8	0.001978
9.340000E-8	0.002041
9.345000E-8	0.002034
9.350000E-8	0.002109
9.355000E-8	0.002166
9.360000E-8	0.002069
9.365000E-8	0.002159
9.370000E-8	0.002063
9.375000E-8	0.002172
9.380000E-8	0.002175
9.385000E-8	0.002209
9.390000E-8	0.002269
9.395000E-8	0.002294
9.400000E-8	0.002191
9.405000E-8	0.002159
9.410000E-8	0.002128
9.415000E-8	0.002109
9.420000E-8	0.002103
9.425000E-8	0.002056
9.430000E-8	0.001906
9.435000E-8	0.001819
9.440000E-8	0.001784
9.445000E-8	0.001825
9.450000E-8	0.001763
9.455000E-8	0.001775
9.460000E-8	0.001753
9.465000E-8	0.001788
9.470000E-8	0.001825
9.475000E-8	0.001906
9.480000E-8	0.001916
9.485000E-8	0.002003
9.490000E-8	0.001944
9.495000E-8	0.002116
9.500000E-8	0.002047
9.505000E-8	0.002084
9.510000E-8	0.002091
9.515000E-8	0.002016
9.520000E-8	0.001978
9.525000E-8	0.002034
9.530000E-8	0.002028
9.535000E-8	0.002100
9.540000E-8	0.002025
9.545000E-8	0.002097
9.550000E-8	0.002081
9.555000E-8	0.002100
9.560000E-8	0.002025
9.565000E-8	0.002116
9.570000E-8	0.002041
9.575000E-8	0.002081
9.580000E-8	0.001934
9.585000E-8	0.002016
9.590000E-8	0.001941
9.595000E-8	0.001897
9.600000E-8	0.001809
9.605000E-8	0.001884
9.610000E-8	0.001863
9.615000E-8	0.001966
9.620000E-8	0.001941
9.625000E-8	0.001869
9.630000E-8	0.001900
9.635000E-8	0.002022
9.640000E-8	0.002016
9.645000E-8	0.002022
9.650000E-8	0.002047
9.655000E-8	0.002125
9.660000E-8	0.002047
9.665000E-8	0.002034
9.670000E-8	0.001975
9.675000E-8	0.001944
9.680000E-8	0.001972
9.685000E-8	0.001997
9.690000E-8	0.002022
9.695000E-8	0.002097
9.700000E-8	0.001897
9.705000E-8	0.002009
9.710000E-8	0.001934
9.715000E-8	0.002019
9.720000E-8	0.001956
9.725000E-8	0.002075
9.730000E-8	0.002056
9.735000E-8	0.002047
9.740000E-8	0.002019
9.745000E-8	0.002047
9.750000E-8	0.002031
9.755000E-8	0.002000
9.760000E-8	0.001925
9.765000E-8	0.001966
9.770000E-8	0.001806
9.775000E-8	0.001753
9.780000E-8	0.001609
9.785000E-8	0.001647
9.790000E-8	0.001684
9.795000E-8	0.001753
9.800000E-8	0.001763
9.805000E-8	0.001831
9.810000E-8	0.001788
9.815000E-8	0.001747
9.820000E-8	0.001738
9.825000E-8	0.001834
9.830000E-8	0.001747
9.835000E-8	0.001759
9.840000E-8	0.001831
9.845000E-8	0.001903
9.850000E-8	0.001906
9.855000E-8	0.001963
9.860000E-8	0.001944
9.865000E-8	0.002063
9.870000E-8	0.001944
9.875000E-8	0.001963
9.880000E-8	0.001953
9.885000E-8	0.001966
9.890000E-8	0.001978
9.895000E-8	0.002031
9.900000E-8	0.001984
9.905000E-8	0.002025
9.910000E-8	0.001919
9.915000E-8	0.002022
9.920000E-8	0.002006
9.925000E-8	0.002106
9.930000E-8	0.002006
9.935000E-8	0.002016
9.940000E-8	0.001956
9.945000E-8	0.001934
9.950000E-8	0.001828
9.955000E-8	0.001903
9.960000E-8	0.001850
9.965000E-8	0.001866
9.970000E-8	0.001881
9.975000E-8	0.001841
9.980000E-8	0.001856
9.985000E-8	0.001966
9.990000E-8	0.001934
9.995000E-8	0.001894
