LabVIEW Measurement	
Writer_Version	2
Reader_Version	2
Separator	Tab
Decimal_Separator	.
Multi_Headings	No
X_Columns	Multi
Time_Pref	Relative
Operator	TG lab
Date	2015/03/06
Time	15:44:35.2800536155700683594
***End_of_Header***	
	
Channels	1	
Samples	2000	
Date	2015/03/06	
Time	15:44:35.2800536155700683594	
X_Dimension	Time	
X0	0.0000000000000000E+0	
Delta_X	5.000000E-11	
***End_of_Header***		
X_Value	Untitled	Comment
0.000000	0.002206
5.000000E-11	0.002230
1.000000E-10	0.002300
1.500000E-10	0.002372
2.000000E-10	0.002359
2.500000E-10	0.002439
3.000000E-10	0.002330
3.500000E-10	0.002284
4.000000E-10	0.002241
4.500000E-10	0.002197
5.000000E-10	0.002191
5.500000E-10	0.002153
6.000000E-10	0.002102
6.500000E-10	0.002102
7.000000E-10	0.002098
7.500000E-10	0.002092
8.000000E-10	0.002047
8.500000E-10	0.002188
9.000000E-10	0.002203
9.500000E-10	0.002270
1.000000E-9	0.002202
1.050000E-9	0.002217
1.100000E-9	0.002186
1.150000E-9	0.002183
1.200000E-9	0.002159
1.250000E-9	0.002134
1.300000E-9	0.002075
1.350000E-9	0.002139
1.400000E-9	0.002105
1.450000E-9	0.002153
1.500000E-9	0.002150
1.550000E-9	0.002180
1.600000E-9	0.002139
1.650000E-9	0.002239
1.700000E-9	0.002202
1.750000E-9	0.002192
1.800000E-9	0.002072
1.850000E-9	0.002081
1.900000E-9	0.001984
1.950000E-9	0.001964
2.000000E-9	0.001927
2.050000E-9	0.001891
2.100000E-9	0.001836
2.150000E-9	0.001906
2.200000E-9	0.001939
2.250000E-9	0.002083
2.300000E-9	0.002133
2.350000E-9	0.002217
2.400000E-9	0.002319
2.450000E-9	0.002419
2.500000E-9	0.002473
2.550000E-9	0.002509
2.600000E-9	0.002492
2.650000E-9	0.002525
2.700000E-9	0.002466
2.750000E-9	0.002447
2.800000E-9	0.002414
2.850000E-9	0.002323
2.900000E-9	0.002295
2.950000E-9	0.002344
3.000000E-9	0.002342
3.050000E-9	0.002306
3.100000E-9	0.002306
3.150000E-9	0.002261
3.200000E-9	0.002277
3.250000E-9	0.002317
3.300000E-9	0.002333
3.350000E-9	0.002333
3.400000E-9	0.002245
3.450000E-9	0.002284
3.500000E-9	0.002225
3.550000E-9	0.002258
3.600000E-9	0.002303
3.650000E-9	0.002286
3.700000E-9	0.002286
3.750000E-9	0.002353
3.800000E-9	0.002359
3.850000E-9	0.002369
3.900000E-9	0.002380
3.950000E-9	0.002400
4.000000E-9	0.002352
4.050000E-9	0.002350
4.100000E-9	0.002380
4.150000E-9	0.002431
4.200000E-9	0.002459
4.250000E-9	0.002508
4.300000E-9	0.002555
4.350000E-9	0.002647
4.400000E-9	0.002702
4.450000E-9	0.002791
4.500000E-9	0.002892
4.550000E-9	0.002877
4.600000E-9	0.002906
4.650000E-9	0.002883
4.700000E-9	0.002842
4.750000E-9	0.002820
4.800000E-9	0.002789
4.850000E-9	0.002780
4.900000E-9	0.002761
4.950000E-9	0.002798
5.000000E-9	0.002833
5.050000E-9	0.002906
5.100000E-9	0.002958
5.150000E-9	0.002980
5.200000E-9	0.003019
5.250000E-9	0.003033
5.300000E-9	0.003072
5.350000E-9	0.003053
5.400000E-9	0.003012
5.450000E-9	0.003053
5.500000E-9	0.003097
5.550000E-9	0.003173
5.600000E-9	0.003156
5.650000E-9	0.003339
5.700000E-9	0.003409
5.750000E-9	0.003517
5.800000E-9	0.003592
5.850000E-9	0.003655
5.900000E-9	0.003919
5.950000E-9	0.004112
6.000000E-9	0.004333
6.050000E-9	0.004648
6.100000E-9	0.004953
6.150000E-9	0.005377
6.200000E-9	0.005806
6.250000E-9	0.006255
6.300000E-9	0.006794
6.350000E-9	0.007206
6.400000E-9	0.007608
6.450000E-9	0.007994
6.500000E-9	0.008308
6.550000E-9	0.008480
6.600000E-9	0.008486
6.650000E-9	0.008364
6.700000E-9	0.008058
6.750000E-9	0.007697
6.800000E-9	0.007325
6.850000E-9	0.006936
6.900000E-9	0.006581
6.950000E-9	0.006263
7.000000E-9	0.006006
7.050000E-9	0.006013
7.100000E-9	0.006025
7.150000E-9	0.006209
7.200000E-9	0.006464
7.250000E-9	0.006938
7.300000E-9	0.007503
7.350000E-9	0.008161
7.400000E-9	0.009019
7.450000E-9	0.010084
7.500000E-9	0.011278
7.550000E-9	0.012661
7.600000E-9	0.014127
7.650000E-9	0.015766
7.700000E-9	0.017298
7.750000E-9	0.018917
7.800000E-9	0.020392
7.850000E-9	0.021816
7.900000E-9	0.023153
7.950000E-9	0.024408
8.000000E-9	0.025548
8.050000E-9	0.026806
8.100000E-9	0.028153
8.150000E-9	0.029589
8.200000E-9	0.031141
8.250000E-9	0.032675
8.300000E-9	0.034275
8.350000E-9	0.035758
8.400000E-9	0.036986
8.450000E-9	0.037812
8.500000E-9	0.038214
8.550000E-9	0.037981
8.600000E-9	0.037186
8.650000E-9	0.035973
8.700000E-9	0.034205
8.750000E-9	0.032097
8.800000E-9	0.029852
8.850000E-9	0.027470
8.900000E-9	0.025270
8.950000E-9	0.023361
9.000000E-9	0.021891
9.050000E-9	0.021038
9.100000E-9	0.020631
9.150000E-9	0.020769
9.200000E-9	0.021336
9.250000E-9	0.022089
9.300000E-9	0.023019
9.350000E-9	0.023858
9.400000E-9	0.024527
9.450000E-9	0.024819
9.500000E-9	0.024673
9.550000E-9	0.024119
9.600000E-9	0.023242
9.650000E-9	0.021877
9.700000E-9	0.020264
9.750000E-9	0.018577
9.800000E-9	0.016769
9.850000E-9	0.015178
9.900000E-9	0.013750
9.950000E-9	0.012703
1.000000E-8	0.011998
1.005000E-8	0.011713
1.010000E-8	0.011772
1.015000E-8	0.012217
1.020000E-8	0.012931
1.025000E-8	0.013755
1.030000E-8	0.014625
1.035000E-8	0.015450
1.040000E-8	0.016053
1.045000E-8	0.016478
1.050000E-8	0.016495
1.055000E-8	0.016152
1.060000E-8	0.015500
1.065000E-8	0.014575
1.070000E-8	0.013361
1.075000E-8	0.012125
1.080000E-8	0.010794
1.085000E-8	0.009647
1.090000E-8	0.008608
1.095000E-8	0.007825
1.100000E-8	0.007439
1.105000E-8	0.007391
1.110000E-8	0.007698
1.115000E-8	0.008200
1.120000E-8	0.008920
1.125000E-8	0.009778
1.130000E-8	0.010569
1.135000E-8	0.011300
1.140000E-8	0.011786
1.145000E-8	0.012114
1.150000E-8	0.012061
1.155000E-8	0.011742
1.160000E-8	0.011153
1.165000E-8	0.010258
1.170000E-8	0.009137
1.175000E-8	0.008094
1.180000E-8	0.006934
1.185000E-8	0.005891
1.190000E-8	0.005017
1.195000E-8	0.004425
1.200000E-8	0.004134
1.205000E-8	0.004169
1.210000E-8	0.004498
1.215000E-8	0.005020
1.220000E-8	0.005742
1.225000E-8	0.006514
1.230000E-8	0.007308
1.235000E-8	0.008038
1.240000E-8	0.008609
1.245000E-8	0.008853
1.250000E-8	0.008922
1.255000E-8	0.008727
1.260000E-8	0.008208
1.265000E-8	0.007531
1.270000E-8	0.006511
1.275000E-8	0.005558
1.280000E-8	0.004569
1.285000E-8	0.003744
1.290000E-8	0.003066
1.295000E-8	0.002567
1.300000E-8	0.002464
1.305000E-8	0.002605
1.310000E-8	0.003041
1.315000E-8	0.003567
1.320000E-8	0.004369
1.325000E-8	0.005256
1.330000E-8	0.006092
1.335000E-8	0.006858
1.340000E-8	0.007411
1.345000E-8	0.007667
1.350000E-8	0.007691
1.355000E-8	0.007387
1.360000E-8	0.006763
1.365000E-8	0.005948
1.370000E-8	0.004969
1.375000E-8	0.004006
1.380000E-8	0.002981
1.385000E-8	0.002178
1.390000E-8	0.001550
1.395000E-8	0.001248
1.400000E-8	0.001155
1.405000E-8	0.001456
1.410000E-8	0.002023
1.415000E-8	0.002834
1.420000E-8	0.003755
1.425000E-8	0.004798
1.430000E-8	0.005723
1.435000E-8	0.006470
1.440000E-8	0.007036
1.445000E-8	0.007295
1.450000E-8	0.007106
1.455000E-8	0.006683
1.460000E-8	0.005919
1.465000E-8	0.005030
1.470000E-8	0.003942
1.475000E-8	0.002848
1.480000E-8	0.001892
1.485000E-8	0.001084
1.490000E-8	0.000609
1.495000E-8	0.000453
1.500000E-8	0.000553
1.505000E-8	0.001011
1.510000E-8	0.001717
1.515000E-8	0.002525
1.520000E-8	0.003519
1.525000E-8	0.004463
1.530000E-8	0.005275
1.535000E-8	0.005872
1.540000E-8	0.006183
1.545000E-8	0.006233
1.550000E-8	0.005970
1.555000E-8	0.005355
1.560000E-8	0.004589
1.565000E-8	0.003631
1.570000E-8	0.002561
1.575000E-8	0.001628
1.580000E-8	0.000745
1.585000E-8	0.000173
1.590000E-8	-0.000181
1.595000E-8	-0.000228
1.600000E-8	1.875000E-5
1.605000E-8	0.000728
1.610000E-8	0.001528
1.615000E-8	0.002481
1.620000E-8	0.003522
1.625000E-8	0.004463
1.630000E-8	0.005188
1.635000E-8	0.005766
1.640000E-8	0.005936
1.645000E-8	0.005795
1.650000E-8	0.005431
1.655000E-8	0.004689
1.660000E-8	0.003716
1.665000E-8	0.002658
1.670000E-8	0.001663
1.675000E-8	0.000745
1.680000E-8	0.000000
1.685000E-8	-0.000378
1.690000E-8	-0.000472
1.695000E-8	-0.000278
1.700000E-8	0.000234
1.705000E-8	0.001028
1.710000E-8	0.001972
1.715000E-8	0.003014
1.720000E-8	0.003972
1.725000E-8	0.004778
1.730000E-8	0.005339
1.735000E-8	0.005613
1.740000E-8	0.005516
1.745000E-8	0.005088
1.750000E-8	0.004414
1.755000E-8	0.003598
1.760000E-8	0.002591
1.765000E-8	0.001614
1.770000E-8	0.000731
1.775000E-8	6.406250E-5
1.780000E-8	-0.000364
1.785000E-8	-0.000544
1.790000E-8	-0.000341
1.795000E-8	9.687500E-5
1.800000E-8	0.000778
1.805000E-8	0.001578
1.810000E-8	0.002545
1.815000E-8	0.003467
1.820000E-8	0.004197
1.825000E-8	0.004841
1.830000E-8	0.005161
1.835000E-8	0.005291
1.840000E-8	0.005114
1.845000E-8	0.004678
1.850000E-8	0.003997
1.855000E-8	0.003173
1.860000E-8	0.002297
1.865000E-8	0.001380
1.870000E-8	0.000597
1.875000E-8	1.718750E-5
1.880000E-8	-0.000291
1.885000E-8	-0.000336
1.890000E-8	-0.000167
1.895000E-8	0.000367
1.900000E-8	0.001048
1.905000E-8	0.001891
1.910000E-8	0.002723
1.915000E-8	0.003533
1.920000E-8	0.004214
1.925000E-8	0.004719
1.930000E-8	0.005006
1.935000E-8	0.004973
1.940000E-8	0.004708
1.945000E-8	0.004256
1.950000E-8	0.003587
1.955000E-8	0.002859
1.960000E-8	0.002027
1.965000E-8	0.001247
1.970000E-8	0.000630
1.975000E-8	0.000127
1.980000E-8	-0.000106
1.985000E-8	-0.000156
1.990000E-8	0.000100
1.995000E-8	0.000548
2.000000E-8	0.001202
2.005000E-8	0.002005
2.010000E-8	0.002769
2.015000E-8	0.003544
2.020000E-8	0.004152
2.025000E-8	0.004598
2.030000E-8	0.004784
2.035000E-8	0.004677
2.040000E-8	0.004377
2.045000E-8	0.003839
2.050000E-8	0.003120
2.055000E-8	0.002294
2.060000E-8	0.001513
2.065000E-8	0.000733
2.070000E-8	8.281250E-5
2.075000E-8	-0.000261
2.080000E-8	-0.000406
2.085000E-8	-0.000303
2.090000E-8	5.468750E-5
2.095000E-8	0.000605
2.100000E-8	0.001406
2.105000E-8	0.002255
2.110000E-8	0.002973
2.115000E-8	0.003717
2.120000E-8	0.004277
2.125000E-8	0.004598
2.130000E-8	0.004636
2.135000E-8	0.004455
2.140000E-8	0.003953
2.145000E-8	0.003306
2.150000E-8	0.002469
2.155000E-8	0.001597
2.160000E-8	0.000748
2.165000E-8	4.531250E-5
2.170000E-8	-0.000444
2.175000E-8	-0.000670
2.180000E-8	-0.000698
2.185000E-8	-0.000419
2.190000E-8	0.000148
2.195000E-8	0.000908
2.200000E-8	0.001730
2.205000E-8	0.002673
2.210000E-8	0.003533
2.215000E-8	0.004283
2.220000E-8	0.004716
2.225000E-8	0.004980
2.230000E-8	0.004925
2.235000E-8	0.004580
2.240000E-8	0.004009
2.245000E-8	0.003339
2.250000E-8	0.002405
2.255000E-8	0.001630
2.260000E-8	0.000819
2.265000E-8	0.000172
2.270000E-8	-0.000233
2.275000E-8	-0.000355
2.280000E-8	-0.000252
2.285000E-8	0.000211
2.290000E-8	0.000775
2.295000E-8	0.001623
2.300000E-8	0.002519
2.305000E-8	0.003367
2.310000E-8	0.004116
2.315000E-8	0.004717
2.320000E-8	0.005039
2.325000E-8	0.005084
2.330000E-8	0.004852
2.335000E-8	0.004297
2.340000E-8	0.003561
2.345000E-8	0.002648
2.350000E-8	0.001698
2.355000E-8	0.000820
2.360000E-8	7.187500E-5
2.365000E-8	-0.000503
2.370000E-8	-0.000744
2.375000E-8	-0.000720
2.380000E-8	-0.000366
2.385000E-8	0.000188
2.390000E-8	0.000958
2.395000E-8	0.001797
2.400000E-8	0.002608
2.405000E-8	0.003505
2.410000E-8	0.004127
2.415000E-8	0.004567
2.420000E-8	0.004734
2.425000E-8	0.004578
2.430000E-8	0.004161
2.435000E-8	0.003481
2.440000E-8	0.002706
2.445000E-8	0.001919
2.450000E-8	0.001002
2.455000E-8	0.000319
2.460000E-8	-0.000242
2.465000E-8	-0.000631
2.470000E-8	-0.000703
2.475000E-8	-0.000453
2.480000E-8	4.375000E-5
2.485000E-8	0.000783
2.490000E-8	0.001550
2.495000E-8	0.002417
2.500000E-8	0.003197
2.505000E-8	0.003822
2.510000E-8	0.004311
2.515000E-8	0.004552
2.520000E-8	0.004459
2.525000E-8	0.004205
2.530000E-8	0.003703
2.535000E-8	0.003078
2.540000E-8	0.002314
2.545000E-8	0.001545
2.550000E-8	0.000880
2.555000E-8	0.000341
2.560000E-8	-5.312500E-5
2.565000E-8	-9.531250E-5
2.570000E-8	6.250000E-6
2.575000E-8	0.000339
2.580000E-8	0.000833
2.585000E-8	0.001467
2.590000E-8	0.002111
2.595000E-8	0.002791
2.600000E-8	0.003308
2.605000E-8	0.003830
2.610000E-8	0.004083
2.615000E-8	0.004161
2.620000E-8	0.003944
2.625000E-8	0.003600
2.630000E-8	0.003098
2.635000E-8	0.002473
2.640000E-8	0.001741
2.645000E-8	0.001038
2.650000E-8	0.000537
2.655000E-8	1.875000E-5
2.660000E-8	-0.000256
2.665000E-8	-0.000328
2.670000E-8	-0.000133
2.675000E-8	0.000261
2.680000E-8	0.000822
2.685000E-8	0.001513
2.690000E-8	0.002191
2.695000E-8	0.002859
2.700000E-8	0.003381
2.705000E-8	0.003834
2.710000E-8	0.003988
2.715000E-8	0.004069
2.720000E-8	0.003917
2.725000E-8	0.003556
2.730000E-8	0.003069
2.735000E-8	0.002436
2.740000E-8	0.001845
2.745000E-8	0.001259
2.750000E-8	0.000686
2.755000E-8	0.000330
2.760000E-8	0.000105
2.765000E-8	8.593750E-5
2.770000E-8	0.000220
2.775000E-8	0.000603
2.780000E-8	0.001136
2.785000E-8	0.001750
2.790000E-8	0.002298
2.795000E-8	0.002916
2.800000E-8	0.003447
2.805000E-8	0.003809
2.810000E-8	0.004013
2.815000E-8	0.004031
2.820000E-8	0.003798
2.825000E-8	0.003459
2.830000E-8	0.002914
2.835000E-8	0.002248
2.840000E-8	0.001538
2.845000E-8	0.000991
2.850000E-8	0.000519
2.855000E-8	0.000209
2.860000E-8	5.625000E-5
2.865000E-8	0.000155
2.870000E-8	0.000408
2.875000E-8	0.000913
2.880000E-8	0.001563
2.885000E-8	0.002222
2.890000E-8	0.002825
2.895000E-8	0.003416
2.900000E-8	0.003886
2.905000E-8	0.004103
2.910000E-8	0.004095
2.915000E-8	0.003934
2.920000E-8	0.003519
2.925000E-8	0.002973
2.930000E-8	0.002322
2.935000E-8	0.001650
2.940000E-8	0.000961
2.945000E-8	0.000484
2.950000E-8	6.562500E-5
2.955000E-8	-4.531250E-5
2.960000E-8	0.000000
2.965000E-8	0.000356
2.970000E-8	0.000781
2.975000E-8	0.001370
2.980000E-8	0.001988
2.985000E-8	0.002550
2.990000E-8	0.003145
2.995000E-8	0.003567
3.000000E-8	0.003848
3.005000E-8	0.003948
3.010000E-8	0.003939
3.015000E-8	0.003694
3.020000E-8	0.003308
3.025000E-8	0.002766
3.030000E-8	0.002180
3.035000E-8	0.001528
3.040000E-8	0.000944
3.045000E-8	0.000508
3.050000E-8	0.000195
3.055000E-8	6.718750E-5
3.060000E-8	0.000203
3.065000E-8	0.000511
3.070000E-8	0.000969
3.075000E-8	0.001634
3.080000E-8	0.002322
3.085000E-8	0.003000
3.090000E-8	0.003464
3.095000E-8	0.003942
3.100000E-8	0.004170
3.105000E-8	0.004227
3.110000E-8	0.004036
3.115000E-8	0.003711
3.120000E-8	0.003173
3.125000E-8	0.002692
3.130000E-8	0.002019
3.135000E-8	0.001450
3.140000E-8	0.000916
3.145000E-8	0.000539
3.150000E-8	0.000363
3.155000E-8	0.000420
3.160000E-8	0.000627
3.165000E-8	0.001042
3.170000E-8	0.001544
3.175000E-8	0.002161
3.180000E-8	0.002842
3.185000E-8	0.003330
3.190000E-8	0.003778
3.195000E-8	0.004016
3.200000E-8	0.004128
3.205000E-8	0.004006
3.210000E-8	0.003628
3.215000E-8	0.003162
3.220000E-8	0.002480
3.225000E-8	0.001875
3.230000E-8	0.001242
3.235000E-8	0.000730
3.240000E-8	0.000294
3.245000E-8	5.625000E-5
3.250000E-8	3.593750E-5
3.255000E-8	0.000245
3.260000E-8	0.000592
3.265000E-8	0.001102
3.270000E-8	0.001570
3.275000E-8	0.002209
3.280000E-8	0.002731
3.285000E-8	0.003242
3.290000E-8	0.003508
3.295000E-8	0.003595
3.300000E-8	0.003591
3.305000E-8	0.003325
3.310000E-8	0.003036
3.315000E-8	0.002563
3.320000E-8	0.002014
3.325000E-8	0.001516
3.330000E-8	0.000953
3.335000E-8	0.000566
3.340000E-8	0.000266
3.345000E-8	0.000170
3.350000E-8	0.000263
3.355000E-8	0.000472
3.360000E-8	0.000780
3.365000E-8	0.001303
3.370000E-8	0.001783
3.375000E-8	0.002330
3.380000E-8	0.002798
3.385000E-8	0.003266
3.390000E-8	0.003536
3.395000E-8	0.003630
3.400000E-8	0.003547
3.405000E-8	0.003394
3.410000E-8	0.003072
3.415000E-8	0.002658
3.420000E-8	0.002170
3.425000E-8	0.001761
3.430000E-8	0.001341
3.435000E-8	0.001028
3.440000E-8	0.000831
3.445000E-8	0.000788
3.450000E-8	0.000892
3.455000E-8	0.001109
3.460000E-8	0.001389
3.465000E-8	0.001823
3.470000E-8	0.002255
3.475000E-8	0.002708
3.480000E-8	0.003034
3.485000E-8	0.003316
3.490000E-8	0.003419
3.495000E-8	0.003384
3.500000E-8	0.003225
3.505000E-8	0.002955
3.510000E-8	0.002558
3.515000E-8	0.002094
3.520000E-8	0.001653
3.525000E-8	0.001261
3.530000E-8	0.000953
3.535000E-8	0.000752
3.540000E-8	0.000664
3.545000E-8	0.000741
3.550000E-8	0.000947
3.555000E-8	0.001233
3.560000E-8	0.001645
3.565000E-8	0.002016
3.570000E-8	0.002463
3.575000E-8	0.002850
3.580000E-8	0.003113
3.585000E-8	0.003291
3.590000E-8	0.003342
3.595000E-8	0.003255
3.600000E-8	0.003055
3.605000E-8	0.002744
3.610000E-8	0.002338
3.615000E-8	0.001856
3.620000E-8	0.001433
3.625000E-8	0.000984
3.630000E-8	0.000720
3.635000E-8	0.000567
3.640000E-8	0.000442
3.645000E-8	0.000552
3.650000E-8	0.000794
3.655000E-8	0.001164
3.660000E-8	0.001614
3.665000E-8	0.002103
3.670000E-8	0.002577
3.675000E-8	0.002997
3.680000E-8	0.003391
3.685000E-8	0.003602
3.690000E-8	0.003652
3.695000E-8	0.003631
3.700000E-8	0.003372
3.705000E-8	0.003003
3.710000E-8	0.002552
3.715000E-8	0.002080
3.720000E-8	0.001555
3.725000E-8	0.001138
3.730000E-8	0.000767
3.735000E-8	0.000534
3.740000E-8	0.000519
3.745000E-8	0.000638
3.750000E-8	0.000919
3.755000E-8	0.001323
3.760000E-8	0.001836
3.765000E-8	0.002458
3.770000E-8	0.002916
3.775000E-8	0.003363
3.780000E-8	0.003644
3.785000E-8	0.003859
3.790000E-8	0.003767
3.795000E-8	0.003523
3.800000E-8	0.003166
3.805000E-8	0.002691
3.810000E-8	0.002161
3.815000E-8	0.001602
3.820000E-8	0.001106
3.825000E-8	0.000770
3.830000E-8	0.000478
3.835000E-8	0.000453
3.840000E-8	0.000528
3.845000E-8	0.000873
3.850000E-8	0.001266
3.855000E-8	0.001816
3.860000E-8	0.002300
3.865000E-8	0.002808
3.870000E-8	0.003198
3.875000E-8	0.003483
3.880000E-8	0.003533
3.885000E-8	0.003559
3.890000E-8	0.003320
3.895000E-8	0.002988
3.900000E-8	0.002616
3.905000E-8	0.002125
3.910000E-8	0.001625
3.915000E-8	0.001227
3.920000E-8	0.000902
3.925000E-8	0.000645
3.930000E-8	0.000611
3.935000E-8	0.000720
3.940000E-8	0.000969
3.945000E-8	0.001283
3.950000E-8	0.001642
3.955000E-8	0.002086
3.960000E-8	0.002456
3.965000E-8	0.002828
3.970000E-8	0.003064
3.975000E-8	0.003234
3.980000E-8	0.003213
3.985000E-8	0.003170
3.990000E-8	0.003020
3.995000E-8	0.002730
4.000000E-8	0.002402
4.005000E-8	0.001966
4.010000E-8	0.001636
4.015000E-8	0.001305
4.020000E-8	0.001105
4.025000E-8	0.000891
4.030000E-8	0.000850
4.035000E-8	0.000975
4.040000E-8	0.001138
4.045000E-8	0.001430
4.050000E-8	0.001870
4.055000E-8	0.002288
4.060000E-8	0.002655
4.065000E-8	0.003102
4.070000E-8	0.003330
4.075000E-8	0.003447
4.080000E-8	0.003430
4.085000E-8	0.003342
4.090000E-8	0.003081
4.095000E-8	0.002694
4.100000E-8	0.002253
4.105000E-8	0.001842
4.110000E-8	0.001509
4.115000E-8	0.001186
4.120000E-8	0.000880
4.125000E-8	0.000858
4.130000E-8	0.000867
4.135000E-8	0.001100
4.140000E-8	0.001295
4.145000E-8	0.001714
4.150000E-8	0.002080
4.155000E-8	0.002480
4.160000E-8	0.002831
4.165000E-8	0.003086
4.170000E-8	0.003241
4.175000E-8	0.003197
4.180000E-8	0.003173
4.185000E-8	0.002950
4.190000E-8	0.002606
4.195000E-8	0.002197
4.200000E-8	0.001814
4.205000E-8	0.001416
4.210000E-8	0.001069
4.215000E-8	0.000772
4.220000E-8	0.000594
4.225000E-8	0.000567
4.230000E-8	0.000602
4.235000E-8	0.000778
4.240000E-8	0.001131
4.245000E-8	0.001444
4.250000E-8	0.001847
4.255000E-8	0.002319
4.260000E-8	0.002653
4.265000E-8	0.002909
4.270000E-8	0.003098
4.275000E-8	0.003155
4.280000E-8	0.003038
4.285000E-8	0.002917
4.290000E-8	0.002594
4.295000E-8	0.002431
4.300000E-8	0.001995
4.305000E-8	0.001706
4.310000E-8	0.001381
4.315000E-8	0.001209
4.320000E-8	0.001130
4.325000E-8	0.001134
4.330000E-8	0.001159
4.335000E-8	0.001338
4.340000E-8	0.001581
4.345000E-8	0.001897
4.350000E-8	0.002239
4.355000E-8	0.002558
4.360000E-8	0.002800
4.365000E-8	0.003023
4.370000E-8	0.003077
4.375000E-8	0.003092
4.380000E-8	0.002919
4.385000E-8	0.002684
4.390000E-8	0.002342
4.395000E-8	0.001930
4.400000E-8	0.001620
4.405000E-8	0.001313
4.410000E-8	0.001058
4.415000E-8	0.000936
4.420000E-8	0.000838
4.425000E-8	0.000980
4.430000E-8	0.001175
4.435000E-8	0.001522
4.440000E-8	0.001825
4.445000E-8	0.002166
4.450000E-8	0.002464
4.455000E-8	0.002697
4.460000E-8	0.002928
4.465000E-8	0.003077
4.470000E-8	0.002997
4.475000E-8	0.002872
4.480000E-8	0.002683
4.485000E-8	0.002428
4.490000E-8	0.002073
4.495000E-8	0.001683
4.500000E-8	0.001288
4.505000E-8	0.000994
4.510000E-8	0.000831
4.515000E-8	0.000697
4.520000E-8	0.000713
4.525000E-8	0.000881
4.530000E-8	0.001142
4.535000E-8	0.001516
4.540000E-8	0.001909
4.545000E-8	0.002306
4.550000E-8	0.002655
4.555000E-8	0.003008
4.560000E-8	0.003094
4.565000E-8	0.003278
4.570000E-8	0.003230
4.575000E-8	0.003031
4.580000E-8	0.002788
4.585000E-8	0.002527
4.590000E-8	0.002181
4.595000E-8	0.001841
4.600000E-8	0.001533
4.605000E-8	0.001297
4.610000E-8	0.001170
4.615000E-8	0.001086
4.620000E-8	0.001161
4.625000E-8	0.001250
4.630000E-8	0.001461
4.635000E-8	0.001725
4.640000E-8	0.002061
4.645000E-8	0.002420
4.650000E-8	0.002661
4.655000E-8	0.002867
4.660000E-8	0.002989
4.665000E-8	0.003039
4.670000E-8	0.002900
4.675000E-8	0.002716
4.680000E-8	0.002353
4.685000E-8	0.002109
4.690000E-8	0.001769
4.695000E-8	0.001495
4.700000E-8	0.001266
4.705000E-8	0.001080
4.710000E-8	0.001041
4.715000E-8	0.001141
4.720000E-8	0.001269
4.725000E-8	0.001603
4.730000E-8	0.001902
4.735000E-8	0.002213
4.740000E-8	0.002538
4.745000E-8	0.002823
4.750000E-8	0.002897
4.755000E-8	0.003075
4.760000E-8	0.003020
4.765000E-8	0.002922
4.770000E-8	0.002709
4.775000E-8	0.002514
4.780000E-8	0.002128
4.785000E-8	0.001866
4.790000E-8	0.001617
4.795000E-8	0.001419
4.800000E-8	0.001200
4.805000E-8	0.001195
4.810000E-8	0.001158
4.815000E-8	0.001272
4.820000E-8	0.001383
4.825000E-8	0.001602
4.830000E-8	0.001789
4.835000E-8	0.002072
4.840000E-8	0.002358
4.845000E-8	0.002570
4.850000E-8	0.002702
4.855000E-8	0.002773
4.860000E-8	0.002773
4.865000E-8	0.002708
4.870000E-8	0.002478
4.875000E-8	0.002188
4.880000E-8	0.001937
4.885000E-8	0.001722
4.890000E-8	0.001408
4.895000E-8	0.001153
4.900000E-8	0.001005
4.905000E-8	0.000966
4.910000E-8	0.001080
4.915000E-8	0.001259
4.920000E-8	0.001486
4.925000E-8	0.001791
4.930000E-8	0.002069
4.935000E-8	0.002380
4.940000E-8	0.002636
4.945000E-8	0.002773
4.950000E-8	0.002872
4.955000E-8	0.002823
4.960000E-8	0.002720
4.965000E-8	0.002553
4.970000E-8	0.002283
4.975000E-8	0.002000
4.980000E-8	0.001702
4.985000E-8	0.001442
4.990000E-8	0.001291
4.995000E-8	0.001225
5.000000E-8	0.001161
5.005000E-8	0.001191
5.010000E-8	0.001338
5.015000E-8	0.001508
5.020000E-8	0.001695
5.025000E-8	0.001888
5.030000E-8	0.002142
5.035000E-8	0.002316
5.040000E-8	0.002461
5.045000E-8	0.002636
5.050000E-8	0.002723
5.055000E-8	0.002697
5.060000E-8	0.002614
5.065000E-8	0.002502
5.070000E-8	0.002214
5.075000E-8	0.001977
5.080000E-8	0.001727
5.085000E-8	0.001445
5.090000E-8	0.001164
5.095000E-8	0.001047
5.100000E-8	0.000977
5.105000E-8	0.001059
5.110000E-8	0.001198
5.115000E-8	0.001458
5.120000E-8	0.001736
5.125000E-8	0.002144
5.130000E-8	0.002391
5.135000E-8	0.002694
5.140000E-8	0.002922
5.145000E-8	0.002977
5.150000E-8	0.002917
5.155000E-8	0.002825
5.160000E-8	0.002605
5.165000E-8	0.002356
5.170000E-8	0.002033
5.175000E-8	0.001764
5.180000E-8	0.001513
5.185000E-8	0.001380
5.190000E-8	0.001234
5.195000E-8	0.001223
5.200000E-8	0.001320
5.205000E-8	0.001450
5.210000E-8	0.001608
5.215000E-8	0.001820
5.220000E-8	0.002103
5.225000E-8	0.002259
5.230000E-8	0.002486
5.235000E-8	0.002641
5.240000E-8	0.002713
5.245000E-8	0.002720
5.250000E-8	0.002745
5.255000E-8	0.002556
5.260000E-8	0.002381
5.265000E-8	0.002142
5.270000E-8	0.001883
5.275000E-8	0.001641
5.280000E-8	0.001334
5.285000E-8	0.001155
5.290000E-8	0.001063
5.295000E-8	0.001075
5.300000E-8	0.001102
5.305000E-8	0.001270
5.310000E-8	0.001472
5.315000E-8	0.001742
5.320000E-8	0.002008
5.325000E-8	0.002322
5.330000E-8	0.002500
5.335000E-8	0.002688
5.340000E-8	0.002667
5.345000E-8	0.002661
5.350000E-8	0.002541
5.355000E-8	0.002308
5.360000E-8	0.002059
5.365000E-8	0.001825
5.370000E-8	0.001592
5.375000E-8	0.001381
5.380000E-8	0.001238
5.385000E-8	0.001158
5.390000E-8	0.001125
5.395000E-8	0.001117
5.400000E-8	0.001252
5.405000E-8	0.001373
5.410000E-8	0.001552
5.415000E-8	0.001736
5.420000E-8	0.001905
5.425000E-8	0.002083
5.430000E-8	0.002197
5.435000E-8	0.002303
5.440000E-8	0.002445
5.445000E-8	0.002467
5.450000E-8	0.002444
5.455000E-8	0.002430
5.460000E-8	0.002258
5.465000E-8	0.002127
5.470000E-8	0.001898
5.475000E-8	0.001736
5.480000E-8	0.001542
5.485000E-8	0.001483
5.490000E-8	0.001405
5.495000E-8	0.001362
5.500000E-8	0.001425
5.505000E-8	0.001561
5.510000E-8	0.001741
5.515000E-8	0.001986
5.520000E-8	0.002192
5.525000E-8	0.002367
5.530000E-8	0.002495
5.535000E-8	0.002647
5.540000E-8	0.002597
5.545000E-8	0.002558
5.550000E-8	0.002416
5.555000E-8	0.002253
5.560000E-8	0.002053
5.565000E-8	0.001834
5.570000E-8	0.001592
5.575000E-8	0.001414
5.580000E-8	0.001264
5.585000E-8	0.001284
5.590000E-8	0.001244
5.595000E-8	0.001386
5.600000E-8	0.001567
5.605000E-8	0.001789
5.610000E-8	0.002003
5.615000E-8	0.002145
5.620000E-8	0.002366
5.625000E-8	0.002473
5.630000E-8	0.002558
5.635000E-8	0.002547
5.640000E-8	0.002400
5.645000E-8	0.002278
5.650000E-8	0.002123
5.655000E-8	0.001930
5.660000E-8	0.001677
5.665000E-8	0.001547
5.670000E-8	0.001356
5.675000E-8	0.001280
5.680000E-8	0.001259
5.685000E-8	0.001300
5.690000E-8	0.001323
5.695000E-8	0.001527
5.700000E-8	0.001588
5.705000E-8	0.001819
5.710000E-8	0.002048
5.715000E-8	0.002273
5.720000E-8	0.002414
5.725000E-8	0.002644
5.730000E-8	0.002795
5.735000E-8	0.002861
5.740000E-8	0.002792
5.745000E-8	0.002761
5.750000E-8	0.002570
5.755000E-8	0.002430
5.760000E-8	0.002233
5.765000E-8	0.002064
5.770000E-8	0.001900
5.775000E-8	0.001827
5.780000E-8	0.001744
5.785000E-8	0.001847
5.790000E-8	0.001814
5.795000E-8	0.001928
5.800000E-8	0.002069
5.805000E-8	0.002261
5.810000E-8	0.002380
5.815000E-8	0.002555
5.820000E-8	0.002705
5.825000E-8	0.002719
5.830000E-8	0.002683
5.835000E-8	0.002536
5.840000E-8	0.002378
5.845000E-8	0.002227
5.850000E-8	0.002031
5.855000E-8	0.001892
5.860000E-8	0.001709
5.865000E-8	0.001612
5.870000E-8	0.001481
5.875000E-8	0.001489
5.880000E-8	0.001489
5.885000E-8	0.001480
5.890000E-8	0.001536
5.895000E-8	0.001675
5.900000E-8	0.001717
5.905000E-8	0.001939
5.910000E-8	0.002059
5.915000E-8	0.002216
5.920000E-8	0.002345
5.925000E-8	0.002372
5.930000E-8	0.002361
5.935000E-8	0.002355
5.940000E-8	0.002244
5.945000E-8	0.002122
5.950000E-8	0.001936
5.955000E-8	0.001756
5.960000E-8	0.001619
5.965000E-8	0.001506
5.970000E-8	0.001423
5.975000E-8	0.001427
5.980000E-8	0.001503
5.985000E-8	0.001573
5.990000E-8	0.001769
5.995000E-8	0.002078
6.000000E-8	0.002236
6.005000E-8	0.002463
6.010000E-8	0.002589
6.015000E-8	0.002655
6.020000E-8	0.002583
6.025000E-8	0.002545
6.030000E-8	0.002463
6.035000E-8	0.002370
6.040000E-8	0.002219
6.045000E-8	0.002128
6.050000E-8	0.001958
6.055000E-8	0.001894
6.060000E-8	0.001781
6.065000E-8	0.001770
6.070000E-8	0.001745
6.075000E-8	0.001798
6.080000E-8	0.001838
6.085000E-8	0.001988
6.090000E-8	0.002103
6.095000E-8	0.002197
6.100000E-8	0.002317
6.105000E-8	0.002511
6.110000E-8	0.002636
6.115000E-8	0.002720
6.120000E-8	0.002692
6.125000E-8	0.002683
6.130000E-8	0.002595
6.135000E-8	0.002441
6.140000E-8	0.002270
6.145000E-8	0.002064
6.150000E-8	0.001923
6.155000E-8	0.001695
6.160000E-8	0.001606
6.165000E-8	0.001473
6.170000E-8	0.001472
6.175000E-8	0.001591
6.180000E-8	0.001605
6.185000E-8	0.001730
6.190000E-8	0.001845
6.195000E-8	0.002023
6.200000E-8	0.002150
6.205000E-8	0.002344
6.210000E-8	0.002478
6.215000E-8	0.002503
6.220000E-8	0.002536
6.225000E-8	0.002470
6.230000E-8	0.002405
6.235000E-8	0.002231
6.240000E-8	0.002044
6.245000E-8	0.001877
6.250000E-8	0.001713
6.255000E-8	0.001552
6.260000E-8	0.001417
6.265000E-8	0.001370
6.270000E-8	0.001355
6.275000E-8	0.001497
6.280000E-8	0.001538
6.285000E-8	0.001744
6.290000E-8	0.001881
6.295000E-8	0.002041
6.300000E-8	0.002161
6.305000E-8	0.002264
6.310000E-8	0.002331
6.315000E-8	0.002477
6.320000E-8	0.002442
6.325000E-8	0.002441
6.330000E-8	0.002409
6.335000E-8	0.002350
6.340000E-8	0.002223
6.345000E-8	0.002027
6.350000E-8	0.001870
6.355000E-8	0.001758
6.360000E-8	0.001570
6.365000E-8	0.001489
6.370000E-8	0.001558
6.375000E-8	0.001617
6.380000E-8	0.001727
6.385000E-8	0.001977
6.390000E-8	0.002127
6.395000E-8	0.002347
6.400000E-8	0.002436
6.405000E-8	0.002645
6.410000E-8	0.002564
6.415000E-8	0.002514
6.420000E-8	0.002437
6.425000E-8	0.002284
6.430000E-8	0.002061
6.435000E-8	0.001892
6.440000E-8	0.001755
6.445000E-8	0.001594
6.450000E-8	0.001464
6.455000E-8	0.001427
6.460000E-8	0.001403
6.465000E-8	0.001456
6.470000E-8	0.001489
6.475000E-8	0.001570
6.480000E-8	0.001716
6.485000E-8	0.001817
6.490000E-8	0.001986
6.495000E-8	0.002158
6.500000E-8	0.002255
6.505000E-8	0.002320
6.510000E-8	0.002381
6.515000E-8	0.002394
6.520000E-8	0.002269
6.525000E-8	0.002241
6.530000E-8	0.002108
6.535000E-8	0.001995
6.540000E-8	0.001861
6.545000E-8	0.001767
6.550000E-8	0.001706
6.555000E-8	0.001666
6.560000E-8	0.001605
6.565000E-8	0.001648
6.570000E-8	0.001800
6.575000E-8	0.001836
6.580000E-8	0.001970
6.585000E-8	0.002153
6.590000E-8	0.002266
6.595000E-8	0.002377
6.600000E-8	0.002392
6.605000E-8	0.002444
6.610000E-8	0.002500
6.615000E-8	0.002406
6.620000E-8	0.002397
6.625000E-8	0.002241
6.630000E-8	0.002195
6.635000E-8	0.002083
6.640000E-8	0.001917
6.645000E-8	0.001888
6.650000E-8	0.001823
6.655000E-8	0.001828
6.660000E-8	0.001845
6.665000E-8	0.001867
6.670000E-8	0.001878
6.675000E-8	0.001958
6.680000E-8	0.002031
6.685000E-8	0.002055
6.690000E-8	0.002055
6.695000E-8	0.002152
6.700000E-8	0.002150
6.705000E-8	0.002161
6.710000E-8	0.002150
6.715000E-8	0.002091
6.720000E-8	0.002036
6.725000E-8	0.001959
6.730000E-8	0.001864
6.735000E-8	0.001716
6.740000E-8	0.001616
6.745000E-8	0.001566
6.750000E-8	0.001456
6.755000E-8	0.001452
6.760000E-8	0.001417
6.765000E-8	0.001469
6.770000E-8	0.001505
6.775000E-8	0.001670
6.780000E-8	0.001809
6.785000E-8	0.001875
6.790000E-8	0.002014
6.795000E-8	0.002148
6.800000E-8	0.002227
6.805000E-8	0.002300
6.810000E-8	0.002288
6.815000E-8	0.002250
6.820000E-8	0.002205
6.825000E-8	0.002130
6.830000E-8	0.001961
6.835000E-8	0.001939
6.840000E-8	0.001880
6.845000E-8	0.001822
6.850000E-8	0.001820
6.855000E-8	0.001823
6.860000E-8	0.001859
6.865000E-8	0.001980
6.870000E-8	0.002106
6.875000E-8	0.002220
6.880000E-8	0.002348
6.885000E-8	0.002484
6.890000E-8	0.002519
6.895000E-8	0.002584
6.900000E-8	0.002575
6.905000E-8	0.002519
6.910000E-8	0.002448
6.915000E-8	0.002316
6.920000E-8	0.002113
6.925000E-8	0.002009
6.930000E-8	0.001848
6.935000E-8	0.001716
6.940000E-8	0.001616
6.945000E-8	0.001591
6.950000E-8	0.001553
6.955000E-8	0.001511
6.960000E-8	0.001548
6.965000E-8	0.001628
6.970000E-8	0.001742
6.975000E-8	0.001927
6.980000E-8	0.001989
6.985000E-8	0.002095
6.990000E-8	0.002147
6.995000E-8	0.002180
7.000000E-8	0.002138
7.005000E-8	0.002083
7.010000E-8	0.002006
7.015000E-8	0.001908
7.020000E-8	0.001756
7.025000E-8	0.001730
7.030000E-8	0.001725
7.035000E-8	0.001775
7.040000E-8	0.001789
7.045000E-8	0.001817
7.050000E-8	0.001834
7.055000E-8	0.001877
7.060000E-8	0.001937
7.065000E-8	0.001958
7.070000E-8	0.001995
7.075000E-8	0.002030
7.080000E-8	0.002003
7.085000E-8	0.002050
7.090000E-8	0.002041
7.095000E-8	0.002105
7.100000E-8	0.002180
7.105000E-8	0.002175
7.110000E-8	0.002125
7.115000E-8	0.002127
7.120000E-8	0.002069
7.125000E-8	0.002042
7.130000E-8	0.002038
7.135000E-8	0.002044
7.140000E-8	0.002053
7.145000E-8	0.002034
7.150000E-8	0.002102
7.155000E-8	0.002170
7.160000E-8	0.002231
7.165000E-8	0.002345
7.170000E-8	0.002398
7.175000E-8	0.002500
7.180000E-8	0.002489
7.185000E-8	0.002530
7.190000E-8	0.002484
7.195000E-8	0.002439
7.200000E-8	0.002380
7.205000E-8	0.002353
7.210000E-8	0.002225
7.215000E-8	0.002106
7.220000E-8	0.002011
7.225000E-8	0.001863
7.230000E-8	0.001795
7.235000E-8	0.001738
7.240000E-8	0.001753
7.245000E-8	0.001805
7.250000E-8	0.001830
7.255000E-8	0.001958
7.260000E-8	0.002094
7.265000E-8	0.002203
7.270000E-8	0.002345
7.275000E-8	0.002388
7.280000E-8	0.002444
7.285000E-8	0.002417
7.290000E-8	0.002391
7.295000E-8	0.002298
7.300000E-8	0.002092
7.305000E-8	0.002012
7.310000E-8	0.001900
7.315000E-8	0.001672
7.320000E-8	0.001620
7.325000E-8	0.001550
7.330000E-8	0.001398
7.335000E-8	0.001383
7.340000E-8	0.001367
7.345000E-8	0.001391
7.350000E-8	0.001452
7.355000E-8	0.001545
7.360000E-8	0.001595
7.365000E-8	0.001805
7.370000E-8	0.001886
7.375000E-8	0.001997
7.380000E-8	0.002109
7.385000E-8	0.002186
7.390000E-8	0.002303
7.395000E-8	0.002409
7.400000E-8	0.002364
7.405000E-8	0.002427
7.410000E-8	0.002372
7.415000E-8	0.002298
7.420000E-8	0.002227
7.425000E-8	0.002092
7.430000E-8	0.001986
7.435000E-8	0.001948
7.440000E-8	0.001825
7.445000E-8	0.001797
7.450000E-8	0.001813
7.455000E-8	0.001830
7.460000E-8	0.001913
7.465000E-8	0.002072
7.470000E-8	0.002131
7.475000E-8	0.002294
7.480000E-8	0.002314
7.485000E-8	0.002409
7.490000E-8	0.002428
7.495000E-8	0.002416
7.500000E-8	0.002347
7.505000E-8	0.002261
7.510000E-8	0.002145
7.515000E-8	0.002022
7.520000E-8	0.001842
7.525000E-8	0.001778
7.530000E-8	0.001658
7.535000E-8	0.001678
7.540000E-8	0.001681
7.545000E-8	0.001795
7.550000E-8	0.001930
7.555000E-8	0.002086
7.560000E-8	0.002263
7.565000E-8	0.002391
7.570000E-8	0.002470
7.575000E-8	0.002534
7.580000E-8	0.002538
7.585000E-8	0.002486
7.590000E-8	0.002377
7.595000E-8	0.002294
7.600000E-8	0.002111
7.605000E-8	0.002016
7.610000E-8	0.001872
7.615000E-8	0.001759
7.620000E-8	0.001714
7.625000E-8	0.001627
7.630000E-8	0.001548
7.635000E-8	0.001534
7.640000E-8	0.001502
7.645000E-8	0.001602
7.650000E-8	0.001623
7.655000E-8	0.001788
7.660000E-8	0.001788
7.665000E-8	0.001903
7.670000E-8	0.001955
7.675000E-8	0.002014
7.680000E-8	0.002084
7.685000E-8	0.002194
7.690000E-8	0.002211
7.695000E-8	0.002188
7.700000E-8	0.002125
7.705000E-8	0.002114
7.710000E-8	0.001975
7.715000E-8	0.001945
7.720000E-8	0.001958
7.725000E-8	0.001856
7.730000E-8	0.001878
7.735000E-8	0.001909
7.740000E-8	0.001969
7.745000E-8	0.001973
7.750000E-8	0.002055
7.755000E-8	0.002155
7.760000E-8	0.002236
7.765000E-8	0.002309
7.770000E-8	0.002358
7.775000E-8	0.002345
7.780000E-8	0.002261
7.785000E-8	0.002191
7.790000E-8	0.002155
7.795000E-8	0.002078
7.800000E-8	0.002008
7.805000E-8	0.002034
7.810000E-8	0.002016
7.815000E-8	0.002048
7.820000E-8	0.002042
7.825000E-8	0.002122
7.830000E-8	0.002125
7.835000E-8	0.002166
7.840000E-8	0.002194
7.845000E-8	0.002244
7.850000E-8	0.002252
7.855000E-8	0.002214
7.860000E-8	0.002183
7.865000E-8	0.002138
7.870000E-8	0.002108
7.875000E-8	0.002066
7.880000E-8	0.002030
7.885000E-8	0.002064
7.890000E-8	0.001988
7.895000E-8	0.001969
7.900000E-8	0.002020
7.905000E-8	0.001945
7.910000E-8	0.001925
7.915000E-8	0.001886
7.920000E-8	0.001870
7.925000E-8	0.001814
7.930000E-8	0.001839
7.935000E-8	0.001831
7.940000E-8	0.001853
7.945000E-8	0.001942
7.950000E-8	0.002048
7.955000E-8	0.002152
7.960000E-8	0.002191
7.965000E-8	0.002311
7.970000E-8	0.002317
7.975000E-8	0.002386
7.980000E-8	0.002359
7.985000E-8	0.002309
7.990000E-8	0.002255
7.995000E-8	0.002103
8.000000E-8	0.001991
8.005000E-8	0.001933
8.010000E-8	0.001778
8.015000E-8	0.001772
8.020000E-8	0.001702
8.025000E-8	0.001727
8.030000E-8	0.001731
8.035000E-8	0.001777
8.040000E-8	0.001888
8.045000E-8	0.001958
8.050000E-8	0.002016
8.055000E-8	0.002155
8.060000E-8	0.002206
8.065000E-8	0.002317
8.070000E-8	0.002350
8.075000E-8	0.002314
8.080000E-8	0.002352
8.085000E-8	0.002330
8.090000E-8	0.002231
8.095000E-8	0.002162
8.100000E-8	0.002070
8.105000E-8	0.002012
8.110000E-8	0.001883
8.115000E-8	0.001820
8.120000E-8	0.001723
8.125000E-8	0.001719
8.130000E-8	0.001784
8.135000E-8	0.001825
8.140000E-8	0.001897
8.145000E-8	0.002050
8.150000E-8	0.002108
8.155000E-8	0.002191
8.160000E-8	0.002256
8.165000E-8	0.002336
8.170000E-8	0.002283
8.175000E-8	0.002247
8.180000E-8	0.002269
8.185000E-8	0.002166
8.190000E-8	0.002038
8.195000E-8	0.001927
8.200000E-8	0.001814
8.205000E-8	0.001781
8.210000E-8	0.001727
8.215000E-8	0.001733
8.220000E-8	0.001722
8.225000E-8	0.001803
8.230000E-8	0.001902
8.235000E-8	0.001977
8.240000E-8	0.002097
8.245000E-8	0.002133
8.250000E-8	0.002123
8.255000E-8	0.002159
8.260000E-8	0.002080
8.265000E-8	0.002094
8.270000E-8	0.002011
8.275000E-8	0.001959
8.280000E-8	0.001895
8.285000E-8	0.001881
8.290000E-8	0.001705
8.295000E-8	0.001720
8.300000E-8	0.001620
8.305000E-8	0.001639
8.310000E-8	0.001702
8.315000E-8	0.001805
8.320000E-8	0.001888
8.325000E-8	0.002083
8.330000E-8	0.002159
8.335000E-8	0.002250
8.340000E-8	0.002353
8.345000E-8	0.002334
8.350000E-8	0.002314
8.355000E-8	0.002327
8.360000E-8	0.002223
8.365000E-8	0.002245
8.370000E-8	0.002128
8.375000E-8	0.002095
8.380000E-8	0.002003
8.385000E-8	0.002008
8.390000E-8	0.002022
8.395000E-8	0.002030
8.400000E-8	0.002091
8.405000E-8	0.002136
8.410000E-8	0.002178
8.415000E-8	0.002225
8.420000E-8	0.002266
8.425000E-8	0.002294
8.430000E-8	0.002408
8.435000E-8	0.002389
8.440000E-8	0.002353
8.445000E-8	0.002303
8.450000E-8	0.002245
8.455000E-8	0.002128
8.460000E-8	0.002097
8.465000E-8	0.002030
8.470000E-8	0.001897
8.475000E-8	0.001933
8.480000E-8	0.001855
8.485000E-8	0.001848
8.490000E-8	0.001791
8.495000E-8	0.001852
8.500000E-8	0.001825
8.505000E-8	0.001844
8.510000E-8	0.001811
8.515000E-8	0.001852
8.520000E-8	0.001881
8.525000E-8	0.001864
8.530000E-8	0.001897
8.535000E-8	0.001942
8.540000E-8	0.002025
8.545000E-8	0.002036
8.550000E-8	0.002113
8.555000E-8	0.002144
8.560000E-8	0.002155
8.565000E-8	0.002162
8.570000E-8	0.002036
8.575000E-8	0.001947
8.580000E-8	0.001823
8.585000E-8	0.001686
8.590000E-8	0.001542
8.595000E-8	0.001533
8.600000E-8	0.001458
8.605000E-8	0.001505
8.610000E-8	0.001536
8.615000E-8	0.001625
8.620000E-8	0.001745
8.625000E-8	0.001845
8.630000E-8	0.001967
8.635000E-8	0.002084
8.640000E-8	0.002188
8.645000E-8	0.002328
8.650000E-8	0.002333
8.655000E-8	0.002370
8.660000E-8	0.002411
8.665000E-8	0.002358
8.670000E-8	0.002305
8.675000E-8	0.002206
8.680000E-8	0.002108
8.685000E-8	0.002036
8.690000E-8	0.001978
8.695000E-8	0.001927
8.700000E-8	0.001881
8.705000E-8	0.001811
8.710000E-8	0.001822
8.715000E-8	0.001817
8.720000E-8	0.001827
8.725000E-8	0.001830
8.730000E-8	0.001884
8.735000E-8	0.001930
8.740000E-8	0.001995
8.745000E-8	0.001986
8.750000E-8	0.002022
8.755000E-8	0.002070
8.760000E-8	0.001989
8.765000E-8	0.002019
8.770000E-8	0.001994
8.775000E-8	0.001964
8.780000E-8	0.001922
8.785000E-8	0.001917
8.790000E-8	0.001825
8.795000E-8	0.001838
8.800000E-8	0.001759
8.805000E-8	0.001825
8.810000E-8	0.001756
8.815000E-8	0.001788
8.820000E-8	0.001859
8.825000E-8	0.001859
8.830000E-8	0.001930
8.835000E-8	0.001895
8.840000E-8	0.001891
8.845000E-8	0.001877
8.850000E-8	0.001941
8.855000E-8	0.001988
8.860000E-8	0.001925
8.865000E-8	0.001988
8.870000E-8	0.002023
8.875000E-8	0.002070
8.880000E-8	0.002128
8.885000E-8	0.002233
8.890000E-8	0.002228
8.895000E-8	0.002294
8.900000E-8	0.002272
8.905000E-8	0.002236
8.910000E-8	0.002177
8.915000E-8	0.002136
8.920000E-8	0.002045
8.925000E-8	0.002047
8.930000E-8	0.001986
8.935000E-8	0.001983
8.940000E-8	0.002047
8.945000E-8	0.002095
8.950000E-8	0.002153
8.955000E-8	0.002219
8.960000E-8	0.002291
8.965000E-8	0.002323
8.970000E-8	0.002289
8.975000E-8	0.002309
8.980000E-8	0.002211
8.985000E-8	0.002169
8.990000E-8	0.002041
8.995000E-8	0.001927
9.000000E-8	0.001805
9.005000E-8	0.001781
9.010000E-8	0.001755
9.015000E-8	0.001772
9.020000E-8	0.001797
9.025000E-8	0.001855
9.030000E-8	0.001869
9.035000E-8	0.001853
9.040000E-8	0.001848
9.045000E-8	0.001880
9.050000E-8	0.001822
9.055000E-8	0.001739
9.060000E-8	0.001603
9.065000E-8	0.001563
9.070000E-8	0.001494
9.075000E-8	0.001481
9.080000E-8	0.001384
9.085000E-8	0.001455
9.090000E-8	0.001511
9.095000E-8	0.001589
9.100000E-8	0.001628
9.105000E-8	0.001781
9.110000E-8	0.001778
9.115000E-8	0.001916
9.120000E-8	0.001931
9.125000E-8	0.002000
9.130000E-8	0.002044
9.135000E-8	0.002047
9.140000E-8	0.001989
9.145000E-8	0.002036
9.150000E-8	0.002027
9.155000E-8	0.002008
9.160000E-8	0.001998
9.165000E-8	0.001984
9.170000E-8	0.001956
9.175000E-8	0.001945
9.180000E-8	0.001881
9.185000E-8	0.001819
9.190000E-8	0.001819
9.195000E-8	0.001763
9.200000E-8	0.001763
9.205000E-8	0.001705
9.210000E-8	0.001711
9.215000E-8	0.001703
9.220000E-8	0.001698
9.225000E-8	0.001697
9.230000E-8	0.001708
9.235000E-8	0.001727
9.240000E-8	0.001766
9.245000E-8	0.001861
9.250000E-8	0.001853
9.255000E-8	0.001881
9.260000E-8	0.001858
9.265000E-8	0.001841
9.270000E-8	0.001908
9.275000E-8	0.001877
9.280000E-8	0.001923
9.285000E-8	0.001964
9.290000E-8	0.001895
9.295000E-8	0.001922
9.300000E-8	0.001869
9.305000E-8	0.001950
9.310000E-8	0.001959
9.315000E-8	0.002083
9.320000E-8	0.002077
9.325000E-8	0.002159
9.330000E-8	0.002169
9.335000E-8	0.002270
9.340000E-8	0.002258
9.345000E-8	0.002213
9.350000E-8	0.002113
9.355000E-8	0.002092
9.360000E-8	0.001989
9.365000E-8	0.002033
9.370000E-8	0.001986
9.375000E-8	0.001967
9.380000E-8	0.001956
9.385000E-8	0.002097
9.390000E-8	0.002087
9.395000E-8	0.002217
9.400000E-8	0.002241
9.405000E-8	0.002339
9.410000E-8	0.002395
9.415000E-8	0.002472
9.420000E-8	0.002414
9.425000E-8	0.002388
9.430000E-8	0.002284
9.435000E-8	0.002220
9.440000E-8	0.002144
9.445000E-8	0.002019
9.450000E-8	0.002009
9.455000E-8	0.002014
9.460000E-8	0.001994
9.465000E-8	0.001950
9.470000E-8	0.001961
9.475000E-8	0.002012
9.480000E-8	0.002022
9.485000E-8	0.002061
9.490000E-8	0.002025
9.495000E-8	0.002034
9.500000E-8	0.001995
9.505000E-8	0.001997
9.510000E-8	0.001942
9.515000E-8	0.001950
9.520000E-8	0.001948
9.525000E-8	0.001980
9.530000E-8	0.001994
9.535000E-8	0.001955
9.540000E-8	0.001991
9.545000E-8	0.002030
9.550000E-8	0.002034
9.555000E-8	0.001989
9.560000E-8	0.001994
9.565000E-8	0.001913
9.570000E-8	0.001944
9.575000E-8	0.001928
9.580000E-8	0.001928
9.585000E-8	0.001994
9.590000E-8	0.002020
9.595000E-8	0.002092
9.600000E-8	0.002175
9.605000E-8	0.002236
9.610000E-8	0.002348
9.615000E-8	0.002363
9.620000E-8	0.002352
9.625000E-8	0.002366
9.630000E-8	0.002320
9.635000E-8	0.002327
9.640000E-8	0.002263
9.645000E-8	0.002159
9.650000E-8	0.002141
9.655000E-8	0.002106
9.660000E-8	0.002025
9.665000E-8	0.002058
9.670000E-8	0.002083
9.675000E-8	0.002052
9.680000E-8	0.002113
9.685000E-8	0.002209
9.690000E-8	0.002247
9.695000E-8	0.002256
9.700000E-8	0.002281
9.705000E-8	0.002316
9.710000E-8	0.002202
9.715000E-8	0.002239
9.720000E-8	0.002252
9.725000E-8	0.002250
9.730000E-8	0.002248
9.735000E-8	0.002245
9.740000E-8	0.002222
9.745000E-8	0.002181
9.750000E-8	0.002083
9.755000E-8	0.002009
9.760000E-8	0.001914
9.765000E-8	0.001909
9.770000E-8	0.001744
9.775000E-8	0.001763
9.780000E-8	0.001752
9.785000E-8	0.001744
9.790000E-8	0.001752
9.795000E-8	0.001816
9.800000E-8	0.001811
9.805000E-8	0.001852
9.810000E-8	0.001859
9.815000E-8	0.001931
9.820000E-8	0.001908
9.825000E-8	0.001908
9.830000E-8	0.001895
9.835000E-8	0.001861
9.840000E-8	0.001850
9.845000E-8	0.001831
9.850000E-8	0.001813
9.855000E-8	0.001775
9.860000E-8	0.001778
9.865000E-8	0.001723
9.870000E-8	0.001630
9.875000E-8	0.001691
9.880000E-8	0.001756
9.885000E-8	0.001769
9.890000E-8	0.001770
9.895000E-8	0.001850
9.900000E-8	0.001966
9.905000E-8	0.002048
9.910000E-8	0.002162
9.915000E-8	0.002247
9.920000E-8	0.002242
9.925000E-8	0.002294
9.930000E-8	0.002214
9.935000E-8	0.002173
9.940000E-8	0.002022
9.945000E-8	0.001939
9.950000E-8	0.001872
9.955000E-8	0.001819
9.960000E-8	0.001741
9.965000E-8	0.001689
9.970000E-8	0.001677
9.975000E-8	0.001633
9.980000E-8	0.001645
9.985000E-8	0.001663
9.990000E-8	0.001664
9.995000E-8	0.001708
