LabVIEW Measurement	
Writer_Version	2
Reader_Version	2
Separator	Tab
Decimal_Separator	.
Multi_Headings	No
X_Columns	Multi
Time_Pref	Relative
Operator	TG lab
Date	2015/03/06
Time	18:23:58.3830313682556152344
***End_of_Header***	
	
Channels	1	
Samples	2000	
Date	1903/12/31	
Time	19:00:00	
X_Dimension	Time	
X0	0.0000000000000000E+0	
Delta_X	5.000000E-11	
***End_of_Header***		
X_Value	Untitled	Comment
0.000000	0.001675
5.000000E-11	0.001741
1.000000E-10	0.001588
1.500000E-10	0.001628
2.000000E-10	0.001556
2.500000E-10	0.001666
3.000000E-10	0.001725
3.500000E-10	0.001828
4.000000E-10	0.001788
4.500000E-10	0.001788
5.000000E-10	0.001816
5.500000E-10	0.001850
6.000000E-10	0.001738
6.500000E-10	0.001741
7.000000E-10	0.001756
7.500000E-10	0.001772
8.000000E-10	0.001741
8.500000E-10	0.001822
9.000000E-10	0.001741
9.500000E-10	0.001878
1.000000E-9	0.001916
1.050000E-9	0.001850
1.100000E-9	0.001947
1.150000E-9	0.002016
1.200000E-9	0.001872
1.250000E-9	0.001834
1.300000E-9	0.001888
1.350000E-9	0.001931
1.400000E-9	0.001950
1.450000E-9	0.001909
1.500000E-9	0.001719
1.550000E-9	0.001775
1.600000E-9	0.001816
1.650000E-9	0.001825
1.700000E-9	0.001734
1.750000E-9	0.001703
1.800000E-9	0.001694
1.850000E-9	0.001675
1.900000E-9	0.001594
1.950000E-9	0.001550
2.000000E-9	0.001400
2.050000E-9	0.001494
2.100000E-9	0.001431
2.150000E-9	0.001372
2.200000E-9	0.001250
2.250000E-9	0.001341
2.300000E-9	0.001369
2.350000E-9	0.001384
2.400000E-9	0.001431
2.450000E-9	0.001491
2.500000E-9	0.001500
2.550000E-9	0.001619
2.600000E-9	0.001722
2.650000E-9	0.001678
2.700000E-9	0.001747
2.750000E-9	0.001612
2.800000E-9	0.001447
2.850000E-9	0.001463
2.900000E-9	0.001362
2.950000E-9	0.001478
3.000000E-9	0.001334
3.050000E-9	0.001331
3.100000E-9	0.001491
3.150000E-9	0.001441
3.200000E-9	0.001419
3.250000E-9	0.001419
3.300000E-9	0.001491
3.350000E-9	0.001575
3.400000E-9	0.001466
3.450000E-9	0.001444
3.500000E-9	0.001331
3.550000E-9	0.001419
3.600000E-9	0.001234
3.650000E-9	0.001284
3.700000E-9	0.001219
3.750000E-9	0.001109
3.800000E-9	0.001172
3.850000E-9	0.001241
3.900000E-9	0.001250
3.950000E-9	0.001406
4.000000E-9	0.001419
4.050000E-9	0.001481
4.100000E-9	0.001569
4.150000E-9	0.001631
4.200000E-9	0.001681
4.250000E-9	0.001775
4.300000E-9	0.001694
4.350000E-9	0.001844
4.400000E-9	0.002009
4.450000E-9	0.002222
4.500000E-9	0.002409
4.550000E-9	0.002734
4.600000E-9	0.003050
4.650000E-9	0.003478
4.700000E-9	0.003631
4.750000E-9	0.003619
4.800000E-9	0.003288
4.850000E-9	0.002572
4.900000E-9	0.001297
4.950000E-9	-0.000275
5.000000E-9	-0.002456
5.050000E-9	-0.005025
5.100000E-9	-0.007991
5.150000E-9	-0.010966
5.200000E-9	-0.014231
5.250000E-9	-0.017372
5.300000E-9	-0.020528
5.350000E-9	-0.023253
5.400000E-9	-0.025819
5.450000E-9	-0.027888
5.500000E-9	-0.029678
5.550000E-9	-0.030934
5.600000E-9	-0.031875
5.650000E-9	-0.032209
5.700000E-9	-0.032334
5.750000E-9	-0.032003
5.800000E-9	-0.031166
5.850000E-9	-0.030009
5.900000E-9	-0.028566
5.950000E-9	-0.026750
6.000000E-9	-0.024997
6.050000E-9	-0.023078
6.100000E-9	-0.021416
6.150000E-9	-0.019766
6.200000E-9	-0.018478
6.250000E-9	-0.017441
6.300000E-9	-0.016956
6.350000E-9	-0.016659
6.400000E-9	-0.016775
6.450000E-9	-0.017038
6.500000E-9	-0.017641
6.550000E-9	-0.018303
6.600000E-9	-0.019009
6.650000E-9	-0.019622
6.700000E-9	-0.020463
6.750000E-9	-0.021003
6.800000E-9	-0.021531
6.850000E-9	-0.021734
6.900000E-9	-0.022034
6.950000E-9	-0.022016
7.000000E-9	-0.021884
7.050000E-9	-0.021278
7.100000E-9	-0.020541
7.150000E-9	-0.019537
7.200000E-9	-0.018581
7.250000E-9	-0.017209
7.300000E-9	-0.015906
7.350000E-9	-0.014522
7.400000E-9	-0.013219
7.450000E-9	-0.012034
7.500000E-9	-0.011000
7.550000E-9	-0.010100
7.600000E-9	-0.009522
7.650000E-9	-0.009153
7.700000E-9	-0.009166
7.750000E-9	-0.009284
7.800000E-9	-0.009656
7.850000E-9	-0.010194
7.900000E-9	-0.010756
7.950000E-9	-0.011541
8.000000E-9	-0.012272
8.050000E-9	-0.012950
8.100000E-9	-0.013606
8.150000E-9	-0.013872
8.200000E-9	-0.014478
8.250000E-9	-0.014484
8.300000E-9	-0.014428
8.350000E-9	-0.014063
8.400000E-9	-0.013522
8.450000E-9	-0.012697
8.500000E-9	-0.011784
8.550000E-9	-0.010800
8.600000E-9	-0.009706
8.650000E-9	-0.008500
8.700000E-9	-0.007519
8.750000E-9	-0.006438
8.800000E-9	-0.005687
8.850000E-9	-0.005022
8.900000E-9	-0.004478
8.950000E-9	-0.004122
9.000000E-9	-0.004197
9.050000E-9	-0.004344
9.100000E-9	-0.004738
9.150000E-9	-0.005322
9.200000E-9	-0.006066
9.250000E-9	-0.006669
9.300000E-9	-0.007453
9.350000E-9	-0.008128
9.400000E-9	-0.008837
9.450000E-9	-0.009428
9.500000E-9	-0.009838
9.550000E-9	-0.010028
9.600000E-9	-0.010203
9.650000E-9	-0.010144
9.700000E-9	-0.009828
9.750000E-9	-0.009459
9.800000E-9	-0.008603
9.850000E-9	-0.007753
9.900000E-9	-0.006828
9.950000E-9	-0.005788
1.000000E-8	-0.004734
1.005000E-8	-0.003781
1.010000E-8	-0.003056
1.015000E-8	-0.002422
1.020000E-8	-0.001994
1.025000E-8	-0.001625
1.030000E-8	-0.001447
1.035000E-8	-0.001403
1.040000E-8	-0.001750
1.045000E-8	-0.002056
1.050000E-8	-0.002556
1.055000E-8	-0.003084
1.060000E-8	-0.003731
1.065000E-8	-0.004472
1.070000E-8	-0.005197
1.075000E-8	-0.005838
1.080000E-8	-0.006341
1.085000E-8	-0.006700
1.090000E-8	-0.007038
1.095000E-8	-0.007122
1.100000E-8	-0.007088
1.105000E-8	-0.006803
1.110000E-8	-0.006269
1.115000E-8	-0.005556
1.120000E-8	-0.004863
1.125000E-8	-0.004000
1.130000E-8	-0.003175
1.135000E-8	-0.002372
1.140000E-8	-0.001559
1.145000E-8	-0.000847
1.150000E-8	-0.000266
1.155000E-8	0.000125
1.160000E-8	0.000378
1.165000E-8	0.000513
1.170000E-8	0.000381
1.175000E-8	0.000000
1.180000E-8	-0.000537
1.185000E-8	-0.001159
1.190000E-8	-0.001828
1.195000E-8	-0.002578
1.200000E-8	-0.003459
1.205000E-8	-0.004141
1.210000E-8	-0.004847
1.215000E-8	-0.005216
1.220000E-8	-0.005578
1.225000E-8	-0.005706
1.230000E-8	-0.005719
1.235000E-8	-0.005481
1.240000E-8	-0.005138
1.245000E-8	-0.004631
1.250000E-8	-0.004013
1.255000E-8	-0.003219
1.260000E-8	-0.002538
1.265000E-8	-0.001734
1.270000E-8	-0.001072
1.275000E-8	-0.000284
1.280000E-8	0.000316
1.285000E-8	0.000875
1.290000E-8	0.001206
1.295000E-8	0.001419
1.300000E-8	0.001362
1.305000E-8	0.001209
1.310000E-8	0.000753
1.315000E-8	0.000306
1.320000E-8	-0.000412
1.325000E-8	-0.001081
1.330000E-8	-0.001941
1.335000E-8	-0.002675
1.340000E-8	-0.003341
1.345000E-8	-0.003788
1.350000E-8	-0.004213
1.355000E-8	-0.004431
1.360000E-8	-0.004513
1.365000E-8	-0.004359
1.370000E-8	-0.004028
1.375000E-8	-0.003578
1.380000E-8	-0.003038
1.385000E-8	-0.002263
1.390000E-8	-0.001431
1.395000E-8	-0.000591
1.400000E-8	9.687500E-5
1.405000E-8	0.000994
1.410000E-8	0.001706
1.415000E-8	0.002319
1.420000E-8	0.002772
1.425000E-8	0.003063
1.430000E-8	0.003059
1.435000E-8	0.002906
1.440000E-8	0.002563
1.445000E-8	0.002041
1.450000E-8	0.001297
1.455000E-8	0.000522
1.460000E-8	-0.000334
1.465000E-8	-0.001225
1.470000E-8	-0.002022
1.475000E-8	-0.002763
1.480000E-8	-0.003394
1.485000E-8	-0.003731
1.490000E-8	-0.004006
1.495000E-8	-0.004069
1.500000E-8	-0.003806
1.505000E-8	-0.003372
1.510000E-8	-0.002666
1.515000E-8	-0.001888
1.520000E-8	-0.001125
1.525000E-8	-0.000300
1.530000E-8	0.000563
1.535000E-8	0.001550
1.540000E-8	0.002213
1.545000E-8	0.002953
1.550000E-8	0.003263
1.555000E-8	0.003600
1.560000E-8	0.003659
1.565000E-8	0.003503
1.570000E-8	0.003138
1.575000E-8	0.002659
1.580000E-8	0.002009
1.585000E-8	0.001166
1.590000E-8	0.000256
1.595000E-8	-0.000484
1.600000E-8	-0.001269
1.605000E-8	-0.002009
1.610000E-8	-0.002619
1.615000E-8	-0.002972
1.620000E-8	-0.003203
1.625000E-8	-0.003162
1.630000E-8	-0.002913
1.635000E-8	-0.002484
1.640000E-8	-0.001772
1.645000E-8	-0.000988
1.650000E-8	-0.000106
1.655000E-8	0.000894
1.660000E-8	0.001838
1.665000E-8	0.002809
1.670000E-8	0.003478
1.675000E-8	0.004103
1.680000E-8	0.004469
1.685000E-8	0.004669
1.690000E-8	0.004613
1.695000E-8	0.004484
1.700000E-8	0.004006
1.705000E-8	0.003444
1.710000E-8	0.002581
1.715000E-8	0.001741
1.720000E-8	0.000816
1.725000E-8	-5.000000E-5
1.730000E-8	-0.000872
1.735000E-8	-0.001506
1.740000E-8	-0.002047
1.745000E-8	-0.002444
1.750000E-8	-0.002566
1.755000E-8	-0.002587
1.760000E-8	-0.002381
1.765000E-8	-0.002116
1.770000E-8	-0.001672
1.775000E-8	-0.000953
1.780000E-8	-0.000272
1.785000E-8	0.000641
1.790000E-8	0.001472
1.795000E-8	0.002284
1.800000E-8	0.002784
1.805000E-8	0.003341
1.810000E-8	0.003747
1.815000E-8	0.004106
1.820000E-8	0.004228
1.825000E-8	0.004112
1.830000E-8	0.003709
1.835000E-8	0.003350
1.840000E-8	0.002662
1.845000E-8	0.001963
1.850000E-8	0.001094
1.855000E-8	0.000131
1.860000E-8	-0.000688
1.865000E-8	-0.001369
1.870000E-8	-0.001844
1.875000E-8	-0.002125
1.880000E-8	-0.002384
1.885000E-8	-0.002291
1.890000E-8	-0.001994
1.895000E-8	-0.001444
1.900000E-8	-0.000869
1.905000E-8	-0.000209
1.910000E-8	0.000581
1.915000E-8	0.001381
1.920000E-8	0.002009
1.925000E-8	0.002647
1.930000E-8	0.003178
1.935000E-8	0.003797
1.940000E-8	0.004141
1.945000E-8	0.004369
1.950000E-8	0.004294
1.955000E-8	0.004237
1.960000E-8	0.004016
1.965000E-8	0.003538
1.970000E-8	0.002963
1.975000E-8	0.002384
1.980000E-8	0.001566
1.985000E-8	0.000891
1.990000E-8	4.687500E-5
1.995000E-8	-0.000603
2.000000E-8	-0.001131
2.005000E-8	-0.001456
2.010000E-8	-0.001803
2.015000E-8	-0.001687
2.020000E-8	-0.001594
2.025000E-8	-0.001072
2.030000E-8	-0.000625
2.035000E-8	-9.375000E-5
2.040000E-8	0.000550
2.045000E-8	0.001238
2.050000E-8	0.001781
2.055000E-8	0.002356
2.060000E-8	0.002959
2.065000E-8	0.003541
2.070000E-8	0.003881
2.075000E-8	0.004075
2.080000E-8	0.004197
2.085000E-8	0.004075
2.090000E-8	0.003831
2.095000E-8	0.003497
2.100000E-8	0.002875
2.105000E-8	0.002388
2.110000E-8	0.001638
2.115000E-8	0.000906
2.120000E-8	0.000309
2.125000E-8	-0.000203
2.130000E-8	-0.000672
2.135000E-8	-0.001006
2.140000E-8	-0.001322
2.145000E-8	-0.001284
2.150000E-8	-0.001353
2.155000E-8	-0.000994
2.160000E-8	-0.000694
2.165000E-8	-0.000228
2.170000E-8	0.000344
2.175000E-8	0.001069
2.180000E-8	0.001741
2.185000E-8	0.002378
2.190000E-8	0.003053
2.195000E-8	0.003594
2.200000E-8	0.003863
2.205000E-8	0.004181
2.210000E-8	0.004325
2.215000E-8	0.004284
2.220000E-8	0.004119
2.225000E-8	0.003875
2.230000E-8	0.003325
2.235000E-8	0.002775
2.240000E-8	0.002156
2.245000E-8	0.001569
2.250000E-8	0.000972
2.255000E-8	0.000375
2.260000E-8	-0.000253
2.265000E-8	-0.000672
2.270000E-8	-0.001081
2.275000E-8	-0.001397
2.280000E-8	-0.001416
2.285000E-8	-0.001266
2.290000E-8	-0.000913
2.295000E-8	-0.000475
2.300000E-8	-0.000128
2.305000E-8	0.000459
2.310000E-8	0.001075
2.315000E-8	0.001859
2.320000E-8	0.002619
2.325000E-8	0.003225
2.330000E-8	0.003616
2.335000E-8	0.003966
2.340000E-8	0.004284
2.345000E-8	0.004328
2.350000E-8	0.004081
2.355000E-8	0.003962
2.360000E-8	0.003438
2.365000E-8	0.003025
2.370000E-8	0.002422
2.375000E-8	0.001778
2.380000E-8	0.001012
2.385000E-8	0.000444
2.390000E-8	-0.000266
2.395000E-8	-0.000766
2.400000E-8	-0.001156
2.405000E-8	-0.001509
2.410000E-8	-0.001578
2.415000E-8	-0.001466
2.420000E-8	-0.001225
2.425000E-8	-0.000678
2.430000E-8	-0.000125
2.435000E-8	0.000544
2.440000E-8	0.001222
2.445000E-8	0.002031
2.450000E-8	0.002634
2.455000E-8	0.003309
2.460000E-8	0.003775
2.465000E-8	0.004087
2.470000E-8	0.004353
2.475000E-8	0.004453
2.480000E-8	0.004469
2.485000E-8	0.004219
2.490000E-8	0.003803
2.495000E-8	0.003341
2.500000E-8	0.002834
2.505000E-8	0.002322
2.510000E-8	0.001478
2.515000E-8	0.000913
2.520000E-8	0.000269
2.525000E-8	-0.000319
2.530000E-8	-0.000663
2.535000E-8	-0.000884
2.540000E-8	-0.001084
2.545000E-8	-0.001038
2.550000E-8	-0.000881
2.555000E-8	-0.000491
2.560000E-8	1.562500E-5
2.565000E-8	0.000713
2.570000E-8	0.001322
2.575000E-8	0.002056
2.580000E-8	0.002828
2.585000E-8	0.003497
2.590000E-8	0.003941
2.595000E-8	0.004497
2.600000E-8	0.004603
2.605000E-8	0.004725
2.610000E-8	0.004638
2.615000E-8	0.004384
2.620000E-8	0.004000
2.625000E-8	0.003416
2.630000E-8	0.002781
2.635000E-8	0.001956
2.640000E-8	0.001294
2.645000E-8	0.000619
2.650000E-8	1.250000E-5
2.655000E-8	-0.000641
2.660000E-8	-0.000959
2.665000E-8	-0.001041
2.670000E-8	-0.001112
2.675000E-8	-0.000988
2.680000E-8	-0.000734
2.685000E-8	-0.000244
2.690000E-8	0.000209
2.695000E-8	0.000928
2.700000E-8	0.001372
2.705000E-8	0.002159
2.710000E-8	0.002753
2.715000E-8	0.003334
2.720000E-8	0.003888
2.725000E-8	0.004206
2.730000E-8	0.004425
2.735000E-8	0.004494
2.740000E-8	0.004444
2.745000E-8	0.004200
2.750000E-8	0.003822
2.755000E-8	0.003294
2.760000E-8	0.002619
2.765000E-8	0.002038
2.770000E-8	0.001294
2.775000E-8	0.000784
2.780000E-8	0.000184
2.785000E-8	-0.000247
2.790000E-8	-0.000481
2.795000E-8	-0.000609
2.800000E-8	-0.000681
2.805000E-8	-0.000475
2.810000E-8	-0.000241
2.815000E-8	0.000197
2.820000E-8	0.000644
2.825000E-8	0.001228
2.830000E-8	0.001675
2.835000E-8	0.002288
2.840000E-8	0.002828
2.845000E-8	0.003331
2.850000E-8	0.003616
2.855000E-8	0.003959
2.860000E-8	0.004169
2.865000E-8	0.004184
2.870000E-8	0.004169
2.875000E-8	0.003975
2.880000E-8	0.003725
2.885000E-8	0.003256
2.890000E-8	0.002681
2.895000E-8	0.002294
2.900000E-8	0.001709
2.905000E-8	0.001209
2.910000E-8	0.000647
2.915000E-8	0.000266
2.920000E-8	-0.000128
2.925000E-8	-0.000463
2.930000E-8	-0.000728
2.935000E-8	-0.000719
2.940000E-8	-0.000566
2.945000E-8	-0.000406
2.950000E-8	1.562500E-5
2.955000E-8	0.000506
2.960000E-8	0.001041
2.965000E-8	0.001675
2.970000E-8	0.002175
2.975000E-8	0.002791
2.980000E-8	0.003200
2.985000E-8	0.003663
2.990000E-8	0.003813
2.995000E-8	0.003894
3.000000E-8	0.003747
3.005000E-8	0.003672
3.010000E-8	0.003328
3.015000E-8	0.002897
3.020000E-8	0.002216
3.025000E-8	0.001731
3.030000E-8	0.001191
3.035000E-8	0.000759
3.040000E-8	0.000231
3.045000E-8	-6.875000E-5
3.050000E-8	-0.000322
3.055000E-8	-0.000553
3.060000E-8	-0.000656
3.065000E-8	-0.000503
3.070000E-8	-0.000287
3.075000E-8	-9.375000E-6
3.080000E-8	0.000278
3.085000E-8	0.000791
3.090000E-8	0.001138
3.095000E-8	0.001703
3.100000E-8	0.002256
3.105000E-8	0.002869
3.110000E-8	0.003109
3.115000E-8	0.003516
3.120000E-8	0.003763
3.125000E-8	0.004000
3.130000E-8	0.004031
3.135000E-8	0.003866
3.140000E-8	0.003697
3.145000E-8	0.003372
3.150000E-8	0.002956
3.155000E-8	0.002566
3.160000E-8	0.002012
3.165000E-8	0.001547
3.170000E-8	0.001009
3.175000E-8	0.000684
3.180000E-8	0.000141
3.185000E-8	-4.375000E-5
3.190000E-8	-0.000191
3.195000E-8	-0.000313
3.200000E-8	-0.000284
3.205000E-8	-0.000150
3.210000E-8	0.000125
3.215000E-8	0.000591
3.220000E-8	0.000991
3.225000E-8	0.001484
3.230000E-8	0.001859
3.235000E-8	0.002322
3.240000E-8	0.002659
3.245000E-8	0.003056
3.250000E-8	0.003353
3.255000E-8	0.003603
3.260000E-8	0.003628
3.265000E-8	0.003538
3.270000E-8	0.003353
3.275000E-8	0.003156
3.280000E-8	0.002625
3.285000E-8	0.002275
3.290000E-8	0.001794
3.295000E-8	0.001281
3.300000E-8	0.000984
3.305000E-8	0.000438
3.310000E-8	-0.000150
3.315000E-8	-0.000412
3.320000E-8	-0.000553
3.325000E-8	-0.000656
3.330000E-8	-0.000703
3.335000E-8	-0.000425
3.340000E-8	-0.000122
3.345000E-8	0.000291
3.350000E-8	0.000766
3.355000E-8	0.001272
3.360000E-8	0.001825
3.365000E-8	0.002294
3.370000E-8	0.002763
3.375000E-8	0.003353
3.380000E-8	0.003666
3.385000E-8	0.003859
3.390000E-8	0.003931
3.395000E-8	0.003888
3.400000E-8	0.003791
3.405000E-8	0.003528
3.410000E-8	0.003084
3.415000E-8	0.002641
3.420000E-8	0.002113
3.425000E-8	0.001675
3.430000E-8	0.001144
3.435000E-8	0.000716
3.440000E-8	0.000331
3.445000E-8	-6.250000E-6
3.450000E-8	-0.000219
3.455000E-8	-0.000181
3.460000E-8	-0.000303
3.465000E-8	-0.000213
3.470000E-8	9.375000E-6
3.475000E-8	0.000356
3.480000E-8	0.000647
3.485000E-8	0.001272
3.490000E-8	0.001678
3.495000E-8	0.002241
3.500000E-8	0.002716
3.505000E-8	0.003231
3.510000E-8	0.003478
3.515000E-8	0.003763
3.520000E-8	0.003997
3.525000E-8	0.003894
3.530000E-8	0.003766
3.535000E-8	0.003525
3.540000E-8	0.003159
3.545000E-8	0.002869
3.550000E-8	0.002263
3.555000E-8	0.001769
3.560000E-8	0.001153
3.565000E-8	0.000813
3.570000E-8	0.000278
3.575000E-8	-0.000103
3.580000E-8	-0.000347
3.585000E-8	-0.000425
3.590000E-8	-0.000431
3.595000E-8	-0.000203
3.600000E-8	-0.000225
3.605000E-8	0.000141
3.610000E-8	0.000569
3.615000E-8	0.001116
3.620000E-8	0.001506
3.625000E-8	0.001953
3.630000E-8	0.002600
3.635000E-8	0.003069
3.640000E-8	0.003359
3.645000E-8	0.003600
3.650000E-8	0.003759
3.655000E-8	0.003913
3.660000E-8	0.003734
3.665000E-8	0.003600
3.670000E-8	0.003119
3.675000E-8	0.002769
3.680000E-8	0.002213
3.685000E-8	0.001750
3.690000E-8	0.001153
3.695000E-8	0.000653
3.700000E-8	0.000188
3.705000E-8	-9.687500E-5
3.710000E-8	-0.000256
3.715000E-8	-0.000388
3.720000E-8	-0.000478
3.725000E-8	-0.000244
3.730000E-8	6.562500E-5
3.735000E-8	0.000466
3.740000E-8	0.000747
3.745000E-8	0.001391
3.750000E-8	0.001847
3.755000E-8	0.002381
3.760000E-8	0.002878
3.765000E-8	0.003125
3.770000E-8	0.003428
3.775000E-8	0.003644
3.780000E-8	0.003747
3.785000E-8	0.003722
3.790000E-8	0.003609
3.795000E-8	0.003400
3.800000E-8	0.002991
3.805000E-8	0.002597
3.810000E-8	0.002178
3.815000E-8	0.001756
3.820000E-8	0.001294
3.825000E-8	0.000828
3.830000E-8	0.000500
3.835000E-8	0.000263
3.840000E-8	9.375000E-6
3.845000E-8	-9.687500E-5
3.850000E-8	-0.000134
3.855000E-8	9.375000E-6
3.860000E-8	0.000253
3.865000E-8	0.000519
3.870000E-8	0.000869
3.875000E-8	0.001297
3.880000E-8	0.001697
3.885000E-8	0.002166
3.890000E-8	0.002516
3.895000E-8	0.003034
3.900000E-8	0.003291
3.905000E-8	0.003538
3.910000E-8	0.003644
3.915000E-8	0.003650
3.920000E-8	0.003456
3.925000E-8	0.003297
3.930000E-8	0.003012
3.935000E-8	0.002650
3.940000E-8	0.002172
3.945000E-8	0.001791
3.950000E-8	0.001234
3.955000E-8	0.000978
3.960000E-8	0.000591
3.965000E-8	0.000444
3.970000E-8	0.000125
3.975000E-8	5.000000E-5
3.980000E-8	-3.437500E-5
3.985000E-8	6.875000E-5
3.990000E-8	0.000319
3.995000E-8	0.000531
4.000000E-8	0.000781
4.005000E-8	0.001150
4.010000E-8	0.001619
4.015000E-8	0.001897
4.020000E-8	0.002303
4.025000E-8	0.002609
4.030000E-8	0.002875
4.035000E-8	0.003141
4.040000E-8	0.003341
4.045000E-8	0.003516
4.050000E-8	0.003469
4.055000E-8	0.003441
4.060000E-8	0.003197
4.065000E-8	0.002913
4.070000E-8	0.002703
4.075000E-8	0.002338
4.080000E-8	0.001963
4.085000E-8	0.001569
4.090000E-8	0.001134
4.095000E-8	0.000838
4.100000E-8	0.000563
4.105000E-8	0.000503
4.110000E-8	0.000347
4.115000E-8	0.000469
4.120000E-8	0.000541
4.125000E-8	0.000838
4.130000E-8	0.001050
4.135000E-8	0.001409
4.140000E-8	0.001784
4.145000E-8	0.002144
4.150000E-8	0.002434
4.155000E-8	0.002831
4.160000E-8	0.003113
4.165000E-8	0.003291
4.170000E-8	0.003491
4.175000E-8	0.003547
4.180000E-8	0.003597
4.185000E-8	0.003603
4.190000E-8	0.003356
4.195000E-8	0.003084
4.200000E-8	0.002831
4.205000E-8	0.002444
4.210000E-8	0.001872
4.215000E-8	0.001588
4.220000E-8	0.001213
4.225000E-8	0.000950
4.230000E-8	0.000575
4.235000E-8	0.000509
4.240000E-8	0.000394
4.245000E-8	0.000344
4.250000E-8	0.000438
4.255000E-8	0.000597
4.260000E-8	0.000578
4.265000E-8	0.000900
4.270000E-8	0.001069
4.275000E-8	0.001456
4.280000E-8	0.001794
4.285000E-8	0.002209
4.290000E-8	0.002366
4.295000E-8	0.002641
4.300000E-8	0.002753
4.305000E-8	0.002969
4.310000E-8	0.003012
4.315000E-8	0.003069
4.320000E-8	0.002909
4.325000E-8	0.002784
4.330000E-8	0.002503
4.335000E-8	0.002150
4.340000E-8	0.001909
4.345000E-8	0.001513
4.350000E-8	0.001044
4.355000E-8	0.000753
4.360000E-8	0.000428
4.365000E-8	0.000272
4.370000E-8	0.000100
4.375000E-8	8.750000E-5
4.380000E-8	0.000206
4.385000E-8	0.000353
4.390000E-8	0.000516
4.395000E-8	0.000719
4.400000E-8	0.001106
4.405000E-8	0.001616
4.410000E-8	0.001969
4.415000E-8	0.002403
4.420000E-8	0.002828
4.425000E-8	0.003178
4.430000E-8	0.003319
4.435000E-8	0.003488
4.440000E-8	0.003509
4.445000E-8	0.003422
4.450000E-8	0.003294
4.455000E-8	0.003069
4.460000E-8	0.002778
4.465000E-8	0.002459
4.470000E-8	0.002103
4.475000E-8	0.001756
4.480000E-8	0.001319
4.485000E-8	0.001025
4.490000E-8	0.000775
4.495000E-8	0.000588
4.500000E-8	0.000497
4.505000E-8	0.000391
4.510000E-8	0.000491
4.515000E-8	0.000688
4.520000E-8	0.000734
4.525000E-8	0.000931
4.530000E-8	0.001150
4.535000E-8	0.001741
4.540000E-8	0.002053
4.545000E-8	0.002416
4.550000E-8	0.002650
4.555000E-8	0.003116
4.560000E-8	0.003328
4.565000E-8	0.003563
4.570000E-8	0.003569
4.575000E-8	0.003584
4.580000E-8	0.003509
4.585000E-8	0.003222
4.590000E-8	0.002916
4.595000E-8	0.002666
4.600000E-8	0.002253
4.605000E-8	0.001850
4.610000E-8	0.001409
4.615000E-8	0.001125
4.620000E-8	0.000859
4.625000E-8	0.000703
4.630000E-8	0.000453
4.635000E-8	0.000363
4.640000E-8	0.000300
4.645000E-8	0.000472
4.650000E-8	0.000609
4.655000E-8	0.000831
4.660000E-8	0.001016
4.665000E-8	0.001309
4.670000E-8	0.001584
4.675000E-8	0.001984
4.680000E-8	0.002263
4.685000E-8	0.002534
4.690000E-8	0.002725
4.695000E-8	0.003072
4.700000E-8	0.003153
4.705000E-8	0.003406
4.710000E-8	0.003416
4.715000E-8	0.003272
4.720000E-8	0.003012
4.725000E-8	0.002784
4.730000E-8	0.002425
4.735000E-8	0.002069
4.740000E-8	0.001697
4.745000E-8	0.001369
4.750000E-8	0.001006
4.755000E-8	0.000706
4.760000E-8	0.000475
4.765000E-8	0.000416
4.770000E-8	0.000366
4.775000E-8	0.000491
4.780000E-8	0.000688
4.785000E-8	0.000831
4.790000E-8	0.001103
4.795000E-8	0.001384
4.800000E-8	0.001616
4.805000E-8	0.001966
4.810000E-8	0.002247
4.815000E-8	0.002491
4.820000E-8	0.002591
4.825000E-8	0.002753
4.830000E-8	0.002816
4.835000E-8	0.002866
4.840000E-8	0.002697
4.845000E-8	0.002587
4.850000E-8	0.002359
4.855000E-8	0.002241
4.860000E-8	0.002016
4.865000E-8	0.001800
4.870000E-8	0.001428
4.875000E-8	0.001266
4.880000E-8	0.001150
4.885000E-8	0.001106
4.890000E-8	0.000872
4.895000E-8	0.000806
4.900000E-8	0.000741
4.905000E-8	0.000666
4.910000E-8	0.000703
4.915000E-8	0.000941
4.920000E-8	0.001178
4.925000E-8	0.001369
4.930000E-8	0.001659
4.935000E-8	0.002022
4.940000E-8	0.002250
4.945000E-8	0.002575
4.950000E-8	0.002797
4.955000E-8	0.002988
4.960000E-8	0.003072
4.965000E-8	0.003128
4.970000E-8	0.003012
4.975000E-8	0.002891
4.980000E-8	0.002719
4.985000E-8	0.002572
4.990000E-8	0.002341
4.995000E-8	0.002053
5.000000E-8	0.001813
5.005000E-8	0.001675
5.010000E-8	0.001347
5.015000E-8	0.001166
5.020000E-8	0.001063
5.025000E-8	0.000991
5.030000E-8	0.000841
5.035000E-8	0.000734
5.040000E-8	0.000775
5.045000E-8	0.000813
5.050000E-8	0.001000
5.055000E-8	0.001184
5.060000E-8	0.001431
5.065000E-8	0.001684
5.070000E-8	0.001925
5.075000E-8	0.002263
5.080000E-8	0.002391
5.085000E-8	0.002563
5.090000E-8	0.002728
5.095000E-8	0.002934
5.100000E-8	0.002869
5.105000E-8	0.002756
5.110000E-8	0.002584
5.115000E-8	0.002472
5.120000E-8	0.002384
5.125000E-8	0.002241
5.130000E-8	0.001866
5.135000E-8	0.001681
5.140000E-8	0.001572
5.145000E-8	0.001325
5.150000E-8	0.001116
5.155000E-8	0.001022
5.160000E-8	0.000963
5.165000E-8	0.000963
5.170000E-8	0.000994
5.175000E-8	0.001206
5.180000E-8	0.001344
5.185000E-8	0.001591
5.190000E-8	0.001769
5.195000E-8	0.002141
5.200000E-8	0.002297
5.205000E-8	0.002691
5.210000E-8	0.002759
5.215000E-8	0.002853
5.220000E-8	0.002925
5.225000E-8	0.003041
5.230000E-8	0.002947
5.235000E-8	0.002903
5.240000E-8	0.002581
5.245000E-8	0.002531
5.250000E-8	0.002350
5.255000E-8	0.002087
5.260000E-8	0.001747
5.265000E-8	0.001463
5.270000E-8	0.001309
5.275000E-8	0.001125
5.280000E-8	0.001081
5.285000E-8	0.000978
5.290000E-8	0.000825
5.295000E-8	0.000963
5.300000E-8	0.001003
5.305000E-8	0.001009
5.310000E-8	0.001222
5.315000E-8	0.001375
5.320000E-8	0.001472
5.325000E-8	0.001591
5.330000E-8	0.001728
5.335000E-8	0.001994
5.340000E-8	0.002225
5.345000E-8	0.002437
5.350000E-8	0.002497
5.355000E-8	0.002719
5.360000E-8	0.002850
5.365000E-8	0.002816
5.370000E-8	0.002725
5.375000E-8	0.002638
5.380000E-8	0.002519
5.385000E-8	0.002378
5.390000E-8	0.002109
5.395000E-8	0.001956
5.400000E-8	0.001638
5.405000E-8	0.001366
5.410000E-8	0.001138
5.415000E-8	0.000975
5.420000E-8	0.000844
5.425000E-8	0.000891
5.430000E-8	0.000872
5.435000E-8	0.001053
5.440000E-8	0.001072
5.445000E-8	0.001338
5.450000E-8	0.001450
5.455000E-8	0.001716
5.460000E-8	0.002006
5.465000E-8	0.002191
5.470000E-8	0.002397
5.475000E-8	0.002656
5.480000E-8	0.002753
5.485000E-8	0.002878
5.490000E-8	0.002869
5.495000E-8	0.003038
5.500000E-8	0.002963
5.505000E-8	0.002828
5.510000E-8	0.002756
5.515000E-8	0.002531
5.520000E-8	0.002297
5.525000E-8	0.002028
5.530000E-8	0.001638
5.535000E-8	0.001419
5.540000E-8	0.001138
5.545000E-8	0.001044
5.550000E-8	0.000922
5.555000E-8	0.000806
5.560000E-8	0.000781
5.565000E-8	0.000897
5.570000E-8	0.000938
5.575000E-8	0.001112
5.580000E-8	0.001256
5.585000E-8	0.001522
5.590000E-8	0.001553
5.595000E-8	0.001781
5.600000E-8	0.002153
5.605000E-8	0.002300
5.610000E-8	0.002459
5.615000E-8	0.002609
5.620000E-8	0.002706
5.625000E-8	0.002838
5.630000E-8	0.002716
5.635000E-8	0.002725
5.640000E-8	0.002466
5.645000E-8	0.002316
5.650000E-8	0.002081
5.655000E-8	0.001956
5.660000E-8	0.001722
5.665000E-8	0.001591
5.670000E-8	0.001300
5.675000E-8	0.001269
5.680000E-8	0.001128
5.685000E-8	0.001069
5.690000E-8	0.001106
5.695000E-8	0.001131
5.700000E-8	0.001134
5.705000E-8	0.001138
5.710000E-8	0.001159
5.715000E-8	0.001378
5.720000E-8	0.001491
5.725000E-8	0.001913
5.730000E-8	0.002141
5.735000E-8	0.002353
5.740000E-8	0.002522
5.745000E-8	0.002716
5.750000E-8	0.002750
5.755000E-8	0.002809
5.760000E-8	0.002859
5.765000E-8	0.002856
5.770000E-8	0.002594
5.775000E-8	0.002506
5.780000E-8	0.002409
5.785000E-8	0.002256
5.790000E-8	0.001994
5.795000E-8	0.001813
5.800000E-8	0.001475
5.805000E-8	0.001372
5.810000E-8	0.001144
5.815000E-8	0.000956
5.820000E-8	0.000781
5.825000E-8	0.000797
5.830000E-8	0.000825
5.835000E-8	0.000928
5.840000E-8	0.001047
5.845000E-8	0.001216
5.850000E-8	0.001366
5.855000E-8	0.001616
5.860000E-8	0.001734
5.865000E-8	0.001975
5.870000E-8	0.002100
5.875000E-8	0.002381
5.880000E-8	0.002294
5.885000E-8	0.002572
5.890000E-8	0.002672
5.895000E-8	0.002659
5.900000E-8	0.002472
5.905000E-8	0.002388
5.910000E-8	0.002203
5.915000E-8	0.002100
5.920000E-8	0.001925
5.925000E-8	0.001709
5.930000E-8	0.001509
5.935000E-8	0.001388
5.940000E-8	0.001194
5.945000E-8	0.000972
5.950000E-8	0.000988
5.955000E-8	0.001097
5.960000E-8	0.001072
5.965000E-8	0.001163
5.970000E-8	0.001284
5.975000E-8	0.001481
5.980000E-8	0.001772
5.985000E-8	0.001809
5.990000E-8	0.001972
5.995000E-8	0.002156
6.000000E-8	0.002437
6.005000E-8	0.002494
6.010000E-8	0.002569
6.015000E-8	0.002587
6.020000E-8	0.002594
6.025000E-8	0.002544
6.030000E-8	0.002525
6.035000E-8	0.002447
6.040000E-8	0.002325
6.045000E-8	0.002244
6.050000E-8	0.002028
6.055000E-8	0.001869
6.060000E-8	0.001584
6.065000E-8	0.001553
6.070000E-8	0.001322
6.075000E-8	0.001231
6.080000E-8	0.001175
6.085000E-8	0.001309
6.090000E-8	0.001384
6.095000E-8	0.001481
6.100000E-8	0.001591
6.105000E-8	0.001784
6.110000E-8	0.002003
6.115000E-8	0.002094
6.120000E-8	0.002253
6.125000E-8	0.002372
6.130000E-8	0.002522
6.135000E-8	0.002669
6.140000E-8	0.002669
6.145000E-8	0.002669
6.150000E-8	0.002672
6.155000E-8	0.002734
6.160000E-8	0.002566
6.165000E-8	0.002428
6.170000E-8	0.002184
6.175000E-8	0.001981
6.180000E-8	0.001800
6.185000E-8	0.001528
6.190000E-8	0.001469
6.195000E-8	0.001263
6.200000E-8	0.001078
6.205000E-8	0.000963
6.210000E-8	0.000928
6.215000E-8	0.000922
6.220000E-8	0.000947
6.225000E-8	0.001053
6.230000E-8	0.001175
6.235000E-8	0.001494
6.240000E-8	0.001594
6.245000E-8	0.001794
6.250000E-8	0.001891
6.255000E-8	0.002247
6.260000E-8	0.002316
6.265000E-8	0.002553
6.270000E-8	0.002694
6.275000E-8	0.002791
6.280000E-8	0.002781
6.285000E-8	0.002753
6.290000E-8	0.002659
6.295000E-8	0.002541
6.300000E-8	0.002525
6.305000E-8	0.002409
6.310000E-8	0.002144
6.315000E-8	0.001928
6.320000E-8	0.001700
6.325000E-8	0.001481
6.330000E-8	0.001291
6.335000E-8	0.001106
6.340000E-8	0.000959
6.345000E-8	0.000897
6.350000E-8	0.000922
6.355000E-8	0.001044
6.360000E-8	0.001297
6.365000E-8	0.001544
6.370000E-8	0.001706
6.375000E-8	0.002000
6.380000E-8	0.002087
6.385000E-8	0.002372
6.390000E-8	0.002525
6.395000E-8	0.002641
6.400000E-8	0.002541
6.405000E-8	0.002594
6.410000E-8	0.002459
6.415000E-8	0.002378
6.420000E-8	0.002244
6.425000E-8	0.002237
6.430000E-8	0.002075
6.435000E-8	0.002056
6.440000E-8	0.001959
6.445000E-8	0.001941
6.450000E-8	0.001675
6.455000E-8	0.001666
6.460000E-8	0.001581
6.465000E-8	0.001513
6.470000E-8	0.001328
6.475000E-8	0.001209
6.480000E-8	0.001053
6.485000E-8	0.001181
6.490000E-8	0.001153
6.495000E-8	0.001338
6.500000E-8	0.001494
6.505000E-8	0.001628
6.510000E-8	0.001831
6.515000E-8	0.002081
6.520000E-8	0.002194
6.525000E-8	0.002359
6.530000E-8	0.002434
6.535000E-8	0.002450
6.540000E-8	0.002447
6.545000E-8	0.002478
6.550000E-8	0.002347
6.555000E-8	0.002213
6.560000E-8	0.002150
6.565000E-8	0.002003
6.570000E-8	0.001784
6.575000E-8	0.001687
6.580000E-8	0.001553
6.585000E-8	0.001422
6.590000E-8	0.001356
6.595000E-8	0.001266
6.600000E-8	0.001359
6.605000E-8	0.001403
6.610000E-8	0.001437
6.615000E-8	0.001528
6.620000E-8	0.001544
6.625000E-8	0.001800
6.630000E-8	0.001725
6.635000E-8	0.001813
6.640000E-8	0.002097
6.645000E-8	0.002209
6.650000E-8	0.002288
6.655000E-8	0.002425
6.660000E-8	0.002397
6.665000E-8	0.002516
6.670000E-8	0.002709
6.675000E-8	0.002791
6.680000E-8	0.002734
6.685000E-8	0.002634
6.690000E-8	0.002503
6.695000E-8	0.002516
6.700000E-8	0.002300
6.705000E-8	0.002100
6.710000E-8	0.001897
6.715000E-8	0.001713
6.720000E-8	0.001441
6.725000E-8	0.001319
6.730000E-8	0.001187
6.735000E-8	0.001200
6.740000E-8	0.001209
6.745000E-8	0.001253
6.750000E-8	0.001403
6.755000E-8	0.001709
6.760000E-8	0.001856
6.765000E-8	0.002053
6.770000E-8	0.002250
6.775000E-8	0.002369
6.780000E-8	0.002453
6.785000E-8	0.002428
6.790000E-8	0.002509
6.795000E-8	0.002619
6.800000E-8	0.002447
6.805000E-8	0.002422
6.810000E-8	0.002259
6.815000E-8	0.002237
6.820000E-8	0.002044
6.825000E-8	0.002016
6.830000E-8	0.001888
6.835000E-8	0.001669
6.840000E-8	0.001513
6.845000E-8	0.001481
6.850000E-8	0.001328
6.855000E-8	0.001441
6.860000E-8	0.001331
6.865000E-8	0.001322
6.870000E-8	0.001284
6.875000E-8	0.001400
6.880000E-8	0.001469
6.885000E-8	0.001559
6.890000E-8	0.001609
6.895000E-8	0.001716
6.900000E-8	0.001766
6.905000E-8	0.001800
6.910000E-8	0.001853
6.915000E-8	0.002116
6.920000E-8	0.002300
6.925000E-8	0.002372
6.930000E-8	0.002469
6.935000E-8	0.002531
6.940000E-8	0.002437
6.945000E-8	0.002544
6.950000E-8	0.002406
6.955000E-8	0.002309
6.960000E-8	0.002191
6.965000E-8	0.002025
6.970000E-8	0.001875
6.975000E-8	0.001806
6.980000E-8	0.001659
6.985000E-8	0.001481
6.990000E-8	0.001356
6.995000E-8	0.001384
7.000000E-8	0.001328
7.005000E-8	0.001428
7.010000E-8	0.001381
7.015000E-8	0.001453
7.020000E-8	0.001519
7.025000E-8	0.001697
7.030000E-8	0.001794
7.035000E-8	0.002000
7.040000E-8	0.002316
7.045000E-8	0.002500
7.050000E-8	0.002447
7.055000E-8	0.002572
7.060000E-8	0.002603
7.065000E-8	0.002478
7.070000E-8	0.002478
7.075000E-8	0.002459
7.080000E-8	0.002156
7.085000E-8	0.002231
7.090000E-8	0.002019
7.095000E-8	0.001878
7.100000E-8	0.001838
7.105000E-8	0.001822
7.110000E-8	0.001638
7.115000E-8	0.001584
7.120000E-8	0.001388
7.125000E-8	0.001494
7.130000E-8	0.001366
7.135000E-8	0.001397
7.140000E-8	0.001391
7.145000E-8	0.001500
7.150000E-8	0.001475
7.155000E-8	0.001647
7.160000E-8	0.001813
7.165000E-8	0.002019
7.170000E-8	0.002150
7.175000E-8	0.002372
7.180000E-8	0.002475
7.185000E-8	0.002706
7.190000E-8	0.002759
7.195000E-8	0.002838
7.200000E-8	0.002875
7.205000E-8	0.002744
7.210000E-8	0.002672
7.215000E-8	0.002634
7.220000E-8	0.002525
7.225000E-8	0.002419
7.230000E-8	0.002234
7.235000E-8	0.002144
7.240000E-8	0.001984
7.245000E-8	0.001934
7.250000E-8	0.001813
7.255000E-8	0.001716
7.260000E-8	0.001569
7.265000E-8	0.001513
7.270000E-8	0.001413
7.275000E-8	0.001481
7.280000E-8	0.001525
7.285000E-8	0.001638
7.290000E-8	0.001616
7.295000E-8	0.001844
7.300000E-8	0.001950
7.305000E-8	0.002003
7.310000E-8	0.002116
7.315000E-8	0.002178
7.320000E-8	0.002156
7.325000E-8	0.002294
7.330000E-8	0.002297
7.335000E-8	0.002219
7.340000E-8	0.002191
7.345000E-8	0.002166
7.350000E-8	0.001903
7.355000E-8	0.001953
7.360000E-8	0.001794
7.365000E-8	0.001634
7.370000E-8	0.001400
7.375000E-8	0.001238
7.380000E-8	0.001156
7.385000E-8	0.001119
7.390000E-8	0.001031
7.395000E-8	0.001063
7.400000E-8	0.001059
7.405000E-8	0.001244
7.410000E-8	0.001431
7.415000E-8	0.001556
7.420000E-8	0.001612
7.425000E-8	0.001734
7.430000E-8	0.001937
7.435000E-8	0.002181
7.440000E-8	0.002050
7.445000E-8	0.002209
7.450000E-8	0.002241
7.455000E-8	0.002219
7.460000E-8	0.002247
7.465000E-8	0.002272
7.470000E-8	0.002263
7.475000E-8	0.002319
7.480000E-8	0.002353
7.485000E-8	0.002234
7.490000E-8	0.002113
7.495000E-8	0.001981
7.500000E-8	0.001819
7.505000E-8	0.001691
7.510000E-8	0.001481
7.515000E-8	0.001266
7.520000E-8	0.001128
7.525000E-8	0.001119
7.530000E-8	0.001150
7.535000E-8	0.001259
7.540000E-8	0.001309
7.545000E-8	0.001481
7.550000E-8	0.001538
7.555000E-8	0.001850
7.560000E-8	0.001953
7.565000E-8	0.002097
7.570000E-8	0.002241
7.575000E-8	0.002247
7.580000E-8	0.002216
7.585000E-8	0.002156
7.590000E-8	0.002103
7.595000E-8	0.002063
7.600000E-8	0.002044
7.605000E-8	0.002059
7.610000E-8	0.001853
7.615000E-8	0.001944
7.620000E-8	0.001853
7.625000E-8	0.001916
7.630000E-8	0.001803
7.635000E-8	0.001766
7.640000E-8	0.001638
7.645000E-8	0.001625
7.650000E-8	0.001447
7.655000E-8	0.001497
7.660000E-8	0.001516
7.665000E-8	0.001559
7.670000E-8	0.001525
7.675000E-8	0.001713
7.680000E-8	0.001772
7.685000E-8	0.001894
7.690000E-8	0.001972
7.695000E-8	0.002156
7.700000E-8	0.002228
7.705000E-8	0.002469
7.710000E-8	0.002578
7.715000E-8	0.002644
7.720000E-8	0.002684
7.725000E-8	0.002753
7.730000E-8	0.002638
7.735000E-8	0.002594
7.740000E-8	0.002350
7.745000E-8	0.002184
7.750000E-8	0.002138
7.755000E-8	0.002041
7.760000E-8	0.001781
7.765000E-8	0.001706
7.770000E-8	0.001603
7.775000E-8	0.001541
7.780000E-8	0.001588
7.785000E-8	0.001547
7.790000E-8	0.001534
7.795000E-8	0.001584
7.800000E-8	0.001500
7.805000E-8	0.001703
7.810000E-8	0.001622
7.815000E-8	0.001647
7.820000E-8	0.001606
7.825000E-8	0.001722
7.830000E-8	0.001722
7.835000E-8	0.001953
7.840000E-8	0.002087
7.845000E-8	0.002191
7.850000E-8	0.002297
7.855000E-8	0.002459
7.860000E-8	0.002347
7.865000E-8	0.002353
7.870000E-8	0.002313
7.875000E-8	0.002275
7.880000E-8	0.002166
7.885000E-8	0.002003
7.890000E-8	0.001647
7.895000E-8	0.001631
7.900000E-8	0.001456
7.905000E-8	0.001362
7.910000E-8	0.001263
7.915000E-8	0.001281
7.920000E-8	0.001222
7.925000E-8	0.001400
7.930000E-8	0.001469
7.935000E-8	0.001563
7.940000E-8	0.001641
7.945000E-8	0.001763
7.950000E-8	0.001800
7.955000E-8	0.001881
7.960000E-8	0.001856
7.965000E-8	0.001997
7.970000E-8	0.001913
7.975000E-8	0.001991
7.980000E-8	0.002087
7.985000E-8	0.002100
7.990000E-8	0.002034
7.995000E-8	0.002175
8.000000E-8	0.002047
8.005000E-8	0.002028
8.010000E-8	0.001841
8.015000E-8	0.001750
8.020000E-8	0.001516
8.025000E-8	0.001431
8.030000E-8	0.001300
8.035000E-8	0.001444
8.040000E-8	0.001341
8.045000E-8	0.001431
8.050000E-8	0.001534
8.055000E-8	0.001709
8.060000E-8	0.001725
8.065000E-8	0.001838
8.070000E-8	0.001816
8.075000E-8	0.002012
8.080000E-8	0.002044
8.085000E-8	0.002016
8.090000E-8	0.002050
8.095000E-8	0.001991
8.100000E-8	0.001972
8.105000E-8	0.002025
8.110000E-8	0.002069
8.115000E-8	0.002153
8.120000E-8	0.002084
8.125000E-8	0.001994
8.130000E-8	0.001972
8.135000E-8	0.001934
8.140000E-8	0.001869
8.145000E-8	0.001906
8.150000E-8	0.001847
8.155000E-8	0.001891
8.160000E-8	0.001888
8.165000E-8	0.001872
8.170000E-8	0.001944
8.175000E-8	0.001941
8.180000E-8	0.001863
8.185000E-8	0.001891
8.190000E-8	0.001731
8.195000E-8	0.001766
8.200000E-8	0.001687
8.205000E-8	0.001747
8.210000E-8	0.001591
8.215000E-8	0.001659
8.220000E-8	0.001612
8.225000E-8	0.001672
8.230000E-8	0.001675
8.235000E-8	0.001919
8.240000E-8	0.001925
8.245000E-8	0.002000
8.250000E-8	0.001972
8.255000E-8	0.001994
8.260000E-8	0.001991
8.265000E-8	0.002109
8.270000E-8	0.001988
8.275000E-8	0.001950
8.280000E-8	0.001691
8.285000E-8	0.001556
8.290000E-8	0.001400
8.295000E-8	0.001347
8.300000E-8	0.001269
8.305000E-8	0.001288
8.310000E-8	0.001372
8.315000E-8	0.001513
8.320000E-8	0.001559
8.325000E-8	0.001703
8.330000E-8	0.001772
8.335000E-8	0.001959
8.340000E-8	0.002125
8.345000E-8	0.002166
8.350000E-8	0.002225
8.355000E-8	0.002347
8.360000E-8	0.002372
8.365000E-8	0.002384
8.370000E-8	0.002378
8.375000E-8	0.002394
8.380000E-8	0.002294
8.385000E-8	0.002103
8.390000E-8	0.002103
8.395000E-8	0.002000
8.400000E-8	0.001931
8.405000E-8	0.001819
8.410000E-8	0.001694
8.415000E-8	0.001653
8.420000E-8	0.001612
8.425000E-8	0.001488
8.430000E-8	0.001356
8.435000E-8	0.001388
8.440000E-8	0.001403
8.445000E-8	0.001478
8.450000E-8	0.001631
8.455000E-8	0.001628
8.460000E-8	0.001819
8.465000E-8	0.001991
8.470000E-8	0.001963
8.475000E-8	0.002159
8.480000E-8	0.002103
8.485000E-8	0.002353
8.490000E-8	0.002378
8.495000E-8	0.002313
8.500000E-8	0.002247
8.505000E-8	0.002159
8.510000E-8	0.002116
8.515000E-8	0.002116
8.520000E-8	0.002066
8.525000E-8	0.001937
8.530000E-8	0.001809
8.535000E-8	0.001816
8.540000E-8	0.001725
8.545000E-8	0.001659
8.550000E-8	0.001584
8.555000E-8	0.001606
8.560000E-8	0.001650
8.565000E-8	0.001753
8.570000E-8	0.001731
8.575000E-8	0.001800
8.580000E-8	0.001922
8.585000E-8	0.002078
8.590000E-8	0.002091
8.595000E-8	0.002003
8.600000E-8	0.002084
8.605000E-8	0.002150
8.610000E-8	0.002153
8.615000E-8	0.002228
8.620000E-8	0.002066
8.625000E-8	0.002081
8.630000E-8	0.002059
8.635000E-8	0.002059
8.640000E-8	0.002053
8.645000E-8	0.001959
8.650000E-8	0.001909
8.655000E-8	0.001834
8.660000E-8	0.001794
8.665000E-8	0.001772
8.670000E-8	0.001716
8.675000E-8	0.001797
8.680000E-8	0.001791
8.685000E-8	0.001659
8.690000E-8	0.001572
8.695000E-8	0.001525
8.700000E-8	0.001559
8.705000E-8	0.001541
8.710000E-8	0.001641
8.715000E-8	0.001606
8.720000E-8	0.001569
8.725000E-8	0.001644
8.730000E-8	0.001650
8.735000E-8	0.001691
8.740000E-8	0.001625
8.745000E-8	0.001684
8.750000E-8	0.001631
8.755000E-8	0.001719
8.760000E-8	0.001706
8.765000E-8	0.001850
8.770000E-8	0.001831
8.775000E-8	0.001897
8.780000E-8	0.001878
8.785000E-8	0.002003
8.790000E-8	0.001975
8.795000E-8	0.001944
8.800000E-8	0.002050
8.805000E-8	0.001941
8.810000E-8	0.001928
8.815000E-8	0.001916
8.820000E-8	0.001687
8.825000E-8	0.001653
8.830000E-8	0.001597
8.835000E-8	0.001556
8.840000E-8	0.001453
8.845000E-8	0.001566
8.850000E-8	0.001597
8.855000E-8	0.001697
8.860000E-8	0.001788
8.865000E-8	0.001925
8.870000E-8	0.002091
8.875000E-8	0.002166
8.880000E-8	0.002184
8.885000E-8	0.002263
8.890000E-8	0.002297
8.895000E-8	0.002259
8.900000E-8	0.002228
8.905000E-8	0.002237
8.910000E-8	0.002056
8.915000E-8	0.002072
8.920000E-8	0.002078
8.925000E-8	0.001991
8.930000E-8	0.001909
8.935000E-8	0.001756
8.940000E-8	0.001719
8.945000E-8	0.001759
8.950000E-8	0.001650
8.955000E-8	0.001597
8.960000E-8	0.001556
8.965000E-8	0.001603
8.970000E-8	0.001556
8.975000E-8	0.001506
8.980000E-8	0.001453
8.985000E-8	0.001503
8.990000E-8	0.001603
8.995000E-8	0.001769
9.000000E-8	0.001750
9.005000E-8	0.001841
9.010000E-8	0.002087
9.015000E-8	0.002225
9.020000E-8	0.002434
9.025000E-8	0.002631
9.030000E-8	0.002497
9.035000E-8	0.002447
9.040000E-8	0.002384
9.045000E-8	0.002206
9.050000E-8	0.002172
9.055000E-8	0.002000
9.060000E-8	0.001888
9.065000E-8	0.001806
9.070000E-8	0.001675
9.075000E-8	0.001622
9.080000E-8	0.001494
9.085000E-8	0.001597
9.090000E-8	0.001550
9.095000E-8	0.001719
9.100000E-8	0.001697
9.105000E-8	0.001719
9.110000E-8	0.001663
9.115000E-8	0.001703
9.120000E-8	0.001647
9.125000E-8	0.001728
9.130000E-8	0.001756
9.135000E-8	0.001775
9.140000E-8	0.001775
9.145000E-8	0.001781
9.150000E-8	0.001703
9.155000E-8	0.001778
9.160000E-8	0.001716
9.165000E-8	0.001806
9.170000E-8	0.001831
9.175000E-8	0.001881
9.180000E-8	0.001744
9.185000E-8	0.001809
9.190000E-8	0.001800
9.195000E-8	0.001881
9.200000E-8	0.001672
9.205000E-8	0.001672
9.210000E-8	0.001656
9.215000E-8	0.001769
9.220000E-8	0.001650
9.225000E-8	0.001725
9.230000E-8	0.001641
9.235000E-8	0.001769
9.240000E-8	0.001753
9.245000E-8	0.001841
9.250000E-8	0.001869
9.255000E-8	0.001969
9.260000E-8	0.002000
9.265000E-8	0.002069
9.270000E-8	0.002191
9.275000E-8	0.002328
9.280000E-8	0.002294
9.285000E-8	0.002334
9.290000E-8	0.002300
9.295000E-8	0.002247
9.300000E-8	0.002250
9.305000E-8	0.002197
9.310000E-8	0.002050
9.315000E-8	0.002087
9.320000E-8	0.002047
9.325000E-8	0.001959
9.330000E-8	0.001931
9.335000E-8	0.001925
9.340000E-8	0.001781
9.345000E-8	0.001803
9.350000E-8	0.001759
9.355000E-8	0.001731
9.360000E-8	0.001634
9.365000E-8	0.001916
9.370000E-8	0.001816
9.375000E-8	0.001850
9.380000E-8	0.001888
9.385000E-8	0.002006
9.390000E-8	0.002066
9.395000E-8	0.002175
9.400000E-8	0.002250
9.405000E-8	0.002281
9.410000E-8	0.002175
9.415000E-8	0.002203
9.420000E-8	0.002056
9.425000E-8	0.002144
9.430000E-8	0.001950
9.435000E-8	0.001919
9.440000E-8	0.001856
9.445000E-8	0.001937
9.450000E-8	0.001894
9.455000E-8	0.001928
9.460000E-8	0.001863
9.465000E-8	0.001903
9.470000E-8	0.001766
9.475000E-8	0.001691
9.480000E-8	0.001519
9.485000E-8	0.001578
9.490000E-8	0.001581
9.495000E-8	0.001600
9.500000E-8	0.001566
9.505000E-8	0.001600
9.510000E-8	0.001684
9.515000E-8	0.001703
9.520000E-8	0.001794
9.525000E-8	0.001922
9.530000E-8	0.001891
9.535000E-8	0.002041
9.540000E-8	0.002063
9.545000E-8	0.002116
9.550000E-8	0.001991
9.555000E-8	0.002009
9.560000E-8	0.001881
9.565000E-8	0.001888
9.570000E-8	0.001794
9.575000E-8	0.001772
9.580000E-8	0.001722
9.585000E-8	0.001678
9.590000E-8	0.001606
9.595000E-8	0.001681
9.600000E-8	0.001666
9.605000E-8	0.001678
9.610000E-8	0.001675
9.615000E-8	0.001797
9.620000E-8	0.001728
9.625000E-8	0.001703
9.630000E-8	0.001728
9.635000E-8	0.001672
9.640000E-8	0.001669
9.645000E-8	0.001831
9.650000E-8	0.001784
9.655000E-8	0.001922
9.660000E-8	0.001953
9.665000E-8	0.001991
9.670000E-8	0.002056
9.675000E-8	0.002162
9.680000E-8	0.002162
9.685000E-8	0.002100
9.690000E-8	0.002075
9.695000E-8	0.002128
9.700000E-8	0.002063
9.705000E-8	0.002053
9.710000E-8	0.001894
9.715000E-8	0.001750
9.720000E-8	0.001622
9.725000E-8	0.001694
9.730000E-8	0.001622
9.735000E-8	0.001600
9.740000E-8	0.001697
9.745000E-8	0.001663
9.750000E-8	0.001709
9.755000E-8	0.001753
9.760000E-8	0.001697
9.765000E-8	0.001772
9.770000E-8	0.001716
9.775000E-8	0.001725
9.780000E-8	0.001828
9.785000E-8	0.001891
9.790000E-8	0.001863
9.795000E-8	0.001925
9.800000E-8	0.001941
9.805000E-8	0.002025
9.810000E-8	0.002113
9.815000E-8	0.002141
9.820000E-8	0.002166
9.825000E-8	0.002116
9.830000E-8	0.002122
9.835000E-8	0.002225
9.840000E-8	0.002078
9.845000E-8	0.002012
9.850000E-8	0.001897
9.855000E-8	0.001781
9.860000E-8	0.001600
9.865000E-8	0.001581
9.870000E-8	0.001609
9.875000E-8	0.001650
9.880000E-8	0.001556
9.885000E-8	0.001681
9.890000E-8	0.001769
9.895000E-8	0.001803
9.900000E-8	0.001775
9.905000E-8	0.001800
9.910000E-8	0.001856
9.915000E-8	0.001997
9.920000E-8	0.001975
9.925000E-8	0.002084
9.930000E-8	0.002047
9.935000E-8	0.002175
9.940000E-8	0.002122
9.945000E-8	0.002181
9.950000E-8	0.002172
9.955000E-8	0.002147
9.960000E-8	0.002222
9.965000E-8	0.002231
9.970000E-8	0.002091
9.975000E-8	0.002087
9.980000E-8	0.002006
9.985000E-8	0.002012
9.990000E-8	0.001766
9.995000E-8	0.001747
