LabVIEW Measurement	
Writer_Version	2
Reader_Version	2
Separator	Tab
Decimal_Separator	.
Multi_Headings	No
X_Columns	Multi
Time_Pref	Relative
Operator	TG lab
Date	2015/03/07
Time	11:04:02.5700745582580566406
***End_of_Header***	
	
Channels	1	
Samples	2000	
Date	1903/12/31	
Time	19:00:00	
X_Dimension	Time	
X0	0.0000000000000000E+0	
Delta_X	5.000000E-11	
***End_of_Header***		
X_Value	Untitled	Comment
0.000000	0.001519
5.000000E-11	0.001533
1.000000E-10	0.001509
1.500000E-10	0.001555
2.000000E-10	0.001538
2.500000E-10	0.001567
3.000000E-10	0.001567
3.500000E-10	0.001553
4.000000E-10	0.001509
4.500000E-10	0.001555
5.000000E-10	0.001553
5.500000E-10	0.001552
6.000000E-10	0.001494
6.500000E-10	0.001419
7.000000E-10	0.001341
7.500000E-10	0.001292
8.000000E-10	0.001142
8.500000E-10	0.001122
9.000000E-10	0.001031
9.500000E-10	0.001038
1.000000E-9	0.001048
1.050000E-9	0.001202
1.100000E-9	0.001169
1.150000E-9	0.001263
1.200000E-9	0.001347
1.250000E-9	0.001336
1.300000E-9	0.001430
1.350000E-9	0.001428
1.400000E-9	0.001403
1.450000E-9	0.001475
1.500000E-9	0.001437
1.550000E-9	0.001450
1.600000E-9	0.001445
1.650000E-9	0.001381
1.700000E-9	0.001331
1.750000E-9	0.001277
1.800000E-9	0.001284
1.850000E-9	0.001322
1.900000E-9	0.001338
1.950000E-9	0.001300
2.000000E-9	0.001377
2.050000E-9	0.001380
2.100000E-9	0.001488
2.150000E-9	0.001478
2.200000E-9	0.001434
2.250000E-9	0.001467
2.300000E-9	0.001383
2.350000E-9	0.001381
2.400000E-9	0.001253
2.450000E-9	0.001211
2.500000E-9	0.001180
2.550000E-9	0.001150
2.600000E-9	0.001136
2.650000E-9	0.001191
2.700000E-9	0.001250
2.750000E-9	0.001339
2.800000E-9	0.001403
2.850000E-9	0.001542
2.900000E-9	0.001516
2.950000E-9	0.001584
3.000000E-9	0.001559
3.050000E-9	0.001591
3.100000E-9	0.001572
3.150000E-9	0.001569
3.200000E-9	0.001541
3.250000E-9	0.001484
3.300000E-9	0.001344
3.350000E-9	0.001300
3.400000E-9	0.001250
3.450000E-9	0.001094
3.500000E-9	0.001033
3.550000E-9	0.000963
3.600000E-9	0.000880
3.650000E-9	0.000861
3.700000E-9	0.000853
3.750000E-9	0.000852
3.800000E-9	0.000938
3.850000E-9	0.001055
3.900000E-9	0.001103
3.950000E-9	0.001241
4.000000E-9	0.001403
4.050000E-9	0.001498
4.100000E-9	0.001423
4.150000E-9	0.001402
4.200000E-9	0.001294
4.250000E-9	0.001242
4.300000E-9	0.001106
4.350000E-9	0.000998
4.400000E-9	0.000858
4.450000E-9	0.000891
4.500000E-9	0.000811
4.550000E-9	0.000761
4.600000E-9	0.000713
4.650000E-9	0.000736
4.700000E-9	0.000603
4.750000E-9	0.000289
4.800000E-9	-0.000116
4.850000E-9	-0.000833
4.900000E-9	-0.001781
4.950000E-9	-0.003002
5.000000E-9	-0.004455
5.050000E-9	-0.006091
5.100000E-9	-0.007880
5.150000E-9	-0.009819
5.200000E-9	-0.011639
5.250000E-9	-0.013489
5.300000E-9	-0.015091
5.350000E-9	-0.016511
5.400000E-9	-0.017555
5.450000E-9	-0.018309
5.500000E-9	-0.018666
5.550000E-9	-0.018587
5.600000E-9	-0.018184
5.650000E-9	-0.017391
5.700000E-9	-0.016416
5.750000E-9	-0.015214
5.800000E-9	-0.014005
5.850000E-9	-0.012734
5.900000E-9	-0.011681
5.950000E-9	-0.010758
6.000000E-9	-0.010147
6.050000E-9	-0.009822
6.100000E-9	-0.009725
6.150000E-9	-0.009953
6.200000E-9	-0.010328
6.250000E-9	-0.010811
6.300000E-9	-0.011280
6.350000E-9	-0.011592
6.400000E-9	-0.011809
6.450000E-9	-0.011763
6.500000E-9	-0.011533
6.550000E-9	-0.010978
6.600000E-9	-0.010236
6.650000E-9	-0.009261
6.700000E-9	-0.008202
6.750000E-9	-0.007109
6.800000E-9	-0.006125
6.850000E-9	-0.005189
6.900000E-9	-0.004506
6.950000E-9	-0.004063
7.000000E-9	-0.003913
7.050000E-9	-0.003980
7.100000E-9	-0.004288
7.150000E-9	-0.004770
7.200000E-9	-0.005381
7.250000E-9	-0.005969
7.300000E-9	-0.006467
7.350000E-9	-0.006758
7.400000E-9	-0.006978
7.450000E-9	-0.006820
7.500000E-9	-0.006508
7.550000E-9	-0.005962
7.600000E-9	-0.005197
7.650000E-9	-0.004303
7.700000E-9	-0.003333
7.750000E-9	-0.002481
7.800000E-9	-0.001609
7.850000E-9	-0.001011
7.900000E-9	-0.000675
7.950000E-9	-0.000583
8.000000E-9	-0.000781
8.050000E-9	-0.001198
8.100000E-9	-0.001814
8.150000E-9	-0.002509
8.200000E-9	-0.003308
8.250000E-9	-0.003847
8.300000E-9	-0.004280
8.350000E-9	-0.004433
8.400000E-9	-0.004403
8.450000E-9	-0.004002
8.500000E-9	-0.003342
8.550000E-9	-0.002519
8.600000E-9	-0.001627
8.650000E-9	-0.000655
8.700000E-9	0.000188
8.750000E-9	0.000827
8.800000E-9	0.001192
8.850000E-9	0.001302
8.900000E-9	0.001034
8.950000E-9	0.000581
9.000000E-9	-0.000114
9.050000E-9	-0.000886
9.100000E-9	-0.001778
9.150000E-9	-0.002564
9.200000E-9	-0.003127
9.250000E-9	-0.003544
9.300000E-9	-0.003592
9.350000E-9	-0.003420
9.400000E-9	-0.003048
9.450000E-9	-0.002320
9.500000E-9	-0.001463
9.550000E-9	-0.000611
9.600000E-9	0.000191
9.650000E-9	0.001048
9.700000E-9	0.001553
9.750000E-9	0.001947
9.800000E-9	0.001941
9.850000E-9	0.001703
9.900000E-9	0.001231
9.950000E-9	0.000573
1.000000E-8	-0.000155
1.005000E-8	-0.000927
1.010000E-8	-0.001630
1.015000E-8	-0.002144
1.020000E-8	-0.002447
1.025000E-8	-0.002375
1.030000E-8	-0.002166
1.035000E-8	-0.001675
1.040000E-8	-0.001028
1.045000E-8	-0.000275
1.050000E-8	0.000563
1.055000E-8	0.001284
1.060000E-8	0.001809
1.065000E-8	0.002300
1.070000E-8	0.002391
1.075000E-8	0.002328
1.080000E-8	0.002039
1.085000E-8	0.001581
1.090000E-8	0.000958
1.095000E-8	0.000316
1.100000E-8	-0.000286
1.105000E-8	-0.000811
1.110000E-8	-0.001194
1.115000E-8	-0.001322
1.120000E-8	-0.001280
1.125000E-8	-0.000964
1.130000E-8	-0.000519
1.135000E-8	8.750000E-5
1.140000E-8	0.000797
1.145000E-8	0.001458
1.150000E-8	0.002047
1.155000E-8	0.002561
1.160000E-8	0.002781
1.165000E-8	0.002892
1.170000E-8	0.002734
1.175000E-8	0.002336
1.180000E-8	0.001764
1.185000E-8	0.001102
1.190000E-8	0.000334
1.195000E-8	-0.000313
1.200000E-8	-0.000942
1.205000E-8	-0.001316
1.210000E-8	-0.001477
1.215000E-8	-0.001411
1.220000E-8	-0.001050
1.225000E-8	-0.000477
1.230000E-8	0.000186
1.235000E-8	0.000933
1.240000E-8	0.001628
1.245000E-8	0.002223
1.250000E-8	0.002736
1.255000E-8	0.002994
1.260000E-8	0.002894
1.265000E-8	0.002639
1.270000E-8	0.002209
1.275000E-8	0.001683
1.280000E-8	0.000995
1.285000E-8	0.000314
1.290000E-8	-0.000303
1.295000E-8	-0.000766
1.300000E-8	-0.001094
1.305000E-8	-0.001072
1.310000E-8	-0.000936
1.315000E-8	-0.000602
1.320000E-8	-3.593750E-5
1.325000E-8	0.000709
1.330000E-8	0.001394
1.335000E-8	0.002069
1.340000E-8	0.002631
1.345000E-8	0.003016
1.350000E-8	0.003194
1.355000E-8	0.003105
1.360000E-8	0.002847
1.365000E-8	0.002333
1.370000E-8	0.001655
1.375000E-8	0.000933
1.380000E-8	0.000255
1.385000E-8	-0.000356
1.390000E-8	-0.000644
1.395000E-8	-0.000850
1.400000E-8	-0.000727
1.405000E-8	-0.000427
1.410000E-8	0.000134
1.415000E-8	0.000792
1.420000E-8	0.001545
1.425000E-8	0.002258
1.430000E-8	0.002911
1.435000E-8	0.003380
1.440000E-8	0.003556
1.445000E-8	0.003541
1.450000E-8	0.003214
1.455000E-8	0.002695
1.460000E-8	0.002033
1.465000E-8	0.001305
1.470000E-8	0.000589
1.475000E-8	1.562500E-6
1.480000E-8	-0.000545
1.485000E-8	-0.000719
1.490000E-8	-0.000789
1.495000E-8	-0.000625
1.500000E-8	-0.000234
1.505000E-8	0.000275
1.510000E-8	0.000864
1.515000E-8	0.001472
1.520000E-8	0.002012
1.525000E-8	0.002512
1.530000E-8	0.002703
1.535000E-8	0.002850
1.540000E-8	0.002711
1.545000E-8	0.002388
1.550000E-8	0.002020
1.555000E-8	0.001466
1.560000E-8	0.000781
1.565000E-8	0.000228
1.570000E-8	-0.000223
1.575000E-8	-0.000514
1.580000E-8	-0.000686
1.585000E-8	-0.000556
1.590000E-8	-0.000353
1.595000E-8	0.000113
1.600000E-8	0.000628
1.605000E-8	0.001192
1.610000E-8	0.001827
1.615000E-8	0.002359
1.620000E-8	0.002803
1.625000E-8	0.003055
1.630000E-8	0.003102
1.635000E-8	0.002978
1.640000E-8	0.002742
1.645000E-8	0.002209
1.650000E-8	0.001672
1.655000E-8	0.001089
1.660000E-8	0.000544
1.665000E-8	0.000123
1.670000E-8	-0.000155
1.675000E-8	-0.000289
1.680000E-8	-0.000213
1.685000E-8	8.750000E-5
1.690000E-8	0.000508
1.695000E-8	0.001103
1.700000E-8	0.001659
1.705000E-8	0.002231
1.710000E-8	0.002702
1.715000E-8	0.003070
1.720000E-8	0.003234
1.725000E-8	0.003189
1.730000E-8	0.002948
1.735000E-8	0.002569
1.740000E-8	0.002000
1.745000E-8	0.001423
1.750000E-8	0.000878
1.755000E-8	0.000322
1.760000E-8	-0.000156
1.765000E-8	-0.000436
1.770000E-8	-0.000531
1.775000E-8	-0.000428
1.780000E-8	-0.000119
1.785000E-8	0.000233
1.790000E-8	0.000700
1.795000E-8	0.001308
1.800000E-8	0.001745
1.805000E-8	0.002161
1.810000E-8	0.002466
1.815000E-8	0.002630
1.820000E-8	0.002617
1.825000E-8	0.002434
1.830000E-8	0.002019
1.835000E-8	0.001552
1.840000E-8	0.001067
1.845000E-8	0.000530
1.850000E-8	1.093750E-5
1.855000E-8	-0.000266
1.860000E-8	-0.000433
1.865000E-8	-0.000431
1.870000E-8	-0.000183
1.875000E-8	0.000228
1.880000E-8	0.000737
1.885000E-8	0.001397
1.890000E-8	0.002059
1.895000E-8	0.002622
1.900000E-8	0.002997
1.905000E-8	0.003323
1.910000E-8	0.003416
1.915000E-8	0.003247
1.920000E-8	0.002875
1.925000E-8	0.002458
1.930000E-8	0.001953
1.935000E-8	0.001403
1.940000E-8	0.000867
1.945000E-8	0.000458
1.950000E-8	0.000152
1.955000E-8	9.375000E-6
1.960000E-8	8.437500E-5
1.965000E-8	0.000283
1.970000E-8	0.000644
1.975000E-8	0.001067
1.980000E-8	0.001623
1.985000E-8	0.002098
1.990000E-8	0.002655
1.995000E-8	0.002900
2.000000E-8	0.003056
2.005000E-8	0.003056
2.010000E-8	0.002847
2.015000E-8	0.002469
2.020000E-8	0.001956
2.025000E-8	0.001406
2.030000E-8	0.000797
2.035000E-8	0.000311
2.040000E-8	-0.000102
2.045000E-8	-0.000345
2.050000E-8	-0.000459
2.055000E-8	-0.000322
2.060000E-8	-2.968750E-5
2.065000E-8	0.000464
2.070000E-8	0.000978
2.075000E-8	0.001561
2.080000E-8	0.002117
2.085000E-8	0.002512
2.090000E-8	0.002844
2.095000E-8	0.002984
2.100000E-8	0.002934
2.105000E-8	0.002658
2.110000E-8	0.002286
2.115000E-8	0.001908
2.120000E-8	0.001413
2.125000E-8	0.000922
2.130000E-8	0.000536
2.135000E-8	0.000281
2.140000E-8	0.000127
2.145000E-8	9.375000E-5
2.150000E-8	0.000220
2.155000E-8	0.000553
2.160000E-8	0.000867
2.165000E-8	0.001295
2.170000E-8	0.001689
2.175000E-8	0.002108
2.180000E-8	0.002420
2.185000E-8	0.002662
2.190000E-8	0.002766
2.195000E-8	0.002722
2.200000E-8	0.002509
2.205000E-8	0.002170
2.210000E-8	0.001709
2.215000E-8	0.001292
2.220000E-8	0.000845
2.225000E-8	0.000484
2.230000E-8	0.000191
2.235000E-8	5.625000E-5
2.240000E-8	6.562500E-5
2.245000E-8	0.000277
2.250000E-8	0.000558
2.255000E-8	0.001009
2.260000E-8	0.001480
2.265000E-8	0.002023
2.270000E-8	0.002448
2.275000E-8	0.002775
2.280000E-8	0.002988
2.285000E-8	0.003006
2.290000E-8	0.002863
2.295000E-8	0.002573
2.300000E-8	0.002100
2.305000E-8	0.001611
2.310000E-8	0.001089
2.315000E-8	0.000650
2.320000E-8	0.000322
2.325000E-8	9.062500E-5
2.330000E-8	-6.250000E-6
2.335000E-8	6.250000E-5
2.340000E-8	0.000373
2.345000E-8	0.000745
2.350000E-8	0.001203
2.355000E-8	0.001739
2.360000E-8	0.002180
2.365000E-8	0.002559
2.370000E-8	0.002789
2.375000E-8	0.002847
2.380000E-8	0.002808
2.385000E-8	0.002642
2.390000E-8	0.002253
2.395000E-8	0.001883
2.400000E-8	0.001302
2.405000E-8	0.000863
2.410000E-8	0.000450
2.415000E-8	0.000130
2.420000E-8	-5.937500E-5
2.425000E-8	-2.343750E-5
2.430000E-8	0.000131
2.435000E-8	0.000486
2.440000E-8	0.000867
2.445000E-8	0.001377
2.450000E-8	0.001856
2.455000E-8	0.002338
2.460000E-8	0.002650
2.465000E-8	0.002875
2.470000E-8	0.002931
2.475000E-8	0.002800
2.480000E-8	0.002622
2.485000E-8	0.002266
2.490000E-8	0.001913
2.495000E-8	0.001463
2.500000E-8	0.001027
2.505000E-8	0.000736
2.510000E-8	0.000453
2.515000E-8	0.000317
2.520000E-8	0.000397
2.525000E-8	0.000536
2.530000E-8	0.000747
2.535000E-8	0.001167
2.540000E-8	0.001592
2.545000E-8	0.002086
2.550000E-8	0.002489
2.555000E-8	0.002770
2.560000E-8	0.002886
2.565000E-8	0.002880
2.570000E-8	0.002731
2.575000E-8	0.002491
2.580000E-8	0.002098
2.585000E-8	0.001653
2.590000E-8	0.001205
2.595000E-8	0.000823
2.600000E-8	0.000516
2.605000E-8	0.000384
2.610000E-8	0.000331
2.615000E-8	0.000434
2.620000E-8	0.000717
2.625000E-8	0.000973
2.630000E-8	0.001294
2.635000E-8	0.001633
2.640000E-8	0.001972
2.645000E-8	0.002209
2.650000E-8	0.002380
2.655000E-8	0.002461
2.660000E-8	0.002352
2.665000E-8	0.002195
2.670000E-8	0.001923
2.675000E-8	0.001638
2.680000E-8	0.001253
2.685000E-8	0.000898
2.690000E-8	0.000580
2.695000E-8	0.000417
2.700000E-8	0.000292
2.705000E-8	0.000353
2.710000E-8	0.000477
2.715000E-8	0.000706
2.720000E-8	0.001041
2.725000E-8	0.001431
2.730000E-8	0.001805
2.735000E-8	0.002194
2.740000E-8	0.002483
2.745000E-8	0.002733
2.750000E-8	0.002700
2.755000E-8	0.002552
2.760000E-8	0.002359
2.765000E-8	0.002027
2.770000E-8	0.001563
2.775000E-8	0.001148
2.780000E-8	0.000731
2.785000E-8	0.000331
2.790000E-8	0.000122
2.795000E-8	-3.593750E-5
2.800000E-8	-2.656250E-5
2.805000E-8	0.000109
2.810000E-8	0.000325
2.815000E-8	0.000700
2.820000E-8	0.001077
2.825000E-8	0.001495
2.830000E-8	0.001808
2.835000E-8	0.002148
2.840000E-8	0.002386
2.845000E-8	0.002397
2.850000E-8	0.002358
2.855000E-8	0.002191
2.860000E-8	0.001838
2.865000E-8	0.001477
2.870000E-8	0.001072
2.875000E-8	0.000767
2.880000E-8	0.000433
2.885000E-8	0.000278
2.890000E-8	0.000209
2.895000E-8	0.000233
2.900000E-8	0.000456
2.905000E-8	0.000827
2.910000E-8	0.001213
2.915000E-8	0.001581
2.920000E-8	0.001964
2.925000E-8	0.002344
2.930000E-8	0.002536
2.935000E-8	0.002650
2.940000E-8	0.002631
2.945000E-8	0.002539
2.950000E-8	0.002275
2.955000E-8	0.002014
2.960000E-8	0.001622
2.965000E-8	0.001311
2.970000E-8	0.000941
2.975000E-8	0.000691
2.980000E-8	0.000537
2.985000E-8	0.000566
2.990000E-8	0.000605
2.995000E-8	0.000802
3.000000E-8	0.001052
3.005000E-8	0.001367
3.010000E-8	0.001684
3.015000E-8	0.002020
3.020000E-8	0.002294
3.025000E-8	0.002403
3.030000E-8	0.002445
3.035000E-8	0.002358
3.040000E-8	0.002145
3.045000E-8	0.001922
3.050000E-8	0.001563
3.055000E-8	0.001259
3.060000E-8	0.000942
3.065000E-8	0.000663
3.070000E-8	0.000567
3.075000E-8	0.000441
3.080000E-8	0.000516
3.085000E-8	0.000658
3.090000E-8	0.000905
3.095000E-8	0.001270
3.100000E-8	0.001652
3.105000E-8	0.002038
3.110000E-8	0.002377
3.115000E-8	0.002638
3.120000E-8	0.002722
3.125000E-8	0.002656
3.130000E-8	0.002544
3.135000E-8	0.002297
3.140000E-8	0.001956
3.145000E-8	0.001617
3.150000E-8	0.001233
3.155000E-8	0.000853
3.160000E-8	0.000631
3.165000E-8	0.000503
3.170000E-8	0.000464
3.175000E-8	0.000619
3.180000E-8	0.000789
3.185000E-8	0.001094
3.190000E-8	0.001417
3.195000E-8	0.001703
3.200000E-8	0.001944
3.205000E-8	0.002170
3.210000E-8	0.002333
3.215000E-8	0.002323
3.220000E-8	0.002156
3.225000E-8	0.001927
3.230000E-8	0.001714
3.235000E-8	0.001325
3.240000E-8	0.000950
3.245000E-8	0.000661
3.250000E-8	0.000459
3.255000E-8	0.000273
3.260000E-8	0.000247
3.265000E-8	0.000356
3.270000E-8	0.000537
3.275000E-8	0.000823
3.280000E-8	0.001083
3.285000E-8	0.001506
3.290000E-8	0.001789
3.295000E-8	0.002139
3.300000E-8	0.002355
3.305000E-8	0.002463
3.310000E-8	0.002542
3.315000E-8	0.002505
3.320000E-8	0.002295
3.325000E-8	0.002094
3.330000E-8	0.001808
3.335000E-8	0.001578
3.340000E-8	0.001384
3.345000E-8	0.001222
3.350000E-8	0.001119
3.355000E-8	0.001061
3.360000E-8	0.001066
3.365000E-8	0.001161
3.370000E-8	0.001302
3.375000E-8	0.001470
3.380000E-8	0.001669
3.385000E-8	0.001883
3.390000E-8	0.001970
3.395000E-8	0.002153
3.400000E-8	0.002184
3.405000E-8	0.002250
3.410000E-8	0.002180
3.415000E-8	0.002136
3.420000E-8	0.002000
3.425000E-8	0.001784
3.430000E-8	0.001556
3.435000E-8	0.001306
3.440000E-8	0.001086
3.445000E-8	0.001012
3.450000E-8	0.000889
3.455000E-8	0.000884
3.460000E-8	0.000988
3.465000E-8	0.001211
3.470000E-8	0.001433
3.475000E-8	0.001659
3.480000E-8	0.001892
3.485000E-8	0.002106
3.490000E-8	0.002241
3.495000E-8	0.002400
3.500000E-8	0.002391
3.505000E-8	0.002361
3.510000E-8	0.002189
3.515000E-8	0.002041
3.520000E-8	0.001766
3.525000E-8	0.001544
3.530000E-8	0.001284
3.535000E-8	0.001141
3.540000E-8	0.000922
3.545000E-8	0.000884
3.550000E-8	0.000822
3.555000E-8	0.000975
3.560000E-8	0.001092
3.565000E-8	0.001350
3.570000E-8	0.001597
3.575000E-8	0.001900
3.580000E-8	0.002073
3.585000E-8	0.002275
3.590000E-8	0.002350
3.595000E-8	0.002430
3.600000E-8	0.002388
3.605000E-8	0.002234
3.610000E-8	0.002025
3.615000E-8	0.001813
3.620000E-8	0.001531
3.625000E-8	0.001402
3.630000E-8	0.001183
3.635000E-8	0.001055
3.640000E-8	0.000983
3.645000E-8	0.000991
3.650000E-8	0.001070
3.655000E-8	0.001298
3.660000E-8	0.001505
3.665000E-8	0.001761
3.670000E-8	0.001992
3.675000E-8	0.002138
3.680000E-8	0.002286
3.685000E-8	0.002286
3.690000E-8	0.002191
3.695000E-8	0.002094
3.700000E-8	0.001872
3.705000E-8	0.001664
3.710000E-8	0.001405
3.715000E-8	0.001153
3.720000E-8	0.001056
3.725000E-8	0.000970
3.730000E-8	0.000853
3.735000E-8	0.000902
3.740000E-8	0.001038
3.745000E-8	0.001266
3.750000E-8	0.001464
3.755000E-8	0.001675
3.760000E-8	0.001852
3.765000E-8	0.002069
3.770000E-8	0.002166
3.775000E-8	0.002245
3.780000E-8	0.002150
3.785000E-8	0.002098
3.790000E-8	0.001967
3.795000E-8	0.001772
3.800000E-8	0.001523
3.805000E-8	0.001223
3.810000E-8	0.001034
3.815000E-8	0.000869
3.820000E-8	0.000788
3.825000E-8	0.000744
3.830000E-8	0.000842
3.835000E-8	0.001047
3.840000E-8	0.001223
3.845000E-8	0.001495
3.850000E-8	0.001744
3.855000E-8	0.002091
3.860000E-8	0.002244
3.865000E-8	0.002394
3.870000E-8	0.002397
3.875000E-8	0.002359
3.880000E-8	0.002181
3.885000E-8	0.001998
3.890000E-8	0.001844
3.895000E-8	0.001522
3.900000E-8	0.001178
3.905000E-8	0.000902
3.910000E-8	0.000752
3.915000E-8	0.000594
3.920000E-8	0.000523
3.925000E-8	0.000545
3.930000E-8	0.000652
3.935000E-8	0.000897
3.940000E-8	0.001170
3.945000E-8	0.001447
3.950000E-8	0.001713
3.955000E-8	0.001950
3.960000E-8	0.002169
3.965000E-8	0.002206
3.970000E-8	0.002158
3.975000E-8	0.002095
3.980000E-8	0.001839
3.985000E-8	0.001603
3.990000E-8	0.001358
3.995000E-8	0.001163
4.000000E-8	0.000991
4.005000E-8	0.000833
4.010000E-8	0.000788
4.015000E-8	0.000845
4.020000E-8	0.000967
4.025000E-8	0.001059
4.030000E-8	0.001261
4.035000E-8	0.001514
4.040000E-8	0.001814
4.045000E-8	0.002022
4.050000E-8	0.002231
4.055000E-8	0.002284
4.060000E-8	0.002319
4.065000E-8	0.002191
4.070000E-8	0.001994
4.075000E-8	0.001791
4.080000E-8	0.001488
4.085000E-8	0.001297
4.090000E-8	0.001058
4.095000E-8	0.000909
4.100000E-8	0.000856
4.105000E-8	0.000909
4.110000E-8	0.000942
4.115000E-8	0.001103
4.120000E-8	0.001341
4.125000E-8	0.001605
4.130000E-8	0.001783
4.135000E-8	0.002008
4.140000E-8	0.002109
4.145000E-8	0.002213
4.150000E-8	0.002220
4.155000E-8	0.002141
4.160000E-8	0.002045
4.165000E-8	0.001831
4.170000E-8	0.001591
4.175000E-8	0.001375
4.180000E-8	0.001163
4.185000E-8	0.000970
4.190000E-8	0.000806
4.195000E-8	0.000720
4.200000E-8	0.000600
4.205000E-8	0.000658
4.210000E-8	0.000733
4.215000E-8	0.000870
4.220000E-8	0.001083
4.225000E-8	0.001328
4.230000E-8	0.001559
4.235000E-8	0.001795
4.240000E-8	0.001977
4.245000E-8	0.002120
4.250000E-8	0.002122
4.255000E-8	0.001994
4.260000E-8	0.001963
4.265000E-8	0.001703
4.270000E-8	0.001513
4.275000E-8	0.001195
4.280000E-8	0.000980
4.285000E-8	0.000820
4.290000E-8	0.000659
4.295000E-8	0.000658
4.300000E-8	0.000758
4.305000E-8	0.000939
4.310000E-8	0.001139
4.315000E-8	0.001397
4.320000E-8	0.001611
4.325000E-8	0.001916
4.330000E-8	0.002038
4.335000E-8	0.002138
4.340000E-8	0.002109
4.345000E-8	0.001992
4.350000E-8	0.001895
4.355000E-8	0.001705
4.360000E-8	0.001463
4.365000E-8	0.001345
4.370000E-8	0.001155
4.375000E-8	0.000981
4.380000E-8	0.000833
4.385000E-8	0.000823
4.390000E-8	0.000866
4.395000E-8	0.001023
4.400000E-8	0.001191
4.405000E-8	0.001372
4.410000E-8	0.001598
4.415000E-8	0.001745
4.420000E-8	0.001900
4.425000E-8	0.002061
4.430000E-8	0.002084
4.435000E-8	0.002155
4.440000E-8	0.002045
4.445000E-8	0.001941
4.450000E-8	0.001716
4.455000E-8	0.001488
4.460000E-8	0.001277
4.465000E-8	0.001053
4.470000E-8	0.000936
4.475000E-8	0.000839
4.480000E-8	0.000761
4.485000E-8	0.000841
4.490000E-8	0.000927
4.495000E-8	0.001042
4.500000E-8	0.001239
4.505000E-8	0.001430
4.510000E-8	0.001539
4.515000E-8	0.001759
4.520000E-8	0.001836
4.525000E-8	0.001922
4.530000E-8	0.001922
4.535000E-8	0.001839
4.540000E-8	0.001717
4.545000E-8	0.001583
4.550000E-8	0.001386
4.555000E-8	0.001186
4.560000E-8	0.001036
4.565000E-8	0.000898
4.570000E-8	0.000845
4.575000E-8	0.000950
4.580000E-8	0.000952
4.585000E-8	0.001127
4.590000E-8	0.001327
4.595000E-8	0.001580
4.600000E-8	0.001792
4.605000E-8	0.001937
4.610000E-8	0.001991
4.615000E-8	0.002069
4.620000E-8	0.002039
4.625000E-8	0.001977
4.630000E-8	0.001748
4.635000E-8	0.001594
4.640000E-8	0.001391
4.645000E-8	0.001266
4.650000E-8	0.001028
4.655000E-8	0.000936
4.660000E-8	0.000852
4.665000E-8	0.000878
4.670000E-8	0.000911
4.675000E-8	0.001048
4.680000E-8	0.001120
4.685000E-8	0.001400
4.690000E-8	0.001523
4.695000E-8	0.001756
4.700000E-8	0.001948
4.705000E-8	0.002098
4.710000E-8	0.002200
4.715000E-8	0.002256
4.720000E-8	0.002234
4.725000E-8	0.002158
4.730000E-8	0.002017
4.735000E-8	0.001841
4.740000E-8	0.001672
4.745000E-8	0.001444
4.750000E-8	0.001200
4.755000E-8	0.001061
4.760000E-8	0.000980
4.765000E-8	0.001003
4.770000E-8	0.001041
4.775000E-8	0.001244
4.780000E-8	0.001436
4.785000E-8	0.001653
4.790000E-8	0.001845
4.795000E-8	0.001970
4.800000E-8	0.001998
4.805000E-8	0.002072
4.810000E-8	0.002038
4.815000E-8	0.001905
4.820000E-8	0.001734
4.825000E-8	0.001531
4.830000E-8	0.001367
4.835000E-8	0.001153
4.840000E-8	0.001045
4.845000E-8	0.000972
4.850000E-8	0.000980
4.855000E-8	0.001038
4.860000E-8	0.001139
4.865000E-8	0.001278
4.870000E-8	0.001328
4.875000E-8	0.001516
4.880000E-8	0.001641
4.885000E-8	0.001727
4.890000E-8	0.001780
4.895000E-8	0.001828
4.900000E-8	0.001786
4.905000E-8	0.001736
4.910000E-8	0.001589
4.915000E-8	0.001458
4.920000E-8	0.001345
4.925000E-8	0.001187
4.930000E-8	0.001052
4.935000E-8	0.000958
4.940000E-8	0.000875
4.945000E-8	0.000863
4.950000E-8	0.000955
4.955000E-8	0.001042
4.960000E-8	0.001233
4.965000E-8	0.001414
4.970000E-8	0.001602
4.975000E-8	0.001711
4.980000E-8	0.001936
4.985000E-8	0.002063
4.990000E-8	0.002116
4.995000E-8	0.002094
5.000000E-8	0.002050
5.005000E-8	0.001880
5.010000E-8	0.001689
5.015000E-8	0.001516
5.020000E-8	0.001297
5.025000E-8	0.001198
5.030000E-8	0.001036
5.035000E-8	0.000983
5.040000E-8	0.000967
5.045000E-8	0.000994
5.050000E-8	0.001130
5.055000E-8	0.001291
5.060000E-8	0.001448
5.065000E-8	0.001661
5.070000E-8	0.001833
5.075000E-8	0.001922
5.080000E-8	0.001923
5.085000E-8	0.001928
5.090000E-8	0.001786
5.095000E-8	0.001638
5.100000E-8	0.001495
5.105000E-8	0.001259
5.110000E-8	0.001102
5.115000E-8	0.000944
5.120000E-8	0.000811
5.125000E-8	0.000806
5.130000E-8	0.000881
5.135000E-8	0.000975
5.140000E-8	0.001056
5.145000E-8	0.001239
5.150000E-8	0.001336
5.155000E-8	0.001491
5.160000E-8	0.001623
5.165000E-8	0.001711
5.170000E-8	0.001777
5.175000E-8	0.001797
5.180000E-8	0.001828
5.185000E-8	0.001808
5.190000E-8	0.001731
5.195000E-8	0.001667
5.200000E-8	0.001638
5.205000E-8	0.001505
5.210000E-8	0.001341
5.215000E-8	0.001233
5.220000E-8	0.001100
5.225000E-8	0.001039
5.230000E-8	0.000995
5.235000E-8	0.001042
5.240000E-8	0.001086
5.245000E-8	0.001228
5.250000E-8	0.001333
5.255000E-8	0.001516
5.260000E-8	0.001706
5.265000E-8	0.001805
5.270000E-8	0.001853
5.275000E-8	0.001823
5.280000E-8	0.001805
5.285000E-8	0.001714
5.290000E-8	0.001561
5.295000E-8	0.001463
5.300000E-8	0.001320
5.305000E-8	0.001263
5.310000E-8	0.001122
5.315000E-8	0.001092
5.320000E-8	0.001083
5.325000E-8	0.001116
5.330000E-8	0.001181
5.335000E-8	0.001319
5.340000E-8	0.001453
5.345000E-8	0.001570
5.350000E-8	0.001677
5.355000E-8	0.001814
5.360000E-8	0.001931
5.365000E-8	0.002030
5.370000E-8	0.002000
5.375000E-8	0.001891
5.380000E-8	0.001742
5.385000E-8	0.001636
5.390000E-8	0.001466
5.395000E-8	0.001222
5.400000E-8	0.001008
5.405000E-8	0.000869
5.410000E-8	0.000813
5.415000E-8	0.000845
5.420000E-8	0.000792
5.425000E-8	0.000950
5.430000E-8	0.001161
5.435000E-8	0.001289
5.440000E-8	0.001477
5.445000E-8	0.001711
5.450000E-8	0.001905
5.455000E-8	0.001961
5.460000E-8	0.002003
5.465000E-8	0.002030
5.470000E-8	0.001970
5.475000E-8	0.001873
5.480000E-8	0.001675
5.485000E-8	0.001473
5.490000E-8	0.001314
5.495000E-8	0.001177
5.500000E-8	0.000986
5.505000E-8	0.000891
5.510000E-8	0.000939
5.515000E-8	0.001028
5.520000E-8	0.001167
5.525000E-8	0.001298
5.530000E-8	0.001475
5.535000E-8	0.001647
5.540000E-8	0.001775
5.545000E-8	0.001817
5.550000E-8	0.001828
5.555000E-8	0.001803
5.560000E-8	0.001720
5.565000E-8	0.001622
5.570000E-8	0.001456
5.575000E-8	0.001319
5.580000E-8	0.001198
5.585000E-8	0.001123
5.590000E-8	0.001006
5.595000E-8	0.000981
5.600000E-8	0.000997
5.605000E-8	0.001050
5.610000E-8	0.001077
5.615000E-8	0.001169
5.620000E-8	0.001288
5.625000E-8	0.001467
5.630000E-8	0.001566
5.635000E-8	0.001731
5.640000E-8	0.001769
5.645000E-8	0.001780
5.650000E-8	0.001739
5.655000E-8	0.001666
5.660000E-8	0.001502
5.665000E-8	0.001372
5.670000E-8	0.001198
5.675000E-8	0.001027
5.680000E-8	0.000938
5.685000E-8	0.000889
5.690000E-8	0.000858
5.695000E-8	0.000911
5.700000E-8	0.000941
5.705000E-8	0.001106
5.710000E-8	0.001241
5.715000E-8	0.001428
5.720000E-8	0.001656
5.725000E-8	0.001744
5.730000E-8	0.001827
5.735000E-8	0.001916
5.740000E-8	0.001942
5.745000E-8	0.001936
5.750000E-8	0.001806
5.755000E-8	0.001769
5.760000E-8	0.001627
5.765000E-8	0.001534
5.770000E-8	0.001436
5.775000E-8	0.001319
5.780000E-8	0.001247
5.785000E-8	0.001241
5.790000E-8	0.001281
5.795000E-8	0.001328
5.800000E-8	0.001406
5.805000E-8	0.001589
5.810000E-8	0.001700
5.815000E-8	0.001859
5.820000E-8	0.001961
5.825000E-8	0.002045
5.830000E-8	0.002078
5.835000E-8	0.002055
5.840000E-8	0.001948
5.845000E-8	0.001891
5.850000E-8	0.001667
5.855000E-8	0.001570
5.860000E-8	0.001403
5.865000E-8	0.001317
5.870000E-8	0.001216
5.875000E-8	0.001183
5.880000E-8	0.001116
5.885000E-8	0.001130
5.890000E-8	0.001123
5.895000E-8	0.001216
5.900000E-8	0.001313
5.905000E-8	0.001359
5.910000E-8	0.001473
5.915000E-8	0.001586
5.920000E-8	0.001652
5.925000E-8	0.001702
5.930000E-8	0.001714
5.935000E-8	0.001633
5.940000E-8	0.001498
5.945000E-8	0.001422
5.950000E-8	0.001306
5.955000E-8	0.001134
5.960000E-8	0.001039
5.965000E-8	0.000959
5.970000E-8	0.000936
5.975000E-8	0.000998
5.980000E-8	0.001050
5.985000E-8	0.001136
5.990000E-8	0.001330
5.995000E-8	0.001439
6.000000E-8	0.001547
6.005000E-8	0.001661
6.010000E-8	0.001720
6.015000E-8	0.001758
6.020000E-8	0.001756
6.025000E-8	0.001741
6.030000E-8	0.001653
6.035000E-8	0.001433
6.040000E-8	0.001373
6.045000E-8	0.001330
6.050000E-8	0.001277
6.055000E-8	0.001216
6.060000E-8	0.001206
6.065000E-8	0.001300
6.070000E-8	0.001272
6.075000E-8	0.001413
6.080000E-8	0.001505
6.085000E-8	0.001612
6.090000E-8	0.001720
6.095000E-8	0.001739
6.100000E-8	0.001756
6.105000E-8	0.001736
6.110000E-8	0.001753
6.115000E-8	0.001731
6.120000E-8	0.001666
6.125000E-8	0.001667
6.130000E-8	0.001595
6.135000E-8	0.001588
6.140000E-8	0.001488
6.145000E-8	0.001406
6.150000E-8	0.001300
6.155000E-8	0.001247
6.160000E-8	0.001141
6.165000E-8	0.001131
6.170000E-8	0.001142
6.175000E-8	0.001238
6.180000E-8	0.001289
6.185000E-8	0.001447
6.190000E-8	0.001534
6.195000E-8	0.001609
6.200000E-8	0.001714
6.205000E-8	0.001681
6.210000E-8	0.001597
6.215000E-8	0.001544
6.220000E-8	0.001437
6.225000E-8	0.001328
6.230000E-8	0.001100
6.235000E-8	0.000997
6.240000E-8	0.000961
6.245000E-8	0.000933
6.250000E-8	0.000945
6.255000E-8	0.001072
6.260000E-8	0.001222
6.265000E-8	0.001406
6.270000E-8	0.001569
6.275000E-8	0.001742
6.280000E-8	0.001855
6.285000E-8	0.002019
6.290000E-8	0.001966
6.295000E-8	0.001950
6.300000E-8	0.001891
6.305000E-8	0.001820
6.310000E-8	0.001652
6.315000E-8	0.001531
6.320000E-8	0.001373
6.325000E-8	0.001255
6.330000E-8	0.001144
6.335000E-8	0.001142
6.340000E-8	0.001084
6.345000E-8	0.001123
6.350000E-8	0.001173
6.355000E-8	0.001291
6.360000E-8	0.001463
6.365000E-8	0.001617
6.370000E-8	0.001733
6.375000E-8	0.001888
6.380000E-8	0.001963
6.385000E-8	0.001973
6.390000E-8	0.001969
6.395000E-8	0.001898
6.400000E-8	0.001784
6.405000E-8	0.001644
6.410000E-8	0.001552
6.415000E-8	0.001419
6.420000E-8	0.001297
6.425000E-8	0.001272
6.430000E-8	0.001217
6.435000E-8	0.001200
6.440000E-8	0.001272
6.445000E-8	0.001300
6.450000E-8	0.001416
6.455000E-8	0.001502
6.460000E-8	0.001616
6.465000E-8	0.001742
6.470000E-8	0.001861
6.475000E-8	0.001908
6.480000E-8	0.001955
6.485000E-8	0.001913
6.490000E-8	0.001870
6.495000E-8	0.001833
6.500000E-8	0.001689
6.505000E-8	0.001595
6.510000E-8	0.001366
6.515000E-8	0.001253
6.520000E-8	0.001219
6.525000E-8	0.001138
6.530000E-8	0.001155
6.535000E-8	0.001170
6.540000E-8	0.001261
6.545000E-8	0.001355
6.550000E-8	0.001434
6.555000E-8	0.001550
6.560000E-8	0.001566
6.565000E-8	0.001641
6.570000E-8	0.001728
6.575000E-8	0.001745
6.580000E-8	0.001753
6.585000E-8	0.001700
6.590000E-8	0.001606
6.595000E-8	0.001497
6.600000E-8	0.001381
6.605000E-8	0.001263
6.610000E-8	0.001128
6.615000E-8	0.001056
6.620000E-8	0.000972
6.625000E-8	0.000963
6.630000E-8	0.000986
6.635000E-8	0.001084
6.640000E-8	0.001238
6.645000E-8	0.001359
6.650000E-8	0.001402
6.655000E-8	0.001575
6.660000E-8	0.001686
6.665000E-8	0.001798
6.670000E-8	0.001838
6.675000E-8	0.001820
6.680000E-8	0.001786
6.685000E-8	0.001723
6.690000E-8	0.001694
6.695000E-8	0.001589
6.700000E-8	0.001481
6.705000E-8	0.001425
6.710000E-8	0.001359
6.715000E-8	0.001319
6.720000E-8	0.001275
6.725000E-8	0.001288
6.730000E-8	0.001314
6.735000E-8	0.001306
6.740000E-8	0.001406
6.745000E-8	0.001564
6.750000E-8	0.001608
6.755000E-8	0.001667
6.760000E-8	0.001769
6.765000E-8	0.001803
6.770000E-8	0.001789
6.775000E-8	0.001742
6.780000E-8	0.001633
6.785000E-8	0.001534
6.790000E-8	0.001430
6.795000E-8	0.001259
6.800000E-8	0.001161
6.805000E-8	0.001081
6.810000E-8	0.000950
6.815000E-8	0.000923
6.820000E-8	0.000927
6.825000E-8	0.000966
6.830000E-8	0.001120
6.835000E-8	0.001255
6.840000E-8	0.001389
6.845000E-8	0.001513
6.850000E-8	0.001614
6.855000E-8	0.001731
6.860000E-8	0.001775
6.865000E-8	0.001714
6.870000E-8	0.001711
6.875000E-8	0.001650
6.880000E-8	0.001534
6.885000E-8	0.001431
6.890000E-8	0.001389
6.895000E-8	0.001338
6.900000E-8	0.001266
6.905000E-8	0.001336
6.910000E-8	0.001392
6.915000E-8	0.001470
6.920000E-8	0.001527
6.925000E-8	0.001595
6.930000E-8	0.001580
6.935000E-8	0.001636
6.940000E-8	0.001652
6.945000E-8	0.001653
6.950000E-8	0.001617
6.955000E-8	0.001569
6.960000E-8	0.001536
6.965000E-8	0.001466
6.970000E-8	0.001370
6.975000E-8	0.001261
6.980000E-8	0.001230
6.985000E-8	0.001166
6.990000E-8	0.001133
6.995000E-8	0.001033
7.000000E-8	0.001002
7.005000E-8	0.001012
7.010000E-8	0.001123
7.015000E-8	0.001202
7.020000E-8	0.001225
7.025000E-8	0.001333
7.030000E-8	0.001347
7.035000E-8	0.001434
7.040000E-8	0.001434
7.045000E-8	0.001480
7.050000E-8	0.001448
7.055000E-8	0.001437
7.060000E-8	0.001383
7.065000E-8	0.001378
7.070000E-8	0.001344
7.075000E-8	0.001334
7.080000E-8	0.001328
7.085000E-8	0.001334
7.090000E-8	0.001384
7.095000E-8	0.001505
7.100000E-8	0.001494
7.105000E-8	0.001617
7.110000E-8	0.001734
7.115000E-8	0.001881
7.120000E-8	0.001923
7.125000E-8	0.001942
7.130000E-8	0.002014
7.135000E-8	0.001973
7.140000E-8	0.001891
7.145000E-8	0.001858
7.150000E-8	0.001781
7.155000E-8	0.001716
7.160000E-8	0.001614
7.165000E-8	0.001497
7.170000E-8	0.001423
7.175000E-8	0.001450
7.180000E-8	0.001375
7.185000E-8	0.001434
7.190000E-8	0.001430
7.195000E-8	0.001517
7.200000E-8	0.001661
7.205000E-8	0.001773
7.210000E-8	0.001869
7.215000E-8	0.001898
7.220000E-8	0.001925
7.225000E-8	0.002002
7.230000E-8	0.002069
7.235000E-8	0.002027
7.240000E-8	0.001967
7.245000E-8	0.001945
7.250000E-8	0.001842
7.255000E-8	0.001752
7.260000E-8	0.001650
7.265000E-8	0.001634
7.270000E-8	0.001506
7.275000E-8	0.001411
7.280000E-8	0.001359
7.285000E-8	0.001441
7.290000E-8	0.001403
7.295000E-8	0.001550
7.300000E-8	0.001545
7.305000E-8	0.001702
7.310000E-8	0.001805
7.315000E-8	0.001808
7.320000E-8	0.001881
7.325000E-8	0.001848
7.330000E-8	0.001811
7.335000E-8	0.001702
7.340000E-8	0.001592
7.345000E-8	0.001423
7.350000E-8	0.001314
7.355000E-8	0.001116
7.360000E-8	0.001027
7.365000E-8	0.000984
7.370000E-8	0.001002
7.375000E-8	0.001020
7.380000E-8	0.001105
7.385000E-8	0.001253
7.390000E-8	0.001405
7.395000E-8	0.001538
7.400000E-8	0.001689
7.405000E-8	0.001792
7.410000E-8	0.001864
7.415000E-8	0.001937
7.420000E-8	0.001941
7.425000E-8	0.001972
7.430000E-8	0.001897
7.435000E-8	0.001877
7.440000E-8	0.001773
7.445000E-8	0.001684
7.450000E-8	0.001584
7.455000E-8	0.001533
7.460000E-8	0.001406
7.465000E-8	0.001453
7.470000E-8	0.001444
7.475000E-8	0.001405
7.480000E-8	0.001489
7.485000E-8	0.001561
7.490000E-8	0.001567
7.495000E-8	0.001592
7.500000E-8	0.001641
7.505000E-8	0.001689
7.510000E-8	0.001636
7.515000E-8	0.001564
7.520000E-8	0.001489
7.525000E-8	0.001409
7.530000E-8	0.001397
7.535000E-8	0.001247
7.540000E-8	0.001169
7.545000E-8	0.001184
7.550000E-8	0.001128
7.555000E-8	0.001128
7.560000E-8	0.001127
7.565000E-8	0.001166
7.570000E-8	0.001220
7.575000E-8	0.001408
7.580000E-8	0.001447
7.585000E-8	0.001539
7.590000E-8	0.001606
7.595000E-8	0.001617
7.600000E-8	0.001633
7.605000E-8	0.001550
7.610000E-8	0.001470
7.615000E-8	0.001344
7.620000E-8	0.001225
7.625000E-8	0.001178
7.630000E-8	0.001125
7.635000E-8	0.001134
7.640000E-8	0.001130
7.645000E-8	0.001156
7.650000E-8	0.001183
7.655000E-8	0.001291
7.660000E-8	0.001463
7.665000E-8	0.001536
7.670000E-8	0.001636
7.675000E-8	0.001694
7.680000E-8	0.001677
7.685000E-8	0.001706
7.690000E-8	0.001663
7.695000E-8	0.001600
7.700000E-8	0.001647
7.705000E-8	0.001594
7.710000E-8	0.001481
7.715000E-8	0.001450
7.720000E-8	0.001391
7.725000E-8	0.001366
7.730000E-8	0.001388
7.735000E-8	0.001448
7.740000E-8	0.001416
7.745000E-8	0.001509
7.750000E-8	0.001584
7.755000E-8	0.001705
7.760000E-8	0.001822
7.765000E-8	0.001866
7.770000E-8	0.001959
7.775000E-8	0.001933
7.780000E-8	0.001919
7.785000E-8	0.001845
7.790000E-8	0.001769
7.795000E-8	0.001630
7.800000E-8	0.001511
7.805000E-8	0.001555
7.810000E-8	0.001469
7.815000E-8	0.001380
7.820000E-8	0.001366
7.825000E-8	0.001425
7.830000E-8	0.001489
7.835000E-8	0.001564
7.840000E-8	0.001580
7.845000E-8	0.001659
7.850000E-8	0.001686
7.855000E-8	0.001708
7.860000E-8	0.001719
7.865000E-8	0.001744
7.870000E-8	0.001691
7.875000E-8	0.001619
7.880000E-8	0.001622
7.885000E-8	0.001569
7.890000E-8	0.001478
7.895000E-8	0.001395
7.900000E-8	0.001338
7.905000E-8	0.001245
7.910000E-8	0.001159
7.915000E-8	0.001138
7.920000E-8	0.001105
7.925000E-8	0.001125
7.930000E-8	0.001177
7.935000E-8	0.001266
7.940000E-8	0.001353
7.945000E-8	0.001448
7.950000E-8	0.001467
7.955000E-8	0.001584
7.960000E-8	0.001669
7.965000E-8	0.001620
7.970000E-8	0.001650
7.975000E-8	0.001617
7.980000E-8	0.001595
7.985000E-8	0.001525
7.990000E-8	0.001352
7.995000E-8	0.001334
8.000000E-8	0.001270
8.005000E-8	0.001266
8.010000E-8	0.001128
8.015000E-8	0.001083
8.020000E-8	0.001152
8.025000E-8	0.001202
8.030000E-8	0.001275
8.035000E-8	0.001341
8.040000E-8	0.001391
8.045000E-8	0.001533
8.050000E-8	0.001561
8.055000E-8	0.001581
8.060000E-8	0.001592
8.065000E-8	0.001588
8.070000E-8	0.001564
8.075000E-8	0.001484
8.080000E-8	0.001431
8.085000E-8	0.001405
8.090000E-8	0.001389
8.095000E-8	0.001389
8.100000E-8	0.001384
8.105000E-8	0.001423
8.110000E-8	0.001411
8.115000E-8	0.001411
8.120000E-8	0.001431
8.125000E-8	0.001444
8.130000E-8	0.001389
8.135000E-8	0.001516
8.140000E-8	0.001573
8.145000E-8	0.001642
8.150000E-8	0.001681
8.155000E-8	0.001745
8.160000E-8	0.001858
8.165000E-8	0.001863
8.170000E-8	0.001811
8.175000E-8	0.001739
8.180000E-8	0.001639
8.185000E-8	0.001503
8.190000E-8	0.001433
8.195000E-8	0.001322
8.200000E-8	0.001244
8.205000E-8	0.001255
8.210000E-8	0.001253
8.215000E-8	0.001281
8.220000E-8	0.001295
8.225000E-8	0.001389
8.230000E-8	0.001428
8.235000E-8	0.001522
8.240000E-8	0.001509
8.245000E-8	0.001520
8.250000E-8	0.001578
8.255000E-8	0.001588
8.260000E-8	0.001550
8.265000E-8	0.001581
8.270000E-8	0.001547
8.275000E-8	0.001567
8.280000E-8	0.001541
8.285000E-8	0.001584
8.290000E-8	0.001516
8.295000E-8	0.001547
8.300000E-8	0.001469
8.305000E-8	0.001530
8.310000E-8	0.001500
8.315000E-8	0.001566
8.320000E-8	0.001616
8.325000E-8	0.001594
8.330000E-8	0.001628
8.335000E-8	0.001614
8.340000E-8	0.001573
8.345000E-8	0.001669
8.350000E-8	0.001580
8.355000E-8	0.001545
8.360000E-8	0.001458
8.365000E-8	0.001386
8.370000E-8	0.001356
8.375000E-8	0.001345
8.380000E-8	0.001325
8.385000E-8	0.001369
8.390000E-8	0.001336
8.395000E-8	0.001444
8.400000E-8	0.001527
8.405000E-8	0.001566
8.410000E-8	0.001600
8.415000E-8	0.001641
8.420000E-8	0.001555
8.425000E-8	0.001614
8.430000E-8	0.001544
8.435000E-8	0.001491
8.440000E-8	0.001472
8.445000E-8	0.001458
8.450000E-8	0.001394
8.455000E-8	0.001380
8.460000E-8	0.001362
8.465000E-8	0.001348
8.470000E-8	0.001350
8.475000E-8	0.001362
8.480000E-8	0.001352
8.485000E-8	0.001352
8.490000E-8	0.001359
8.495000E-8	0.001448
8.500000E-8	0.001473
8.505000E-8	0.001547
8.510000E-8	0.001583
8.515000E-8	0.001592
8.520000E-8	0.001625
8.525000E-8	0.001617
8.530000E-8	0.001566
8.535000E-8	0.001555
8.540000E-8	0.001488
8.545000E-8	0.001388
8.550000E-8	0.001270
8.555000E-8	0.001214
8.560000E-8	0.001139
8.565000E-8	0.001072
8.570000E-8	0.001034
8.575000E-8	0.001055
8.580000E-8	0.001086
8.585000E-8	0.001169
8.590000E-8	0.001245
8.595000E-8	0.001278
8.600000E-8	0.001406
8.605000E-8	0.001509
8.610000E-8	0.001563
8.615000E-8	0.001564
8.620000E-8	0.001489
8.625000E-8	0.001538
8.630000E-8	0.001459
8.635000E-8	0.001377
8.640000E-8	0.001327
8.645000E-8	0.001261
8.650000E-8	0.001177
8.655000E-8	0.001145
8.660000E-8	0.001183
8.665000E-8	0.001191
8.670000E-8	0.001125
8.675000E-8	0.001205
8.680000E-8	0.001228
8.685000E-8	0.001277
8.690000E-8	0.001209
8.695000E-8	0.001211
8.700000E-8	0.001164
8.705000E-8	0.001256
8.710000E-8	0.001238
8.715000E-8	0.001359
8.720000E-8	0.001314
8.725000E-8	0.001375
8.730000E-8	0.001306
8.735000E-8	0.001391
8.740000E-8	0.001314
8.745000E-8	0.001325
8.750000E-8	0.001261
8.755000E-8	0.001261
8.760000E-8	0.001270
8.765000E-8	0.001273
8.770000E-8	0.001302
8.775000E-8	0.001342
8.780000E-8	0.001481
8.785000E-8	0.001589
8.790000E-8	0.001681
8.795000E-8	0.001761
8.800000E-8	0.001806
8.805000E-8	0.001809
8.810000E-8	0.001788
8.815000E-8	0.001767
8.820000E-8	0.001695
8.825000E-8	0.001622
8.830000E-8	0.001525
8.835000E-8	0.001461
8.840000E-8	0.001419
8.845000E-8	0.001420
8.850000E-8	0.001423
8.855000E-8	0.001416
8.860000E-8	0.001455
8.865000E-8	0.001447
8.870000E-8	0.001452
8.875000E-8	0.001459
8.880000E-8	0.001513
8.885000E-8	0.001556
8.890000E-8	0.001614
8.895000E-8	0.001695
8.900000E-8	0.001708
8.905000E-8	0.001742
8.910000E-8	0.001730
8.915000E-8	0.001748
8.920000E-8	0.001781
8.925000E-8	0.001695
8.930000E-8	0.001614
8.935000E-8	0.001511
8.940000E-8	0.001392
8.945000E-8	0.001313
8.950000E-8	0.001213
8.955000E-8	0.001158
8.960000E-8	0.001147
8.965000E-8	0.001273
8.970000E-8	0.001303
8.975000E-8	0.001427
8.980000E-8	0.001502
8.985000E-8	0.001625
8.990000E-8	0.001758
8.995000E-8	0.001836
9.000000E-8	0.001811
9.005000E-8	0.001828
9.010000E-8	0.001763
9.015000E-8	0.001681
9.020000E-8	0.001667
9.025000E-8	0.001594
9.030000E-8	0.001509
9.035000E-8	0.001445
9.040000E-8	0.001445
9.045000E-8	0.001417
9.050000E-8	0.001431
9.055000E-8	0.001473
9.060000E-8	0.001431
9.065000E-8	0.001488
9.070000E-8	0.001491
9.075000E-8	0.001475
9.080000E-8	0.001464
9.085000E-8	0.001488
9.090000E-8	0.001458
9.095000E-8	0.001489
9.100000E-8	0.001514
9.105000E-8	0.001559
9.110000E-8	0.001602
9.115000E-8	0.001552
9.120000E-8	0.001583
9.125000E-8	0.001627
9.130000E-8	0.001573
9.135000E-8	0.001570
9.140000E-8	0.001520
9.145000E-8	0.001550
9.150000E-8	0.001506
9.155000E-8	0.001548
9.160000E-8	0.001584
9.165000E-8	0.001591
9.170000E-8	0.001572
9.175000E-8	0.001650
9.180000E-8	0.001659
9.185000E-8	0.001620
9.190000E-8	0.001588
9.195000E-8	0.001647
9.200000E-8	0.001606
9.205000E-8	0.001634
9.210000E-8	0.001605
9.215000E-8	0.001606
9.220000E-8	0.001580
9.225000E-8	0.001602
9.230000E-8	0.001578
9.235000E-8	0.001498
9.240000E-8	0.001436
9.245000E-8	0.001428
9.250000E-8	0.001381
9.255000E-8	0.001361
9.260000E-8	0.001383
9.265000E-8	0.001381
9.270000E-8	0.001352
9.275000E-8	0.001381
9.280000E-8	0.001413
9.285000E-8	0.001448
9.290000E-8	0.001441
9.295000E-8	0.001400
9.300000E-8	0.001359
9.305000E-8	0.001308
9.310000E-8	0.001275
9.315000E-8	0.001297
9.320000E-8	0.001284
9.325000E-8	0.001258
9.330000E-8	0.001264
9.335000E-8	0.001353
9.340000E-8	0.001398
9.345000E-8	0.001461
9.350000E-8	0.001519
9.355000E-8	0.001600
9.360000E-8	0.001577
9.365000E-8	0.001544
9.370000E-8	0.001561
9.375000E-8	0.001473
9.380000E-8	0.001416
9.385000E-8	0.001356
9.390000E-8	0.001298
9.395000E-8	0.001267
9.400000E-8	0.001220
9.405000E-8	0.001275
9.410000E-8	0.001313
9.415000E-8	0.001380
9.420000E-8	0.001403
9.425000E-8	0.001498
9.430000E-8	0.001552
9.435000E-8	0.001627
9.440000E-8	0.001539
9.445000E-8	0.001559
9.450000E-8	0.001505
9.455000E-8	0.001469
9.460000E-8	0.001392
9.465000E-8	0.001403
9.470000E-8	0.001317
9.475000E-8	0.001302
9.480000E-8	0.001406
9.485000E-8	0.001369
9.490000E-8	0.001389
9.495000E-8	0.001517
9.500000E-8	0.001531
9.505000E-8	0.001628
9.510000E-8	0.001550
9.515000E-8	0.001589
9.520000E-8	0.001580
9.525000E-8	0.001583
9.530000E-8	0.001581
9.535000E-8	0.001539
9.540000E-8	0.001492
9.545000E-8	0.001467
9.550000E-8	0.001486
9.555000E-8	0.001455
9.560000E-8	0.001408
9.565000E-8	0.001416
9.570000E-8	0.001413
9.575000E-8	0.001445
9.580000E-8	0.001472
9.585000E-8	0.001556
9.590000E-8	0.001539
9.595000E-8	0.001523
9.600000E-8	0.001563
9.605000E-8	0.001503
9.610000E-8	0.001502
9.615000E-8	0.001498
9.620000E-8	0.001498
9.625000E-8	0.001567
9.630000E-8	0.001642
9.635000E-8	0.001681
9.640000E-8	0.001734
9.645000E-8	0.001773
9.650000E-8	0.001766
9.655000E-8	0.001800
9.660000E-8	0.001798
9.665000E-8	0.001653
9.670000E-8	0.001683
9.675000E-8	0.001647
9.680000E-8	0.001514
9.685000E-8	0.001536
9.690000E-8	0.001445
9.695000E-8	0.001431
9.700000E-8	0.001437
9.705000E-8	0.001528
9.710000E-8	0.001545
9.715000E-8	0.001597
9.720000E-8	0.001675
9.725000E-8	0.001645
9.730000E-8	0.001672
9.735000E-8	0.001628
9.740000E-8	0.001553
9.745000E-8	0.001522
9.750000E-8	0.001473
9.755000E-8	0.001395
9.760000E-8	0.001366
9.765000E-8	0.001359
9.770000E-8	0.001366
9.775000E-8	0.001370
9.780000E-8	0.001406
9.785000E-8	0.001578
9.790000E-8	0.001636
9.795000E-8	0.001667
9.800000E-8	0.001697
9.805000E-8	0.001736
9.810000E-8	0.001770
9.815000E-8	0.001784
9.820000E-8	0.001742
9.825000E-8	0.001827
9.830000E-8	0.001703
9.835000E-8	0.001747
9.840000E-8	0.001741
9.845000E-8	0.001717
9.850000E-8	0.001698
9.855000E-8	0.001706
9.860000E-8	0.001709
9.865000E-8	0.001708
9.870000E-8	0.001666
9.875000E-8	0.001647
9.880000E-8	0.001623
9.885000E-8	0.001575
9.890000E-8	0.001580
9.895000E-8	0.001530
9.900000E-8	0.001572
9.905000E-8	0.001533
9.910000E-8	0.001573
9.915000E-8	0.001642
9.920000E-8	0.001658
9.925000E-8	0.001759
9.930000E-8	0.001778
9.935000E-8	0.001800
9.940000E-8	0.001745
9.945000E-8	0.001697
9.950000E-8	0.001559
9.955000E-8	0.001575
9.960000E-8	0.001448
9.965000E-8	0.001389
9.970000E-8	0.001305
9.975000E-8	0.001319
9.980000E-8	0.001289
9.985000E-8	0.001322
9.990000E-8	0.001322
9.995000E-8	0.001341
