LabVIEW Measurement	
Writer_Version	2
Reader_Version	2
Separator	Tab
Decimal_Separator	.
Multi_Headings	No
X_Columns	Multi
Time_Pref	Relative
Operator	TG lab
Date	2015/03/07
Time	11:00:53.2272448539733886719
***End_of_Header***	
	
Channels	1	
Samples	2000	
Date	1903/12/31	
Time	19:00:00	
X_Dimension	Time	
X0	0.0000000000000000E+0	
Delta_X	5.000000E-11	
***End_of_Header***		
X_Value	Untitled	Comment
0.000000	0.002114
5.000000E-11	0.002053
1.000000E-10	0.002006
1.500000E-10	0.001933
2.000000E-10	0.001855
2.500000E-10	0.001770
3.000000E-10	0.001730
3.500000E-10	0.001723
4.000000E-10	0.001803
4.500000E-10	0.001813
5.000000E-10	0.001813
5.500000E-10	0.001937
6.000000E-10	0.002033
6.500000E-10	0.002053
7.000000E-10	0.002070
7.500000E-10	0.002102
8.000000E-10	0.002014
8.500000E-10	0.001947
9.000000E-10	0.001895
9.500000E-10	0.001831
1.000000E-9	0.001709
1.050000E-9	0.001658
1.100000E-9	0.001583
1.150000E-9	0.001567
1.200000E-9	0.001508
1.250000E-9	0.001550
1.300000E-9	0.001577
1.350000E-9	0.001633
1.400000E-9	0.001652
1.450000E-9	0.001684
1.500000E-9	0.001731
1.550000E-9	0.001750
1.600000E-9	0.001741
1.650000E-9	0.001731
1.700000E-9	0.001752
1.750000E-9	0.001711
1.800000E-9	0.001634
1.850000E-9	0.001589
1.900000E-9	0.001503
1.950000E-9	0.001409
2.000000E-9	0.001345
2.050000E-9	0.001306
2.100000E-9	0.001133
2.150000E-9	0.001178
2.200000E-9	0.001203
2.250000E-9	0.001252
2.300000E-9	0.001328
2.350000E-9	0.001311
2.400000E-9	0.001327
2.450000E-9	0.001362
2.500000E-9	0.001384
2.550000E-9	0.001364
2.600000E-9	0.001328
2.650000E-9	0.001320
2.700000E-9	0.001247
2.750000E-9	0.001264
2.800000E-9	0.001200
2.850000E-9	0.001181
2.900000E-9	0.001214
2.950000E-9	0.001198
3.000000E-9	0.001252
3.050000E-9	0.001295
3.100000E-9	0.001316
3.150000E-9	0.001383
3.200000E-9	0.001372
3.250000E-9	0.001372
3.300000E-9	0.001367
3.350000E-9	0.001320
3.400000E-9	0.001344
3.450000E-9	0.001377
3.500000E-9	0.001397
3.550000E-9	0.001431
3.600000E-9	0.001489
3.650000E-9	0.001561
3.700000E-9	0.001656
3.750000E-9	0.001680
3.800000E-9	0.001733
3.850000E-9	0.001702
3.900000E-9	0.001731
3.950000E-9	0.001602
4.000000E-9	0.001516
4.050000E-9	0.001456
4.100000E-9	0.001362
4.150000E-9	0.001339
4.200000E-9	0.001206
4.250000E-9	0.001166
4.300000E-9	0.001122
4.350000E-9	0.001102
4.400000E-9	0.001122
4.450000E-9	0.001042
4.500000E-9	0.000986
4.550000E-9	0.000906
4.600000E-9	0.000845
4.650000E-9	0.000642
4.700000E-9	0.000375
4.750000E-9	4.687500E-6
4.800000E-9	-0.000564
4.850000E-9	-0.001277
4.900000E-9	-0.002339
4.950000E-9	-0.003602
5.000000E-9	-0.005130
5.050000E-9	-0.006872
5.100000E-9	-0.008875
5.150000E-9	-0.010900
5.200000E-9	-0.012947
5.250000E-9	-0.014969
5.300000E-9	-0.016756
5.350000E-9	-0.018248
5.400000E-9	-0.019502
5.450000E-9	-0.020277
5.500000E-9	-0.020634
5.550000E-9	-0.020617
5.600000E-9	-0.020197
5.650000E-9	-0.019422
5.700000E-9	-0.018347
5.750000E-9	-0.017030
5.800000E-9	-0.015659
5.850000E-9	-0.014323
5.900000E-9	-0.013089
5.950000E-9	-0.012048
6.000000E-9	-0.011298
6.050000E-9	-0.010786
6.100000E-9	-0.010581
6.150000E-9	-0.010734
6.200000E-9	-0.011125
6.250000E-9	-0.011597
6.300000E-9	-0.012139
6.350000E-9	-0.012680
6.400000E-9	-0.013011
6.450000E-9	-0.013119
6.500000E-9	-0.012956
6.550000E-9	-0.012481
6.600000E-9	-0.011741
6.650000E-9	-0.010739
6.700000E-9	-0.009584
6.750000E-9	-0.008294
6.800000E-9	-0.007044
6.850000E-9	-0.005953
6.900000E-9	-0.005084
6.950000E-9	-0.004500
7.000000E-9	-0.004289
7.050000E-9	-0.004266
7.100000E-9	-0.004655
7.150000E-9	-0.005228
7.200000E-9	-0.005886
7.250000E-9	-0.006691
7.300000E-9	-0.007320
7.350000E-9	-0.007839
7.400000E-9	-0.008112
7.450000E-9	-0.008061
7.500000E-9	-0.007672
7.550000E-9	-0.006995
7.600000E-9	-0.006127
7.650000E-9	-0.005089
7.700000E-9	-0.003928
7.750000E-9	-0.002895
7.800000E-9	-0.001959
7.850000E-9	-0.001138
7.900000E-9	-0.000739
7.950000E-9	-0.000600
8.000000E-9	-0.000828
8.050000E-9	-0.001263
8.100000E-9	-0.001994
8.150000E-9	-0.002783
8.200000E-9	-0.003539
8.250000E-9	-0.004208
8.300000E-9	-0.004750
8.350000E-9	-0.005045
8.400000E-9	-0.004950
8.450000E-9	-0.004672
8.500000E-9	-0.004180
8.550000E-9	-0.003319
8.600000E-9	-0.002403
8.650000E-9	-0.001347
8.700000E-9	-0.000392
8.750000E-9	0.000364
8.800000E-9	0.000959
8.850000E-9	0.001263
8.900000E-9	0.001258
8.950000E-9	0.000858
9.000000E-9	0.000270
9.050000E-9	-0.000494
9.100000E-9	-0.001397
9.150000E-9	-0.002223
9.200000E-9	-0.002955
9.250000E-9	-0.003381
9.300000E-9	-0.003627
9.350000E-9	-0.003491
9.400000E-9	-0.003133
9.450000E-9	-0.002356
9.500000E-9	-0.001458
9.550000E-9	-0.000405
9.600000E-9	0.000545
9.650000E-9	0.001364
9.700000E-9	0.002075
9.750000E-9	0.002389
9.800000E-9	0.002481
9.850000E-9	0.002188
9.900000E-9	0.001631
9.950000E-9	0.000931
1.000000E-8	4.218750E-5
1.005000E-8	-0.000842
1.010000E-8	-0.001630
1.015000E-8	-0.002247
1.020000E-8	-0.002592
1.025000E-8	-0.002664
1.030000E-8	-0.002458
1.035000E-8	-0.001895
1.040000E-8	-0.001102
1.045000E-8	-0.000203
1.050000E-8	0.000770
1.055000E-8	0.001642
1.060000E-8	0.002369
1.065000E-8	0.002983
1.070000E-8	0.003214
1.075000E-8	0.003202
1.080000E-8	0.002822
1.085000E-8	0.002297
1.090000E-8	0.001550
1.095000E-8	0.000783
1.100000E-8	-8.125000E-5
1.105000E-8	-0.000783
1.110000E-8	-0.001308
1.115000E-8	-0.001675
1.120000E-8	-0.001727
1.125000E-8	-0.001484
1.130000E-8	-0.001041
1.135000E-8	-0.000397
1.140000E-8	0.000419
1.145000E-8	0.001325
1.150000E-8	0.002089
1.155000E-8	0.002764
1.160000E-8	0.003245
1.165000E-8	0.003427
1.170000E-8	0.003298
1.175000E-8	0.002947
1.180000E-8	0.002417
1.185000E-8	0.001588
1.190000E-8	0.000728
1.195000E-8	-0.000106
1.200000E-8	-0.000823
1.205000E-8	-0.001355
1.210000E-8	-0.001591
1.215000E-8	-0.001577
1.220000E-8	-0.001247
1.225000E-8	-0.000606
1.230000E-8	6.406250E-5
1.235000E-8	0.000917
1.240000E-8	0.001752
1.245000E-8	0.002502
1.250000E-8	0.002995
1.255000E-8	0.003256
1.260000E-8	0.003336
1.265000E-8	0.003070
1.270000E-8	0.002564
1.275000E-8	0.001888
1.280000E-8	0.001050
1.285000E-8	0.000245
1.290000E-8	-0.000477
1.295000E-8	-0.001052
1.300000E-8	-0.001358
1.305000E-8	-0.001378
1.310000E-8	-0.001141
1.315000E-8	-0.000627
1.320000E-8	6.250000E-6
1.325000E-8	0.000825
1.330000E-8	0.001750
1.335000E-8	0.002547
1.340000E-8	0.003239
1.345000E-8	0.003730
1.350000E-8	0.003958
1.355000E-8	0.003941
1.360000E-8	0.003659
1.365000E-8	0.003111
1.370000E-8	0.002361
1.375000E-8	0.001630
1.380000E-8	0.000742
1.385000E-8	4.375000E-5
1.390000E-8	-0.000500
1.395000E-8	-0.000753
1.400000E-8	-0.000827
1.405000E-8	-0.000550
1.410000E-8	1.562500E-6
1.415000E-8	0.000666
1.420000E-8	0.001536
1.425000E-8	0.002325
1.430000E-8	0.002981
1.435000E-8	0.003514
1.440000E-8	0.003781
1.445000E-8	0.003888
1.450000E-8	0.003623
1.455000E-8	0.003158
1.460000E-8	0.002527
1.465000E-8	0.001747
1.470000E-8	0.000953
1.475000E-8	0.000234
1.480000E-8	-0.000405
1.485000E-8	-0.000839
1.490000E-8	-0.000964
1.495000E-8	-0.000858
1.500000E-8	-0.000461
1.505000E-8	0.000153
1.510000E-8	0.000819
1.515000E-8	0.001638
1.520000E-8	0.002405
1.525000E-8	0.003056
1.530000E-8	0.003519
1.535000E-8	0.003759
1.540000E-8	0.003703
1.545000E-8	0.003430
1.550000E-8	0.002958
1.555000E-8	0.002338
1.560000E-8	0.001538
1.565000E-8	0.000881
1.570000E-8	0.000250
1.575000E-8	-0.000272
1.580000E-8	-0.000534
1.585000E-8	-0.000611
1.590000E-8	-0.000472
1.595000E-8	6.250000E-6
1.600000E-8	0.000506
1.605000E-8	0.001191
1.610000E-8	0.001973
1.615000E-8	0.002606
1.620000E-8	0.003181
1.625000E-8	0.003630
1.630000E-8	0.003734
1.635000E-8	0.003711
1.640000E-8	0.003384
1.645000E-8	0.002909
1.650000E-8	0.002273
1.655000E-8	0.001630
1.660000E-8	0.000889
1.665000E-8	0.000264
1.670000E-8	-0.000252
1.675000E-8	-0.000450
1.680000E-8	-0.000548
1.685000E-8	-0.000352
1.690000E-8	0.000111
1.695000E-8	0.000653
1.700000E-8	0.001341
1.705000E-8	0.002105
1.710000E-8	0.002711
1.715000E-8	0.003311
1.720000E-8	0.003634
1.725000E-8	0.003759
1.730000E-8	0.003634
1.735000E-8	0.003245
1.740000E-8	0.002748
1.745000E-8	0.002133
1.750000E-8	0.001452
1.755000E-8	0.000819
1.760000E-8	0.000237
1.765000E-8	-0.000138
1.770000E-8	-0.000350
1.775000E-8	-0.000264
1.780000E-8	-0.000133
1.785000E-8	0.000328
1.790000E-8	0.000861
1.795000E-8	0.001466
1.800000E-8	0.002036
1.805000E-8	0.002569
1.810000E-8	0.002970
1.815000E-8	0.003219
1.820000E-8	0.003122
1.825000E-8	0.002977
1.830000E-8	0.002550
1.835000E-8	0.002058
1.840000E-8	0.001481
1.845000E-8	0.000911
1.850000E-8	0.000375
1.855000E-8	9.375000E-6
1.860000E-8	-0.000236
1.865000E-8	-0.000234
1.870000E-8	-7.812500E-6
1.875000E-8	0.000303
1.880000E-8	0.000788
1.885000E-8	0.001444
1.890000E-8	0.002066
1.895000E-8	0.002695
1.900000E-8	0.003108
1.905000E-8	0.003408
1.910000E-8	0.003505
1.915000E-8	0.003358
1.920000E-8	0.003077
1.925000E-8	0.002609
1.930000E-8	0.002048
1.935000E-8	0.001477
1.940000E-8	0.000928
1.945000E-8	0.000477
1.950000E-8	0.000169
1.955000E-8	8.906250E-5
1.960000E-8	0.000191
1.965000E-8	0.000517
1.970000E-8	0.000950
1.975000E-8	0.001495
1.980000E-8	0.002109
1.985000E-8	0.002697
1.990000E-8	0.003252
1.995000E-8	0.003631
2.000000E-8	0.003848
2.005000E-8	0.003797
2.010000E-8	0.003603
2.015000E-8	0.003153
2.020000E-8	0.002625
2.025000E-8	0.001978
2.030000E-8	0.001313
2.035000E-8	0.000697
2.040000E-8	0.000205
2.045000E-8	-5.000000E-5
2.050000E-8	-0.000153
2.055000E-8	-8.125000E-5
2.060000E-8	0.000241
2.065000E-8	0.000694
2.070000E-8	0.001289
2.075000E-8	0.001953
2.080000E-8	0.002514
2.085000E-8	0.003052
2.090000E-8	0.003422
2.095000E-8	0.003609
2.100000E-8	0.003467
2.105000E-8	0.003258
2.110000E-8	0.002897
2.115000E-8	0.002367
2.120000E-8	0.001708
2.125000E-8	0.001131
2.130000E-8	0.000566
2.135000E-8	0.000177
2.140000E-8	-7.656250E-5
2.145000E-8	-7.343750E-5
2.150000E-8	0.000123
2.155000E-8	0.000420
2.160000E-8	0.000963
2.165000E-8	0.001600
2.170000E-8	0.002286
2.175000E-8	0.002792
2.180000E-8	0.003252
2.185000E-8	0.003538
2.190000E-8	0.003636
2.195000E-8	0.003559
2.200000E-8	0.003197
2.205000E-8	0.002769
2.210000E-8	0.002166
2.215000E-8	0.001517
2.220000E-8	0.000930
2.225000E-8	0.000448
2.230000E-8	0.000138
2.235000E-8	6.250000E-6
2.240000E-8	1.718750E-5
2.245000E-8	0.000253
2.250000E-8	0.000666
2.255000E-8	0.001172
2.260000E-8	0.001738
2.265000E-8	0.002331
2.270000E-8	0.002792
2.275000E-8	0.003142
2.280000E-8	0.003314
2.285000E-8	0.003397
2.290000E-8	0.003191
2.295000E-8	0.002911
2.300000E-8	0.002473
2.305000E-8	0.001952
2.310000E-8	0.001403
2.315000E-8	0.000931
2.320000E-8	0.000433
2.325000E-8	0.000195
2.330000E-8	6.406250E-5
2.335000E-8	0.000206
2.340000E-8	0.000434
2.345000E-8	0.000856
2.350000E-8	0.001325
2.355000E-8	0.001850
2.360000E-8	0.002428
2.365000E-8	0.002888
2.370000E-8	0.003175
2.375000E-8	0.003378
2.380000E-8	0.003336
2.385000E-8	0.003158
2.390000E-8	0.002725
2.395000E-8	0.002222
2.400000E-8	0.001570
2.405000E-8	0.001061
2.410000E-8	0.000513
2.415000E-8	0.000122
2.420000E-8	-9.531250E-5
2.425000E-8	-7.812500E-5
2.430000E-8	6.406250E-5
2.435000E-8	0.000438
2.440000E-8	0.000873
2.445000E-8	0.001461
2.450000E-8	0.001966
2.455000E-8	0.002467
2.460000E-8	0.002858
2.465000E-8	0.003198
2.470000E-8	0.003291
2.475000E-8	0.003208
2.480000E-8	0.002959
2.485000E-8	0.002620
2.490000E-8	0.002111
2.495000E-8	0.001606
2.500000E-8	0.001064
2.505000E-8	0.000609
2.510000E-8	0.000366
2.515000E-8	0.000150
2.520000E-8	0.000158
2.525000E-8	0.000450
2.530000E-8	0.000809
2.535000E-8	0.001300
2.540000E-8	0.001870
2.545000E-8	0.002425
2.550000E-8	0.002836
2.555000E-8	0.003188
2.560000E-8	0.003314
2.565000E-8	0.003266
2.570000E-8	0.003105
2.575000E-8	0.002816
2.580000E-8	0.002347
2.585000E-8	0.001855
2.590000E-8	0.001305
2.595000E-8	0.000816
2.600000E-8	0.000459
2.605000E-8	0.000188
2.610000E-8	9.218750E-5
2.615000E-8	0.000222
2.620000E-8	0.000483
2.625000E-8	0.000895
2.630000E-8	0.001455
2.635000E-8	0.001989
2.640000E-8	0.002427
2.645000E-8	0.002834
2.650000E-8	0.003166
2.655000E-8	0.003369
2.660000E-8	0.003341
2.665000E-8	0.003188
2.670000E-8	0.002970
2.675000E-8	0.002548
2.680000E-8	0.002098
2.685000E-8	0.001697
2.690000E-8	0.001236
2.695000E-8	0.000925
2.700000E-8	0.000681
2.705000E-8	0.000589
2.710000E-8	0.000634
2.715000E-8	0.000841
2.720000E-8	0.001169
2.725000E-8	0.001608
2.730000E-8	0.001969
2.735000E-8	0.002414
2.740000E-8	0.002766
2.745000E-8	0.003077
2.750000E-8	0.003203
2.755000E-8	0.003161
2.760000E-8	0.002986
2.765000E-8	0.002667
2.770000E-8	0.002256
2.775000E-8	0.001772
2.780000E-8	0.001347
2.785000E-8	0.000950
2.790000E-8	0.000628
2.795000E-8	0.000581
2.800000E-8	0.000563
2.805000E-8	0.000758
2.810000E-8	0.001047
2.815000E-8	0.001375
2.820000E-8	0.001814
2.825000E-8	0.002275
2.830000E-8	0.002638
2.835000E-8	0.002919
2.840000E-8	0.003055
2.845000E-8	0.003125
2.850000E-8	0.003034
2.855000E-8	0.002753
2.860000E-8	0.002467
2.865000E-8	0.002005
2.870000E-8	0.001692
2.875000E-8	0.001248
2.880000E-8	0.000855
2.885000E-8	0.000623
2.890000E-8	0.000495
2.895000E-8	0.000500
2.900000E-8	0.000655
2.905000E-8	0.000966
2.910000E-8	0.001386
2.915000E-8	0.001798
2.920000E-8	0.002233
2.925000E-8	0.002673
2.930000E-8	0.002889
2.935000E-8	0.003045
2.940000E-8	0.002975
2.945000E-8	0.002842
2.950000E-8	0.002523
2.955000E-8	0.002162
2.960000E-8	0.001681
2.965000E-8	0.001277
2.970000E-8	0.000911
2.975000E-8	0.000595
2.980000E-8	0.000428
2.985000E-8	0.000394
2.990000E-8	0.000508
2.995000E-8	0.000673
3.000000E-8	0.000936
3.005000E-8	0.001319
3.010000E-8	0.001750
3.015000E-8	0.002145
3.020000E-8	0.002375
3.025000E-8	0.002670
3.030000E-8	0.002706
3.035000E-8	0.002648
3.040000E-8	0.002498
3.045000E-8	0.002219
3.050000E-8	0.001838
3.055000E-8	0.001452
3.060000E-8	0.001033
3.065000E-8	0.000702
3.070000E-8	0.000455
3.075000E-8	0.000363
3.080000E-8	0.000364
3.085000E-8	0.000570
3.090000E-8	0.000789
3.095000E-8	0.001128
3.100000E-8	0.001620
3.105000E-8	0.001991
3.110000E-8	0.002344
3.115000E-8	0.002695
3.120000E-8	0.002834
3.125000E-8	0.002853
3.130000E-8	0.002711
3.135000E-8	0.002488
3.140000E-8	0.002136
3.145000E-8	0.001725
3.150000E-8	0.001303
3.155000E-8	0.000956
3.160000E-8	0.000733
3.165000E-8	0.000641
3.170000E-8	0.000617
3.175000E-8	0.000684
3.180000E-8	0.001006
3.185000E-8	0.001377
3.190000E-8	0.001789
3.195000E-8	0.002220
3.200000E-8	0.002506
3.205000E-8	0.002789
3.210000E-8	0.002888
3.215000E-8	0.002884
3.220000E-8	0.002770
3.225000E-8	0.002581
3.230000E-8	0.002195
3.235000E-8	0.001847
3.240000E-8	0.001466
3.245000E-8	0.001130
3.250000E-8	0.000850
3.255000E-8	0.000706
3.260000E-8	0.000612
3.265000E-8	0.000680
3.270000E-8	0.000780
3.275000E-8	0.001056
3.280000E-8	0.001375
3.285000E-8	0.001727
3.290000E-8	0.002097
3.295000E-8	0.002395
3.300000E-8	0.002616
3.305000E-8	0.002781
3.310000E-8	0.002781
3.315000E-8	0.002667
3.320000E-8	0.002481
3.325000E-8	0.002198
3.330000E-8	0.001836
3.335000E-8	0.001498
3.340000E-8	0.001166
3.345000E-8	0.000864
3.350000E-8	0.000675
3.355000E-8	0.000608
3.360000E-8	0.000608
3.365000E-8	0.000781
3.370000E-8	0.000972
3.375000E-8	0.001353
3.380000E-8	0.001750
3.385000E-8	0.002100
3.390000E-8	0.002492
3.395000E-8	0.002744
3.400000E-8	0.002920
3.405000E-8	0.003027
3.410000E-8	0.002934
3.415000E-8	0.002730
3.420000E-8	0.002437
3.425000E-8	0.002147
3.430000E-8	0.001773
3.435000E-8	0.001431
3.440000E-8	0.001117
3.445000E-8	0.001020
3.450000E-8	0.000906
3.455000E-8	0.000967
3.460000E-8	0.001084
3.465000E-8	0.001369
3.470000E-8	0.001642
3.475000E-8	0.002033
3.480000E-8	0.002341
3.485000E-8	0.002642
3.490000E-8	0.002808
3.495000E-8	0.002886
3.500000E-8	0.002902
3.505000E-8	0.002723
3.510000E-8	0.002384
3.515000E-8	0.002086
3.520000E-8	0.001756
3.525000E-8	0.001434
3.530000E-8	0.001206
3.535000E-8	0.000956
3.540000E-8	0.000920
3.545000E-8	0.000966
3.550000E-8	0.001069
3.555000E-8	0.001328
3.560000E-8	0.001617
3.565000E-8	0.001891
3.570000E-8	0.002261
3.575000E-8	0.002459
3.580000E-8	0.002653
3.585000E-8	0.002763
3.590000E-8	0.002789
3.595000E-8	0.002752
3.600000E-8	0.002552
3.605000E-8	0.002281
3.610000E-8	0.001989
3.615000E-8	0.001711
3.620000E-8	0.001456
3.625000E-8	0.001123
3.630000E-8	0.000892
3.635000E-8	0.000848
3.640000E-8	0.000777
3.645000E-8	0.000908
3.650000E-8	0.001067
3.655000E-8	0.001305
3.660000E-8	0.001539
3.665000E-8	0.001906
3.670000E-8	0.002173
3.675000E-8	0.002375
3.680000E-8	0.002473
3.685000E-8	0.002428
3.690000E-8	0.002330
3.695000E-8	0.002114
3.700000E-8	0.001822
3.705000E-8	0.001503
3.710000E-8	0.001166
3.715000E-8	0.000830
3.720000E-8	0.000523
3.725000E-8	0.000408
3.730000E-8	0.000409
3.735000E-8	0.000536
3.740000E-8	0.000783
3.745000E-8	0.001150
3.750000E-8	0.001545
3.755000E-8	0.001959
3.760000E-8	0.002275
3.765000E-8	0.002581
3.770000E-8	0.002767
3.775000E-8	0.002908
3.780000E-8	0.002806
3.785000E-8	0.002728
3.790000E-8	0.002373
3.795000E-8	0.002041
3.800000E-8	0.001667
3.805000E-8	0.001334
3.810000E-8	0.001019
3.815000E-8	0.000875
3.820000E-8	0.000717
3.825000E-8	0.000819
3.830000E-8	0.000914
3.835000E-8	0.001156
3.840000E-8	0.001400
3.845000E-8	0.001716
3.850000E-8	0.002020
3.855000E-8	0.002233
3.860000E-8	0.002491
3.865000E-8	0.002573
3.870000E-8	0.002591
3.875000E-8	0.002566
3.880000E-8	0.002336
3.885000E-8	0.002153
3.890000E-8	0.001884
3.895000E-8	0.001580
3.900000E-8	0.001372
3.905000E-8	0.001158
3.910000E-8	0.000994
3.915000E-8	0.000988
3.920000E-8	0.000950
3.925000E-8	0.001050
3.930000E-8	0.001183
3.935000E-8	0.001397
3.940000E-8	0.001667
3.945000E-8	0.001856
3.950000E-8	0.002092
3.955000E-8	0.002233
3.960000E-8	0.002341
3.965000E-8	0.002378
3.970000E-8	0.002336
3.975000E-8	0.002114
3.980000E-8	0.001892
3.985000E-8	0.001697
3.990000E-8	0.001481
3.995000E-8	0.001295
4.000000E-8	0.001086
4.005000E-8	0.000964
4.010000E-8	0.000986
4.015000E-8	0.000983
4.020000E-8	0.001089
4.025000E-8	0.001316
4.030000E-8	0.001553
4.035000E-8	0.001828
4.040000E-8	0.002069
4.045000E-8	0.002255
4.050000E-8	0.002406
4.055000E-8	0.002541
4.060000E-8	0.002578
4.065000E-8	0.002508
4.070000E-8	0.002306
4.075000E-8	0.002109
4.080000E-8	0.001853
4.085000E-8	0.001609
4.090000E-8	0.001350
4.095000E-8	0.001092
4.100000E-8	0.001028
4.105000E-8	0.000984
4.110000E-8	0.001063
4.115000E-8	0.001227
4.120000E-8	0.001423
4.125000E-8	0.001769
4.130000E-8	0.002005
4.135000E-8	0.002291
4.140000E-8	0.002475
4.145000E-8	0.002727
4.150000E-8	0.002722
4.155000E-8	0.002731
4.160000E-8	0.002547
4.165000E-8	0.002372
4.170000E-8	0.002158
4.175000E-8	0.001897
4.180000E-8	0.001572
4.185000E-8	0.001403
4.190000E-8	0.001275
4.195000E-8	0.001177
4.200000E-8	0.001103
4.205000E-8	0.001186
4.210000E-8	0.001370
4.215000E-8	0.001513
4.220000E-8	0.001589
4.225000E-8	0.001817
4.230000E-8	0.001937
4.235000E-8	0.002128
4.240000E-8	0.002158
4.245000E-8	0.002227
4.250000E-8	0.002138
4.255000E-8	0.002147
4.260000E-8	0.002003
4.265000E-8	0.001797
4.270000E-8	0.001602
4.275000E-8	0.001437
4.280000E-8	0.001248
4.285000E-8	0.001153
4.290000E-8	0.001055
4.295000E-8	0.001091
4.300000E-8	0.001152
4.305000E-8	0.001406
4.310000E-8	0.001595
4.315000E-8	0.001883
4.320000E-8	0.002214
4.325000E-8	0.002509
4.330000E-8	0.002700
4.335000E-8	0.002869
4.340000E-8	0.002878
4.345000E-8	0.002728
4.350000E-8	0.002450
4.355000E-8	0.002222
4.360000E-8	0.001888
4.365000E-8	0.001513
4.370000E-8	0.001192
4.375000E-8	0.000964
4.380000E-8	0.000836
4.385000E-8	0.000831
4.390000E-8	0.000905
4.395000E-8	0.001105
4.400000E-8	0.001409
4.405000E-8	0.001669
4.410000E-8	0.001980
4.415000E-8	0.002350
4.420000E-8	0.002506
4.425000E-8	0.002669
4.430000E-8	0.002731
4.435000E-8	0.002694
4.440000E-8	0.002548
4.445000E-8	0.002334
4.450000E-8	0.002033
4.455000E-8	0.001744
4.460000E-8	0.001437
4.465000E-8	0.001211
4.470000E-8	0.001081
4.475000E-8	0.000991
4.480000E-8	0.000963
4.485000E-8	0.001117
4.490000E-8	0.001297
4.495000E-8	0.001550
4.500000E-8	0.001728
4.505000E-8	0.002034
4.510000E-8	0.002211
4.515000E-8	0.002334
4.520000E-8	0.002419
4.525000E-8	0.002392
4.530000E-8	0.002294
4.535000E-8	0.001986
4.540000E-8	0.001847
4.545000E-8	0.001561
4.550000E-8	0.001247
4.555000E-8	0.000972
4.560000E-8	0.000734
4.565000E-8	0.000694
4.570000E-8	0.000567
4.575000E-8	0.000603
4.580000E-8	0.000811
4.585000E-8	0.001056
4.590000E-8	0.001359
4.595000E-8	0.001684
4.600000E-8	0.001983
4.605000E-8	0.002278
4.610000E-8	0.002444
4.615000E-8	0.002531
4.620000E-8	0.002555
4.625000E-8	0.002436
4.630000E-8	0.002189
4.635000E-8	0.001977
4.640000E-8	0.001647
4.645000E-8	0.001405
4.650000E-8	0.001136
4.655000E-8	0.000964
4.660000E-8	0.000873
4.665000E-8	0.000886
4.670000E-8	0.000948
4.675000E-8	0.001163
4.680000E-8	0.001484
4.685000E-8	0.001766
4.690000E-8	0.002061
4.695000E-8	0.002409
4.700000E-8	0.002552
4.705000E-8	0.002698
4.710000E-8	0.002692
4.715000E-8	0.002681
4.720000E-8	0.002536
4.725000E-8	0.002306
4.730000E-8	0.002087
4.735000E-8	0.001798
4.740000E-8	0.001594
4.745000E-8	0.001411
4.750000E-8	0.001230
4.755000E-8	0.001089
4.760000E-8	0.001078
4.765000E-8	0.001156
4.770000E-8	0.001205
4.775000E-8	0.001430
4.780000E-8	0.001578
4.785000E-8	0.001738
4.790000E-8	0.001819
4.795000E-8	0.001880
4.800000E-8	0.001861
4.805000E-8	0.001833
4.810000E-8	0.001695
4.815000E-8	0.001581
4.820000E-8	0.001389
4.825000E-8	0.001242
4.830000E-8	0.001053
4.835000E-8	0.000961
4.840000E-8	0.000903
4.845000E-8	0.000869
4.850000E-8	0.000950
4.855000E-8	0.001064
4.860000E-8	0.001295
4.865000E-8	0.001517
4.870000E-8	0.001795
4.875000E-8	0.002045
4.880000E-8	0.002258
4.885000E-8	0.002398
4.890000E-8	0.002467
4.895000E-8	0.002523
4.900000E-8	0.002439
4.905000E-8	0.002333
4.910000E-8	0.002189
4.915000E-8	0.001959
4.920000E-8	0.001706
4.925000E-8	0.001502
4.930000E-8	0.001328
4.935000E-8	0.001184
4.940000E-8	0.001092
4.945000E-8	0.001105
4.950000E-8	0.001169
4.955000E-8	0.001241
4.960000E-8	0.001400
4.965000E-8	0.001591
4.970000E-8	0.001763
4.975000E-8	0.002011
4.980000E-8	0.002142
4.985000E-8	0.002294
4.990000E-8	0.002345
4.995000E-8	0.002311
5.000000E-8	0.002234
5.005000E-8	0.002048
5.010000E-8	0.001728
5.015000E-8	0.001447
5.020000E-8	0.001192
5.025000E-8	0.000886
5.030000E-8	0.000817
5.035000E-8	0.000678
5.040000E-8	0.000688
5.045000E-8	0.000923
5.050000E-8	0.001069
5.055000E-8	0.001292
5.060000E-8	0.001606
5.065000E-8	0.001852
5.070000E-8	0.002019
5.075000E-8	0.002188
5.080000E-8	0.002156
5.085000E-8	0.002155
5.090000E-8	0.002080
5.095000E-8	0.001914
5.100000E-8	0.001741
5.105000E-8	0.001528
5.110000E-8	0.001309
5.115000E-8	0.001083
5.120000E-8	0.000920
5.125000E-8	0.000838
5.130000E-8	0.000814
5.135000E-8	0.000978
5.140000E-8	0.001161
5.145000E-8	0.001414
5.150000E-8	0.001700
5.155000E-8	0.001997
5.160000E-8	0.002202
5.165000E-8	0.002398
5.170000E-8	0.002441
5.175000E-8	0.002436
5.180000E-8	0.002402
5.185000E-8	0.002162
5.190000E-8	0.001925
5.195000E-8	0.001691
5.200000E-8	0.001425
5.205000E-8	0.001252
5.210000E-8	0.001083
5.215000E-8	0.000967
5.220000E-8	0.000998
5.225000E-8	0.001061
5.230000E-8	0.001178
5.235000E-8	0.001377
5.240000E-8	0.001531
5.245000E-8	0.001769
5.250000E-8	0.001969
5.255000E-8	0.002111
5.260000E-8	0.002259
5.265000E-8	0.002267
5.270000E-8	0.002283
5.275000E-8	0.002234
5.280000E-8	0.002100
5.285000E-8	0.001988
5.290000E-8	0.001714
5.295000E-8	0.001506
5.300000E-8	0.001247
5.305000E-8	0.001131
5.310000E-8	0.001003
5.315000E-8	0.000988
5.320000E-8	0.001016
5.325000E-8	0.001138
5.330000E-8	0.001239
5.335000E-8	0.001439
5.340000E-8	0.001700
5.345000E-8	0.001886
5.350000E-8	0.001988
5.355000E-8	0.002188
5.360000E-8	0.002230
5.365000E-8	0.002222
5.370000E-8	0.002091
5.375000E-8	0.001930
5.380000E-8	0.001772
5.385000E-8	0.001570
5.390000E-8	0.001333
5.395000E-8	0.001203
5.400000E-8	0.001141
5.405000E-8	0.001105
5.410000E-8	0.001112
5.415000E-8	0.001230
5.420000E-8	0.001395
5.425000E-8	0.001667
5.430000E-8	0.001909
5.435000E-8	0.002181
5.440000E-8	0.002341
5.445000E-8	0.002545
5.450000E-8	0.002653
5.455000E-8	0.002641
5.460000E-8	0.002545
5.465000E-8	0.002416
5.470000E-8	0.002211
5.475000E-8	0.001970
5.480000E-8	0.001706
5.485000E-8	0.001541
5.490000E-8	0.001313
5.495000E-8	0.001164
5.500000E-8	0.001153
5.505000E-8	0.001147
5.510000E-8	0.001267
5.515000E-8	0.001447
5.520000E-8	0.001538
5.525000E-8	0.001680
5.530000E-8	0.001809
5.535000E-8	0.001997
5.540000E-8	0.002061
5.545000E-8	0.002072
5.550000E-8	0.002091
5.555000E-8	0.002014
5.560000E-8	0.001856
5.565000E-8	0.001784
5.570000E-8	0.001614
5.575000E-8	0.001508
5.580000E-8	0.001384
5.585000E-8	0.001361
5.590000E-8	0.001350
5.595000E-8	0.001323
5.600000E-8	0.001395
5.605000E-8	0.001420
5.610000E-8	0.001598
5.615000E-8	0.001687
5.620000E-8	0.001842
5.625000E-8	0.002048
5.630000E-8	0.002144
5.635000E-8	0.002219
5.640000E-8	0.002195
5.645000E-8	0.002188
5.650000E-8	0.002098
5.655000E-8	0.001867
5.660000E-8	0.001620
5.665000E-8	0.001416
5.670000E-8	0.001198
5.675000E-8	0.001003
5.680000E-8	0.000948
5.685000E-8	0.000931
5.690000E-8	0.000930
5.695000E-8	0.001127
5.700000E-8	0.001280
5.705000E-8	0.001519
5.710000E-8	0.001778
5.715000E-8	0.002050
5.720000E-8	0.002253
5.725000E-8	0.002361
5.730000E-8	0.002467
5.735000E-8	0.002483
5.740000E-8	0.002416
5.745000E-8	0.002378
5.750000E-8	0.002206
5.755000E-8	0.002050
5.760000E-8	0.001827
5.765000E-8	0.001647
5.770000E-8	0.001489
5.775000E-8	0.001395
5.780000E-8	0.001370
5.785000E-8	0.001334
5.790000E-8	0.001428
5.795000E-8	0.001545
5.800000E-8	0.001722
5.805000E-8	0.001939
5.810000E-8	0.002136
5.815000E-8	0.002314
5.820000E-8	0.002497
5.825000E-8	0.002558
5.830000E-8	0.002609
5.835000E-8	0.002569
5.840000E-8	0.002464
5.845000E-8	0.002300
5.850000E-8	0.002105
5.855000E-8	0.001881
5.860000E-8	0.001634
5.865000E-8	0.001384
5.870000E-8	0.001233
5.875000E-8	0.001167
5.880000E-8	0.001128
5.885000E-8	0.001177
5.890000E-8	0.001308
5.895000E-8	0.001425
5.900000E-8	0.001655
5.905000E-8	0.001830
5.910000E-8	0.001981
5.915000E-8	0.002042
5.920000E-8	0.002100
5.925000E-8	0.001997
5.930000E-8	0.001852
5.935000E-8	0.001664
5.940000E-8	0.001411
5.945000E-8	0.001247
5.950000E-8	0.001036
5.955000E-8	0.000895
5.960000E-8	0.000825
5.965000E-8	0.000836
5.970000E-8	0.000863
5.975000E-8	0.000980
5.980000E-8	0.001103
5.985000E-8	0.001331
5.990000E-8	0.001500
5.995000E-8	0.001656
6.000000E-8	0.001781
6.005000E-8	0.001955
6.010000E-8	0.002012
6.015000E-8	0.001973
6.020000E-8	0.001988
6.025000E-8	0.001942
6.030000E-8	0.001906
6.035000E-8	0.001809
6.040000E-8	0.001734
6.045000E-8	0.001664
6.050000E-8	0.001603
6.055000E-8	0.001550
6.060000E-8	0.001545
6.065000E-8	0.001703
6.070000E-8	0.001802
6.075000E-8	0.001894
6.080000E-8	0.002009
6.085000E-8	0.002116
6.090000E-8	0.002136
6.095000E-8	0.002222
6.100000E-8	0.002147
6.105000E-8	0.002133
6.110000E-8	0.002070
6.115000E-8	0.001989
6.120000E-8	0.001892
6.125000E-8	0.001811
6.130000E-8	0.001711
6.135000E-8	0.001594
6.140000E-8	0.001477
6.145000E-8	0.001478
6.150000E-8	0.001298
6.155000E-8	0.001313
6.160000E-8	0.001323
6.165000E-8	0.001452
6.170000E-8	0.001581
6.175000E-8	0.001742
6.180000E-8	0.001800
6.185000E-8	0.001983
6.190000E-8	0.002134
6.195000E-8	0.002145
6.200000E-8	0.002125
6.205000E-8	0.002072
6.210000E-8	0.001950
6.215000E-8	0.001827
6.220000E-8	0.001622
6.225000E-8	0.001441
6.230000E-8	0.001173
6.235000E-8	0.001006
6.240000E-8	0.000925
6.245000E-8	0.000894
6.250000E-8	0.000952
6.255000E-8	0.001073
6.260000E-8	0.001202
6.265000E-8	0.001406
6.270000E-8	0.001669
6.275000E-8	0.001811
6.280000E-8	0.001913
6.285000E-8	0.002041
6.290000E-8	0.002077
6.295000E-8	0.002102
6.300000E-8	0.002053
6.305000E-8	0.002038
6.310000E-8	0.001937
6.315000E-8	0.001864
6.320000E-8	0.001747
6.325000E-8	0.001692
6.330000E-8	0.001572
6.335000E-8	0.001523
6.340000E-8	0.001475
6.345000E-8	0.001542
6.350000E-8	0.001530
6.355000E-8	0.001622
6.360000E-8	0.001708
6.365000E-8	0.001795
6.370000E-8	0.001853
6.375000E-8	0.001883
6.380000E-8	0.001906
6.385000E-8	0.001914
6.390000E-8	0.001819
6.395000E-8	0.001825
6.400000E-8	0.001669
6.405000E-8	0.001573
6.410000E-8	0.001434
6.415000E-8	0.001338
6.420000E-8	0.001373
6.425000E-8	0.001336
6.430000E-8	0.001352
6.435000E-8	0.001433
6.440000E-8	0.001509
6.445000E-8	0.001628
6.450000E-8	0.001769
6.455000E-8	0.001898
6.460000E-8	0.002006
6.465000E-8	0.002120
6.470000E-8	0.002175
6.475000E-8	0.002183
6.480000E-8	0.002131
6.485000E-8	0.002036
6.490000E-8	0.001944
6.495000E-8	0.001820
6.500000E-8	0.001756
6.505000E-8	0.001644
6.510000E-8	0.001548
6.515000E-8	0.001444
6.520000E-8	0.001391
6.525000E-8	0.001413
6.530000E-8	0.001384
6.535000E-8	0.001489
6.540000E-8	0.001597
6.545000E-8	0.001678
6.550000E-8	0.001741
6.555000E-8	0.001808
6.560000E-8	0.001872
6.565000E-8	0.001908
6.570000E-8	0.001948
6.575000E-8	0.002025
6.580000E-8	0.002036
6.585000E-8	0.001983
6.590000E-8	0.001894
6.595000E-8	0.001822
6.600000E-8	0.001648
6.605000E-8	0.001563
6.610000E-8	0.001453
6.615000E-8	0.001375
6.620000E-8	0.001366
6.625000E-8	0.001377
6.630000E-8	0.001428
6.635000E-8	0.001567
6.640000E-8	0.001695
6.645000E-8	0.001853
6.650000E-8	0.001975
6.655000E-8	0.002131
6.660000E-8	0.002209
6.665000E-8	0.002239
6.670000E-8	0.002175
6.675000E-8	0.001983
6.680000E-8	0.001898
6.685000E-8	0.001711
6.690000E-8	0.001470
6.695000E-8	0.001322
6.700000E-8	0.001158
6.705000E-8	0.001084
6.710000E-8	0.001105
6.715000E-8	0.001153
6.720000E-8	0.001231
6.725000E-8	0.001458
6.730000E-8	0.001645
6.735000E-8	0.001869
6.740000E-8	0.002039
6.745000E-8	0.002244
6.750000E-8	0.002234
6.755000E-8	0.002261
6.760000E-8	0.002130
6.765000E-8	0.002148
6.770000E-8	0.001981
6.775000E-8	0.001833
6.780000E-8	0.001727
6.785000E-8	0.001544
6.790000E-8	0.001416
6.795000E-8	0.001333
6.800000E-8	0.001194
6.805000E-8	0.001180
6.810000E-8	0.001167
6.815000E-8	0.001239
6.820000E-8	0.001278
6.825000E-8	0.001386
6.830000E-8	0.001552
6.835000E-8	0.001736
6.840000E-8	0.001813
6.845000E-8	0.001972
6.850000E-8	0.002005
6.855000E-8	0.002000
6.860000E-8	0.001959
6.865000E-8	0.001828
6.870000E-8	0.001750
6.875000E-8	0.001630
6.880000E-8	0.001548
6.885000E-8	0.001494
6.890000E-8	0.001495
6.895000E-8	0.001508
6.900000E-8	0.001484
6.905000E-8	0.001619
6.910000E-8	0.001666
6.915000E-8	0.001819
6.920000E-8	0.001900
6.925000E-8	0.001970
6.930000E-8	0.001963
6.935000E-8	0.001959
6.940000E-8	0.001969
6.945000E-8	0.001972
6.950000E-8	0.001869
6.955000E-8	0.001861
6.960000E-8	0.001802
6.965000E-8	0.001766
6.970000E-8	0.001669
6.975000E-8	0.001653
6.980000E-8	0.001563
6.985000E-8	0.001525
6.990000E-8	0.001437
6.995000E-8	0.001458
7.000000E-8	0.001430
7.005000E-8	0.001509
7.010000E-8	0.001633
7.015000E-8	0.001687
7.020000E-8	0.001823
7.025000E-8	0.001923
7.030000E-8	0.002020
7.035000E-8	0.002069
7.040000E-8	0.002008
7.045000E-8	0.002008
7.050000E-8	0.001895
7.055000E-8	0.001813
7.060000E-8	0.001756
7.065000E-8	0.001647
7.070000E-8	0.001500
7.075000E-8	0.001427
7.080000E-8	0.001341
7.085000E-8	0.001303
7.090000E-8	0.001298
7.095000E-8	0.001344
7.100000E-8	0.001328
7.105000E-8	0.001397
7.110000E-8	0.001494
7.115000E-8	0.001630
7.120000E-8	0.001778
7.125000E-8	0.001805
7.130000E-8	0.001855
7.135000E-8	0.001983
7.140000E-8	0.001898
7.145000E-8	0.001909
7.150000E-8	0.001806
7.155000E-8	0.001752
7.160000E-8	0.001567
7.165000E-8	0.001547
7.170000E-8	0.001416
7.175000E-8	0.001428
7.180000E-8	0.001414
7.185000E-8	0.001494
7.190000E-8	0.001558
7.195000E-8	0.001638
7.200000E-8	0.001720
7.205000E-8	0.001805
7.210000E-8	0.001859
7.215000E-8	0.001917
7.220000E-8	0.001978
7.225000E-8	0.001952
7.230000E-8	0.001942
7.235000E-8	0.001977
7.240000E-8	0.001945
7.245000E-8	0.001925
7.250000E-8	0.001863
7.255000E-8	0.001819
7.260000E-8	0.001680
7.265000E-8	0.001648
7.270000E-8	0.001591
7.275000E-8	0.001511
7.280000E-8	0.001530
7.285000E-8	0.001561
7.290000E-8	0.001533
7.295000E-8	0.001639
7.300000E-8	0.001717
7.305000E-8	0.001842
7.310000E-8	0.001889
7.315000E-8	0.001959
7.320000E-8	0.001937
7.325000E-8	0.001906
7.330000E-8	0.001806
7.335000E-8	0.001702
7.340000E-8	0.001563
7.345000E-8	0.001508
7.350000E-8	0.001381
7.355000E-8	0.001334
7.360000E-8	0.001316
7.365000E-8	0.001284
7.370000E-8	0.001334
7.375000E-8	0.001416
7.380000E-8	0.001470
7.385000E-8	0.001580
7.390000E-8	0.001758
7.395000E-8	0.001881
7.400000E-8	0.001953
7.405000E-8	0.002067
7.410000E-8	0.002175
7.415000E-8	0.002239
7.420000E-8	0.002266
7.425000E-8	0.002169
7.430000E-8	0.002123
7.435000E-8	0.001994
7.440000E-8	0.001867
7.445000E-8	0.001786
7.450000E-8	0.001664
7.455000E-8	0.001534
7.460000E-8	0.001522
7.465000E-8	0.001583
7.470000E-8	0.001611
7.475000E-8	0.001733
7.480000E-8	0.001784
7.485000E-8	0.001878
7.490000E-8	0.001959
7.495000E-8	0.001977
7.500000E-8	0.002011
7.505000E-8	0.001970
7.510000E-8	0.001891
7.515000E-8	0.001883
7.520000E-8	0.001825
7.525000E-8	0.001700
7.530000E-8	0.001658
7.535000E-8	0.001586
7.540000E-8	0.001567
7.545000E-8	0.001566
7.550000E-8	0.001588
7.555000E-8	0.001606
7.560000E-8	0.001667
7.565000E-8	0.001755
7.570000E-8	0.001775
7.575000E-8	0.001902
7.580000E-8	0.001925
7.585000E-8	0.001978
7.590000E-8	0.001937
7.595000E-8	0.001958
7.600000E-8	0.001914
7.605000E-8	0.001933
7.610000E-8	0.001906
7.615000E-8	0.001822
7.620000E-8	0.001802
7.625000E-8	0.001792
7.630000E-8	0.001800
7.635000E-8	0.001745
7.640000E-8	0.001742
7.645000E-8	0.001763
7.650000E-8	0.001791
7.655000E-8	0.001773
7.660000E-8	0.001727
7.665000E-8	0.001814
7.670000E-8	0.001789
7.675000E-8	0.001827
7.680000E-8	0.001791
7.685000E-8	0.001798
7.690000E-8	0.001734
7.695000E-8	0.001723
7.700000E-8	0.001687
7.705000E-8	0.001677
7.710000E-8	0.001678
7.715000E-8	0.001697
7.720000E-8	0.001714
7.725000E-8	0.001653
7.730000E-8	0.001580
7.735000E-8	0.001628
7.740000E-8	0.001575
7.745000E-8	0.001584
7.750000E-8	0.001597
7.755000E-8	0.001648
7.760000E-8	0.001645
7.765000E-8	0.001758
7.770000E-8	0.001786
7.775000E-8	0.001975
7.780000E-8	0.002073
7.785000E-8	0.002206
7.790000E-8	0.002166
7.795000E-8	0.002258
7.800000E-8	0.002170
7.805000E-8	0.002134
7.810000E-8	0.002073
7.815000E-8	0.001981
7.820000E-8	0.001867
7.825000E-8	0.001741
7.830000E-8	0.001745
7.835000E-8	0.001619
7.840000E-8	0.001605
7.845000E-8	0.001633
7.850000E-8	0.001623
7.855000E-8	0.001677
7.860000E-8	0.001705
7.865000E-8	0.001775
7.870000E-8	0.001800
7.875000E-8	0.001830
7.880000E-8	0.001911
7.885000E-8	0.001888
7.890000E-8	0.001930
7.895000E-8	0.001939
7.900000E-8	0.001838
7.905000E-8	0.001772
7.910000E-8	0.001758
7.915000E-8	0.001739
7.920000E-8	0.001673
7.925000E-8	0.001672
7.930000E-8	0.001708
7.935000E-8	0.001744
7.940000E-8	0.001731
7.945000E-8	0.001750
7.950000E-8	0.001705
7.955000E-8	0.001797
7.960000E-8	0.001686
7.965000E-8	0.001719
7.970000E-8	0.001736
7.975000E-8	0.001633
7.980000E-8	0.001727
7.985000E-8	0.001745
7.990000E-8	0.001736
7.995000E-8	0.001700
8.000000E-8	0.001625
8.005000E-8	0.001622
8.010000E-8	0.001491
8.015000E-8	0.001566
8.020000E-8	0.001463
8.025000E-8	0.001456
8.030000E-8	0.001427
8.035000E-8	0.001436
8.040000E-8	0.001491
8.045000E-8	0.001519
8.050000E-8	0.001603
8.055000E-8	0.001703
8.060000E-8	0.001767
8.065000E-8	0.001880
8.070000E-8	0.001950
8.075000E-8	0.001978
8.080000E-8	0.001970
8.085000E-8	0.001913
8.090000E-8	0.001802
8.095000E-8	0.001772
8.100000E-8	0.001694
8.105000E-8	0.001683
8.110000E-8	0.001583
8.115000E-8	0.001617
8.120000E-8	0.001678
8.125000E-8	0.001747
8.130000E-8	0.001822
8.135000E-8	0.001975
8.140000E-8	0.002055
8.145000E-8	0.002133
8.150000E-8	0.002130
8.155000E-8	0.002198
8.160000E-8	0.002169
8.165000E-8	0.002209
8.170000E-8	0.002148
8.175000E-8	0.002058
8.180000E-8	0.002006
8.185000E-8	0.001953
8.190000E-8	0.001900
8.195000E-8	0.001841
8.200000E-8	0.001783
8.205000E-8	0.001775
8.210000E-8	0.001758
8.215000E-8	0.001791
8.220000E-8	0.001877
8.225000E-8	0.001992
8.230000E-8	0.002056
8.235000E-8	0.002091
8.240000E-8	0.002117
8.245000E-8	0.002133
8.250000E-8	0.002119
8.255000E-8	0.002086
8.260000E-8	0.001903
8.265000E-8	0.001828
8.270000E-8	0.001731
8.275000E-8	0.001625
8.280000E-8	0.001453
8.285000E-8	0.001403
8.290000E-8	0.001325
8.295000E-8	0.001350
8.300000E-8	0.001353
8.305000E-8	0.001478
8.310000E-8	0.001563
8.315000E-8	0.001747
8.320000E-8	0.001805
8.325000E-8	0.001911
8.330000E-8	0.002002
8.335000E-8	0.002102
8.340000E-8	0.002055
8.345000E-8	0.002070
8.350000E-8	0.002005
8.355000E-8	0.001969
8.360000E-8	0.001919
8.365000E-8	0.001809
8.370000E-8	0.001742
8.375000E-8	0.001653
8.380000E-8	0.001586
8.385000E-8	0.001541
8.390000E-8	0.001516
8.395000E-8	0.001506
8.400000E-8	0.001533
8.405000E-8	0.001561
8.410000E-8	0.001661
8.415000E-8	0.001669
8.420000E-8	0.001723
8.425000E-8	0.001750
8.430000E-8	0.001805
8.435000E-8	0.001869
8.440000E-8	0.001872
8.445000E-8	0.001861
8.450000E-8	0.001930
8.455000E-8	0.001839
8.460000E-8	0.001761
8.465000E-8	0.001673
8.470000E-8	0.001722
8.475000E-8	0.001694
8.480000E-8	0.001697
8.485000E-8	0.001723
8.490000E-8	0.001728
8.495000E-8	0.001730
8.500000E-8	0.001761
8.505000E-8	0.001825
8.510000E-8	0.001777
8.515000E-8	0.001711
8.520000E-8	0.001667
8.525000E-8	0.001634
8.530000E-8	0.001464
8.535000E-8	0.001423
8.540000E-8	0.001350
8.545000E-8	0.001231
8.550000E-8	0.001214
8.555000E-8	0.001256
8.560000E-8	0.001344
8.565000E-8	0.001377
8.570000E-8	0.001400
8.575000E-8	0.001505
8.580000E-8	0.001577
8.585000E-8	0.001691
8.590000E-8	0.001808
8.595000E-8	0.001927
8.600000E-8	0.002002
8.605000E-8	0.002064
8.610000E-8	0.002102
8.615000E-8	0.002098
8.620000E-8	0.002081
8.625000E-8	0.002058
8.630000E-8	0.002020
8.635000E-8	0.001998
8.640000E-8	0.001930
8.645000E-8	0.001930
8.650000E-8	0.001869
8.655000E-8	0.001864
8.660000E-8	0.001817
8.665000E-8	0.001892
8.670000E-8	0.001858
8.675000E-8	0.001853
8.680000E-8	0.001836
8.685000E-8	0.001775
8.690000E-8	0.001820
8.695000E-8	0.001825
8.700000E-8	0.001822
8.705000E-8	0.001855
8.710000E-8	0.001933
8.715000E-8	0.001883
8.720000E-8	0.002080
8.725000E-8	0.002059
8.730000E-8	0.002086
8.735000E-8	0.002145
8.740000E-8	0.002080
8.745000E-8	0.002067
8.750000E-8	0.002002
8.755000E-8	0.001958
8.760000E-8	0.001853
8.765000E-8	0.001813
8.770000E-8	0.001666
8.775000E-8	0.001641
8.780000E-8	0.001653
8.785000E-8	0.001664
8.790000E-8	0.001664
8.795000E-8	0.001706
8.800000E-8	0.001803
8.805000E-8	0.001883
8.810000E-8	0.001891
8.815000E-8	0.001941
8.820000E-8	0.001905
8.825000E-8	0.001988
8.830000E-8	0.001913
8.835000E-8	0.001927
8.840000E-8	0.001869
8.845000E-8	0.001864
8.850000E-8	0.001800
8.855000E-8	0.001728
8.860000E-8	0.001778
8.865000E-8	0.001795
8.870000E-8	0.001778
8.875000E-8	0.001850
8.880000E-8	0.001892
8.885000E-8	0.001952
8.890000E-8	0.001917
8.895000E-8	0.001998
8.900000E-8	0.001953
8.905000E-8	0.001933
8.910000E-8	0.001902
8.915000E-8	0.001786
8.920000E-8	0.001683
8.925000E-8	0.001698
8.930000E-8	0.001627
8.935000E-8	0.001570
8.940000E-8	0.001514
8.945000E-8	0.001514
8.950000E-8	0.001488
8.955000E-8	0.001447
8.960000E-8	0.001444
8.965000E-8	0.001458
8.970000E-8	0.001469
8.975000E-8	0.001567
8.980000E-8	0.001567
8.985000E-8	0.001661
8.990000E-8	0.001722
8.995000E-8	0.001739
9.000000E-8	0.001783
9.005000E-8	0.001845
9.010000E-8	0.001875
9.015000E-8	0.001803
9.020000E-8	0.001819
9.025000E-8	0.001866
9.030000E-8	0.001872
9.035000E-8	0.001813
9.040000E-8	0.001803
9.045000E-8	0.001813
9.050000E-8	0.001833
9.055000E-8	0.001789
9.060000E-8	0.001839
9.065000E-8	0.001834
9.070000E-8	0.001905
9.075000E-8	0.001878
9.080000E-8	0.001889
9.085000E-8	0.001922
9.090000E-8	0.001913
9.095000E-8	0.001883
9.100000E-8	0.001798
9.105000E-8	0.001767
9.110000E-8	0.001713
9.115000E-8	0.001708
9.120000E-8	0.001605
9.125000E-8	0.001477
9.130000E-8	0.001470
9.135000E-8	0.001448
9.140000E-8	0.001506
9.145000E-8	0.001548
9.150000E-8	0.001567
9.155000E-8	0.001697
9.160000E-8	0.001664
9.165000E-8	0.001723
9.170000E-8	0.001748
9.175000E-8	0.001813
9.180000E-8	0.001825
9.185000E-8	0.001888
9.190000E-8	0.001836
9.195000E-8	0.001845
9.200000E-8	0.001836
9.205000E-8	0.001800
9.210000E-8	0.001684
9.215000E-8	0.001588
9.220000E-8	0.001469
9.225000E-8	0.001436
9.230000E-8	0.001330
9.235000E-8	0.001361
9.240000E-8	0.001344
9.245000E-8	0.001420
9.250000E-8	0.001534
9.255000E-8	0.001578
9.260000E-8	0.001664
9.265000E-8	0.001761
9.270000E-8	0.001795
9.275000E-8	0.001841
9.280000E-8	0.001797
9.285000E-8	0.001752
9.290000E-8	0.001675
9.295000E-8	0.001547
9.300000E-8	0.001489
9.305000E-8	0.001513
9.310000E-8	0.001477
9.315000E-8	0.001484
9.320000E-8	0.001530
9.325000E-8	0.001620
9.330000E-8	0.001694
9.335000E-8	0.001897
9.340000E-8	0.001931
9.345000E-8	0.002020
9.350000E-8	0.002003
9.355000E-8	0.001977
9.360000E-8	0.001909
9.365000E-8	0.001800
9.370000E-8	0.001645
9.375000E-8	0.001550
9.380000E-8	0.001455
9.385000E-8	0.001386
9.390000E-8	0.001362
9.395000E-8	0.001398
9.400000E-8	0.001450
9.405000E-8	0.001548
9.410000E-8	0.001609
9.415000E-8	0.001773
9.420000E-8	0.001781
9.425000E-8	0.001867
9.430000E-8	0.001939
9.435000E-8	0.001908
9.440000E-8	0.001914
9.445000E-8	0.001945
9.450000E-8	0.001925
9.455000E-8	0.001880
9.460000E-8	0.001819
9.465000E-8	0.001820
9.470000E-8	0.001817
9.475000E-8	0.001838
9.480000E-8	0.001795
9.485000E-8	0.001830
9.490000E-8	0.001744
9.495000E-8	0.001731
9.500000E-8	0.001627
9.505000E-8	0.001575
9.510000E-8	0.001525
9.515000E-8	0.001502
9.520000E-8	0.001463
9.525000E-8	0.001509
9.530000E-8	0.001505
9.535000E-8	0.001514
9.540000E-8	0.001511
9.545000E-8	0.001569
9.550000E-8	0.001609
9.555000E-8	0.001675
9.560000E-8	0.001748
9.565000E-8	0.001777
9.570000E-8	0.001856
9.575000E-8	0.001819
9.580000E-8	0.001869
9.585000E-8	0.001850
9.590000E-8	0.001898
9.595000E-8	0.001914
9.600000E-8	0.001903
9.605000E-8	0.001850
9.610000E-8	0.001811
9.615000E-8	0.001784
9.620000E-8	0.001828
9.625000E-8	0.001845
9.630000E-8	0.001823
9.635000E-8	0.001809
9.640000E-8	0.001794
9.645000E-8	0.001911
9.650000E-8	0.001825
9.655000E-8	0.001789
9.660000E-8	0.001739
9.665000E-8	0.001644
9.670000E-8	0.001577
9.675000E-8	0.001417
9.680000E-8	0.001388
9.685000E-8	0.001406
9.690000E-8	0.001320
9.695000E-8	0.001270
9.700000E-8	0.001381
9.705000E-8	0.001450
9.710000E-8	0.001483
9.715000E-8	0.001527
9.720000E-8	0.001594
9.725000E-8	0.001716
9.730000E-8	0.001672
9.735000E-8	0.001586
9.740000E-8	0.001608
9.745000E-8	0.001588
9.750000E-8	0.001561
9.755000E-8	0.001561
9.760000E-8	0.001578
9.765000E-8	0.001636
9.770000E-8	0.001594
9.775000E-8	0.001759
9.780000E-8	0.001731
9.785000E-8	0.001766
9.790000E-8	0.001830
9.795000E-8	0.001772
9.800000E-8	0.001694
9.805000E-8	0.001638
9.810000E-8	0.001539
9.815000E-8	0.001533
9.820000E-8	0.001463
9.825000E-8	0.001461
9.830000E-8	0.001461
9.835000E-8	0.001511
9.840000E-8	0.001519
9.845000E-8	0.001577
9.850000E-8	0.001619
9.855000E-8	0.001670
9.860000E-8	0.001677
9.865000E-8	0.001736
9.870000E-8	0.001730
9.875000E-8	0.001717
9.880000E-8	0.001695
9.885000E-8	0.001675
9.890000E-8	0.001592
9.895000E-8	0.001597
9.900000E-8	0.001548
9.905000E-8	0.001620
9.910000E-8	0.001591
9.915000E-8	0.001623
9.920000E-8	0.001641
9.925000E-8	0.001747
9.930000E-8	0.001808
9.935000E-8	0.001852
9.940000E-8	0.001880
9.945000E-8	0.001845
9.950000E-8	0.001813
9.955000E-8	0.001856
9.960000E-8	0.001886
9.965000E-8	0.001769
9.970000E-8	0.001753
9.975000E-8	0.001734
9.980000E-8	0.001623
9.985000E-8	0.001655
9.990000E-8	0.001617
9.995000E-8	0.001655
