LabVIEW Measurement	
Writer_Version	2
Reader_Version	2
Separator	Tab
Decimal_Separator	.
Multi_Headings	No
X_Columns	Multi
Time_Pref	Relative
Operator	TG lab
Date	2015/03/07
Time	10:53:36.9862933158874511719
***End_of_Header***	
	
Channels	1	
Samples	2000	
Date	1903/12/31	
Time	19:00:00	
X_Dimension	Time	
X0	0.0000000000000000E+0	
Delta_X	5.000000E-11	
***End_of_Header***		
X_Value	Untitled	Comment
0.000000	0.001663
5.000000E-11	0.001694
1.000000E-10	0.001731
1.500000E-10	0.001888
2.000000E-10	0.001925
2.500000E-10	0.001981
3.000000E-10	0.001991
3.500000E-10	0.001947
4.000000E-10	0.001875
4.500000E-10	0.001900
5.000000E-10	0.001863
5.500000E-10	0.001847
6.000000E-10	0.001744
6.500000E-10	0.001766
7.000000E-10	0.001744
7.500000E-10	0.001697
8.000000E-10	0.001684
8.500000E-10	0.001594
9.000000E-10	0.001541
9.500000E-10	0.001541
1.000000E-9	0.001538
1.050000E-9	0.001606
1.100000E-9	0.001513
1.150000E-9	0.001531
1.200000E-9	0.001513
1.250000E-9	0.001575
1.300000E-9	0.001694
1.350000E-9	0.001753
1.400000E-9	0.001766
1.450000E-9	0.002019
1.500000E-9	0.002056
1.550000E-9	0.002075
1.600000E-9	0.002069
1.650000E-9	0.002162
1.700000E-9	0.002087
1.750000E-9	0.002156
1.800000E-9	0.002109
1.850000E-9	0.002138
1.900000E-9	0.002191
1.950000E-9	0.002225
2.000000E-9	0.002328
2.050000E-9	0.002353
2.100000E-9	0.002441
2.150000E-9	0.002538
2.200000E-9	0.002450
2.250000E-9	0.002547
2.300000E-9	0.002450
2.350000E-9	0.002566
2.400000E-9	0.002481
2.450000E-9	0.002475
2.500000E-9	0.002491
2.550000E-9	0.002534
2.600000E-9	0.002584
2.650000E-9	0.002647
2.700000E-9	0.002675
2.750000E-9	0.002747
2.800000E-9	0.002603
2.850000E-9	0.002631
2.900000E-9	0.002572
2.950000E-9	0.002528
3.000000E-9	0.002534
3.050000E-9	0.002466
3.100000E-9	0.002363
3.150000E-9	0.002228
3.200000E-9	0.002225
3.250000E-9	0.002359
3.300000E-9	0.002359
3.350000E-9	0.002559
3.400000E-9	0.002453
3.450000E-9	0.002672
3.500000E-9	0.002669
3.550000E-9	0.002781
3.600000E-9	0.002866
3.650000E-9	0.002716
3.700000E-9	0.002716
3.750000E-9	0.002697
3.800000E-9	0.002609
3.850000E-9	0.002584
3.900000E-9	0.002569
3.950000E-9	0.002616
4.000000E-9	0.002763
4.050000E-9	0.002900
4.100000E-9	0.003041
4.150000E-9	0.003269
4.200000E-9	0.003553
4.250000E-9	0.003716
4.300000E-9	0.003988
4.350000E-9	0.004325
4.400000E-9	0.004738
4.450000E-9	0.005163
4.500000E-9	0.005681
4.550000E-9	0.006288
4.600000E-9	0.006869
4.650000E-9	0.007716
4.700000E-9	0.008484
4.750000E-9	0.009334
4.800000E-9	0.010016
4.850000E-9	0.011084
4.900000E-9	0.011994
4.950000E-9	0.013100
5.000000E-9	0.014134
5.050000E-9	0.015484
5.100000E-9	0.016716
5.150000E-9	0.018200
5.200000E-9	0.019669
5.250000E-9	0.021100
5.300000E-9	0.022578
5.350000E-9	0.023950
5.400000E-9	0.025025
5.450000E-9	0.025784
5.500000E-9	0.026081
5.550000E-9	0.026081
5.600000E-9	0.025509
5.650000E-9	0.024581
5.700000E-9	0.023369
5.750000E-9	0.021891
5.800000E-9	0.020341
5.850000E-9	0.018819
5.900000E-9	0.017328
5.950000E-9	0.016084
6.000000E-9	0.015066
6.050000E-9	0.014544
6.100000E-9	0.014381
6.150000E-9	0.014478
6.200000E-9	0.014797
6.250000E-9	0.015356
6.300000E-9	0.016013
6.350000E-9	0.016456
6.400000E-9	0.016878
6.450000E-9	0.016916
6.500000E-9	0.016706
6.550000E-9	0.016162
6.600000E-9	0.015466
6.650000E-9	0.014316
6.700000E-9	0.013188
6.750000E-9	0.011959
6.800000E-9	0.010663
6.850000E-9	0.009600
6.900000E-9	0.008641
6.950000E-9	0.008194
7.000000E-9	0.007884
7.050000E-9	0.007966
7.100000E-9	0.008141
7.150000E-9	0.008744
7.200000E-9	0.009328
7.250000E-9	0.010094
7.300000E-9	0.010869
7.350000E-9	0.011403
7.400000E-9	0.011741
7.450000E-9	0.011659
7.500000E-9	0.011413
7.550000E-9	0.010906
7.600000E-9	0.010069
7.650000E-9	0.009022
7.700000E-9	0.007862
7.750000E-9	0.006697
7.800000E-9	0.005769
7.850000E-9	0.005038
7.900000E-9	0.004559
7.950000E-9	0.004444
8.000000E-9	0.004619
8.050000E-9	0.005125
8.100000E-9	0.005838
8.150000E-9	0.006597
8.200000E-9	0.007431
8.250000E-9	0.008075
8.300000E-9	0.008509
8.350000E-9	0.008747
8.400000E-9	0.008756
8.450000E-9	0.008528
8.500000E-9	0.007816
8.550000E-9	0.007000
8.600000E-9	0.006003
8.650000E-9	0.004950
8.700000E-9	0.004003
8.750000E-9	0.003325
8.800000E-9	0.002572
8.850000E-9	0.002359
8.900000E-9	0.002316
8.950000E-9	0.002631
9.000000E-9	0.003284
9.050000E-9	0.004053
9.100000E-9	0.004809
9.150000E-9	0.005728
9.200000E-9	0.006441
9.250000E-9	0.006856
9.300000E-9	0.006972
9.350000E-9	0.006903
9.400000E-9	0.006597
9.450000E-9	0.005922
9.500000E-9	0.005147
9.550000E-9	0.004125
9.600000E-9	0.003197
9.650000E-9	0.002309
9.700000E-9	0.001534
9.750000E-9	0.001141
9.800000E-9	0.001056
9.850000E-9	0.001328
9.900000E-9	0.001853
9.950000E-9	0.002584
1.000000E-8	0.003522
1.005000E-8	0.004406
1.010000E-8	0.005231
1.015000E-8	0.005878
1.020000E-8	0.006394
1.025000E-8	0.006372
1.030000E-8	0.006234
1.035000E-8	0.005634
1.040000E-8	0.004938
1.045000E-8	0.004084
1.050000E-8	0.002997
1.055000E-8	0.002125
1.060000E-8	0.001338
1.065000E-8	0.000838
1.070000E-8	0.000709
1.075000E-8	0.000706
1.080000E-8	0.000953
1.085000E-8	0.001531
1.090000E-8	0.002172
1.095000E-8	0.003094
1.100000E-8	0.003938
1.105000E-8	0.004706
1.110000E-8	0.005247
1.115000E-8	0.005606
1.120000E-8	0.005709
1.125000E-8	0.005453
1.130000E-8	0.004841
1.135000E-8	0.004181
1.140000E-8	0.003219
1.145000E-8	0.002363
1.150000E-8	0.001591
1.155000E-8	0.000878
1.160000E-8	0.000447
1.165000E-8	0.000163
1.170000E-8	0.000219
1.175000E-8	0.000697
1.180000E-8	0.001400
1.185000E-8	0.002284
1.190000E-8	0.003019
1.195000E-8	0.003825
1.200000E-8	0.004550
1.205000E-8	0.004928
1.210000E-8	0.005172
1.215000E-8	0.005038
1.220000E-8	0.004575
1.225000E-8	0.003906
1.230000E-8	0.003028
1.235000E-8	0.002247
1.240000E-8	0.001437
1.245000E-8	0.000697
1.250000E-8	9.687500E-5
1.255000E-8	-0.000113
1.260000E-8	-0.000209
1.265000E-8	6.250000E-6
1.270000E-8	0.000466
1.275000E-8	0.001081
1.280000E-8	0.001894
1.285000E-8	0.002859
1.290000E-8	0.003744
1.295000E-8	0.004416
1.300000E-8	0.004834
1.305000E-8	0.004981
1.310000E-8	0.004894
1.315000E-8	0.004450
1.320000E-8	0.003800
1.325000E-8	0.003056
1.330000E-8	0.002106
1.335000E-8	0.001413
1.340000E-8	0.000713
1.345000E-8	0.000194
1.350000E-8	6.250000E-6
1.355000E-8	0.000228
1.360000E-8	0.000481
1.365000E-8	0.001247
1.370000E-8	0.001969
1.375000E-8	0.002856
1.380000E-8	0.003697
1.385000E-8	0.004494
1.390000E-8	0.004941
1.395000E-8	0.005219
1.400000E-8	0.005175
1.405000E-8	0.004809
1.410000E-8	0.004197
1.415000E-8	0.003453
1.420000E-8	0.002563
1.425000E-8	0.001753
1.430000E-8	0.000934
1.435000E-8	0.000416
1.440000E-8	5.312500E-5
1.445000E-8	-8.750000E-5
1.450000E-8	9.062500E-5
1.455000E-8	0.000525
1.460000E-8	0.001103
1.465000E-8	0.001975
1.470000E-8	0.002653
1.475000E-8	0.003381
1.480000E-8	0.003881
1.485000E-8	0.004394
1.490000E-8	0.004566
1.495000E-8	0.004309
1.500000E-8	0.003906
1.505000E-8	0.003344
1.510000E-8	0.002613
1.515000E-8	0.001850
1.520000E-8	0.001094
1.525000E-8	0.000513
1.530000E-8	6.250000E-6
1.535000E-8	-0.000281
1.540000E-8	-0.000206
1.545000E-8	0.000113
1.550000E-8	0.000700
1.555000E-8	0.001447
1.560000E-8	0.002091
1.565000E-8	0.002913
1.570000E-8	0.003541
1.575000E-8	0.004025
1.580000E-8	0.004256
1.585000E-8	0.004319
1.590000E-8	0.004150
1.595000E-8	0.003716
1.600000E-8	0.003116
1.605000E-8	0.002594
1.610000E-8	0.001791
1.615000E-8	0.001231
1.620000E-8	0.000588
1.625000E-8	0.000247
1.630000E-8	0.000109
1.635000E-8	0.000256
1.640000E-8	0.000456
1.645000E-8	0.001072
1.650000E-8	0.001622
1.655000E-8	0.002219
1.660000E-8	0.003019
1.665000E-8	0.003672
1.670000E-8	0.004047
1.675000E-8	0.004372
1.680000E-8	0.004375
1.685000E-8	0.004316
1.690000E-8	0.003781
1.695000E-8	0.003300
1.700000E-8	0.002672
1.705000E-8	0.001934
1.710000E-8	0.001306
1.715000E-8	0.000822
1.720000E-8	0.000481
1.725000E-8	0.000272
1.730000E-8	0.000291
1.735000E-8	0.000609
1.740000E-8	0.000941
1.745000E-8	0.001563
1.750000E-8	0.002134
1.755000E-8	0.002788
1.760000E-8	0.003356
1.765000E-8	0.003775
1.770000E-8	0.003928
1.775000E-8	0.003784
1.780000E-8	0.003544
1.785000E-8	0.003009
1.790000E-8	0.002475
1.795000E-8	0.001863
1.800000E-8	0.001259
1.805000E-8	0.000759
1.810000E-8	0.000425
1.815000E-8	0.000253
1.820000E-8	0.000184
1.825000E-8	0.000466
1.830000E-8	0.000778
1.835000E-8	0.001334
1.840000E-8	0.001913
1.845000E-8	0.002422
1.850000E-8	0.002963
1.855000E-8	0.003409
1.860000E-8	0.003597
1.865000E-8	0.003625
1.870000E-8	0.003528
1.875000E-8	0.003147
1.880000E-8	0.002666
1.885000E-8	0.002131
1.890000E-8	0.001556
1.895000E-8	0.001069
1.900000E-8	0.000603
1.905000E-8	0.000412
1.910000E-8	0.000319
1.915000E-8	0.000378
1.920000E-8	0.000713
1.925000E-8	0.001231
1.930000E-8	0.001738
1.935000E-8	0.002391
1.940000E-8	0.002872
1.945000E-8	0.003441
1.950000E-8	0.003856
1.955000E-8	0.004000
1.960000E-8	0.003913
1.965000E-8	0.003625
1.970000E-8	0.003216
1.975000E-8	0.002728
1.980000E-8	0.002122
1.985000E-8	0.001553
1.990000E-8	0.000913
1.995000E-8	0.000428
2.000000E-8	0.000241
2.005000E-8	0.000209
2.010000E-8	0.000328
2.015000E-8	0.000753
2.020000E-8	0.001197
2.025000E-8	0.001869
2.030000E-8	0.002447
2.035000E-8	0.002941
2.040000E-8	0.003334
2.045000E-8	0.003669
2.050000E-8	0.003744
2.055000E-8	0.003622
2.060000E-8	0.003303
2.065000E-8	0.002813
2.070000E-8	0.002266
2.075000E-8	0.001703
2.080000E-8	0.001122
2.085000E-8	0.000725
2.090000E-8	0.000366
2.095000E-8	0.000316
2.100000E-8	0.000325
2.105000E-8	0.000522
2.110000E-8	0.000844
2.115000E-8	0.001372
2.120000E-8	0.001863
2.125000E-8	0.002444
2.130000E-8	0.002878
2.135000E-8	0.003344
2.140000E-8	0.003441
2.145000E-8	0.003538
2.150000E-8	0.003203
2.155000E-8	0.002959
2.160000E-8	0.002613
2.165000E-8	0.002066
2.170000E-8	0.001372
2.175000E-8	0.000838
2.180000E-8	0.000406
2.185000E-8	0.000166
2.190000E-8	0.000103
2.195000E-8	0.000309
2.200000E-8	0.000553
2.205000E-8	0.001019
2.210000E-8	0.001453
2.215000E-8	0.002109
2.220000E-8	0.002622
2.225000E-8	0.003084
2.230000E-8	0.003484
2.235000E-8	0.003694
2.240000E-8	0.003622
2.245000E-8	0.003466
2.250000E-8	0.003053
2.255000E-8	0.002575
2.260000E-8	0.002012
2.265000E-8	0.001372
2.270000E-8	0.000881
2.275000E-8	0.000450
2.280000E-8	0.000206
2.285000E-8	0.000197
2.290000E-8	0.000409
2.295000E-8	0.000775
2.300000E-8	0.001266
2.305000E-8	0.001841
2.310000E-8	0.002331
2.315000E-8	0.002825
2.320000E-8	0.003341
2.325000E-8	0.003444
2.330000E-8	0.003378
2.335000E-8	0.003244
2.340000E-8	0.002906
2.345000E-8	0.002437
2.350000E-8	0.001881
2.355000E-8	0.001353
2.360000E-8	0.000750
2.365000E-8	0.000347
2.370000E-8	-1.250000E-5
2.375000E-8	-8.125000E-5
2.380000E-8	0.000103
2.385000E-8	0.000537
2.390000E-8	0.000909
2.395000E-8	0.001475
2.400000E-8	0.001963
2.405000E-8	0.002578
2.410000E-8	0.003091
2.415000E-8	0.003378
2.420000E-8	0.003638
2.425000E-8	0.003659
2.430000E-8	0.003463
2.435000E-8	0.003162
2.440000E-8	0.002694
2.445000E-8	0.002278
2.450000E-8	0.001791
2.455000E-8	0.001334
2.460000E-8	0.000938
2.465000E-8	0.000581
2.470000E-8	0.000463
2.475000E-8	0.000638
2.480000E-8	0.000788
2.485000E-8	0.001141
2.490000E-8	0.001541
2.495000E-8	0.001959
2.500000E-8	0.002547
2.505000E-8	0.002869
2.510000E-8	0.003203
2.515000E-8	0.003372
2.520000E-8	0.003347
2.525000E-8	0.003309
2.530000E-8	0.002856
2.535000E-8	0.002484
2.540000E-8	0.001928
2.545000E-8	0.001441
2.550000E-8	0.000991
2.555000E-8	0.000606
2.560000E-8	0.000450
2.565000E-8	0.000428
2.570000E-8	0.000422
2.575000E-8	0.000763
2.580000E-8	0.001125
2.585000E-8	0.001681
2.590000E-8	0.002059
2.595000E-8	0.002622
2.600000E-8	0.003047
2.605000E-8	0.003422
2.610000E-8	0.003478
2.615000E-8	0.003278
2.620000E-8	0.003028
2.625000E-8	0.002744
2.630000E-8	0.002213
2.635000E-8	0.001722
2.640000E-8	0.001175
2.645000E-8	0.000788
2.650000E-8	0.000597
2.655000E-8	0.000453
2.660000E-8	0.000463
2.665000E-8	0.000653
2.670000E-8	0.000944
2.675000E-8	0.001356
2.680000E-8	0.001666
2.685000E-8	0.002294
2.690000E-8	0.002697
2.695000E-8	0.003050
2.700000E-8	0.003297
2.705000E-8	0.003288
2.710000E-8	0.003153
2.715000E-8	0.002869
2.720000E-8	0.002394
2.725000E-8	0.001966
2.730000E-8	0.001497
2.735000E-8	0.001078
2.740000E-8	0.000788
2.745000E-8	0.000572
2.750000E-8	0.000506
2.755000E-8	0.000581
2.760000E-8	0.000819
2.765000E-8	0.001166
2.770000E-8	0.001609
2.775000E-8	0.002097
2.780000E-8	0.002509
2.785000E-8	0.002909
2.790000E-8	0.003200
2.795000E-8	0.003272
2.800000E-8	0.003231
2.805000E-8	0.003109
2.810000E-8	0.002728
2.815000E-8	0.002512
2.820000E-8	0.001975
2.825000E-8	0.001597
2.830000E-8	0.001088
2.835000E-8	0.000916
2.840000E-8	0.000744
2.845000E-8	0.000778
2.850000E-8	0.000794
2.855000E-8	0.001081
2.860000E-8	0.001459
2.865000E-8	0.001872
2.870000E-8	0.002206
2.875000E-8	0.002659
2.880000E-8	0.002769
2.885000E-8	0.002994
2.890000E-8	0.003022
2.895000E-8	0.002894
2.900000E-8	0.002550
2.905000E-8	0.002241
2.910000E-8	0.001697
2.915000E-8	0.001228
2.920000E-8	0.000806
2.925000E-8	0.000588
2.930000E-8	0.000291
2.935000E-8	0.000275
2.940000E-8	0.000253
2.945000E-8	0.000541
2.950000E-8	0.000938
2.955000E-8	0.001434
2.960000E-8	0.001838
2.965000E-8	0.002344
2.970000E-8	0.002744
2.975000E-8	0.002981
2.980000E-8	0.003169
2.985000E-8	0.003256
2.990000E-8	0.003147
2.995000E-8	0.002913
3.000000E-8	0.002369
3.005000E-8	0.002113
3.010000E-8	0.001641
3.015000E-8	0.001153
3.020000E-8	0.000838
3.025000E-8	0.000609
3.030000E-8	0.000525
3.035000E-8	0.000606
3.040000E-8	0.000763
3.045000E-8	0.001112
3.050000E-8	0.001472
3.055000E-8	0.001816
3.060000E-8	0.002231
3.065000E-8	0.002591
3.070000E-8	0.002772
3.075000E-8	0.002934
3.080000E-8	0.002956
3.085000E-8	0.002850
3.090000E-8	0.002628
3.095000E-8	0.002259
3.100000E-8	0.001928
3.105000E-8	0.001578
3.110000E-8	0.001256
3.115000E-8	0.001078
3.120000E-8	0.001031
3.125000E-8	0.000997
3.130000E-8	0.001094
3.135000E-8	0.001413
3.140000E-8	0.001719
3.145000E-8	0.002019
3.150000E-8	0.002416
3.155000E-8	0.002869
3.160000E-8	0.003025
3.165000E-8	0.003141
3.170000E-8	0.003184
3.175000E-8	0.003069
3.180000E-8	0.002825
3.185000E-8	0.002628
3.190000E-8	0.002075
3.195000E-8	0.001722
3.200000E-8	0.001378
3.205000E-8	0.001050
3.210000E-8	0.000844
3.215000E-8	0.000672
3.220000E-8	0.000772
3.225000E-8	0.000984
3.230000E-8	0.001272
3.235000E-8	0.001756
3.240000E-8	0.002122
3.245000E-8	0.002434
3.250000E-8	0.002666
3.255000E-8	0.002978
3.260000E-8	0.003038
3.265000E-8	0.003097
3.270000E-8	0.002872
3.275000E-8	0.002759
3.280000E-8	0.002381
3.285000E-8	0.002156
3.290000E-8	0.001813
3.295000E-8	0.001563
3.300000E-8	0.001225
3.305000E-8	0.001009
3.310000E-8	0.000928
3.315000E-8	0.001034
3.320000E-8	0.001147
3.325000E-8	0.001434
3.330000E-8	0.001675
3.335000E-8	0.002012
3.340000E-8	0.002369
3.345000E-8	0.002650
3.350000E-8	0.002769
3.355000E-8	0.002847
3.360000E-8	0.002841
3.365000E-8	0.002725
3.370000E-8	0.002475
3.375000E-8	0.002181
3.380000E-8	0.001650
3.385000E-8	0.001250
3.390000E-8	0.000975
3.395000E-8	0.000688
3.400000E-8	0.000581
3.405000E-8	0.000797
3.410000E-8	0.000953
3.415000E-8	0.001191
3.420000E-8	0.001553
3.425000E-8	0.002041
3.430000E-8	0.002281
3.435000E-8	0.002506
3.440000E-8	0.002578
3.445000E-8	0.002794
3.450000E-8	0.002791
3.455000E-8	0.002725
3.460000E-8	0.002509
3.465000E-8	0.002366
3.470000E-8	0.002147
3.475000E-8	0.001928
3.480000E-8	0.001656
3.485000E-8	0.001406
3.490000E-8	0.001231
3.495000E-8	0.001216
3.500000E-8	0.001097
3.505000E-8	0.001156
3.510000E-8	0.001300
3.515000E-8	0.001466
3.520000E-8	0.001666
3.525000E-8	0.001903
3.530000E-8	0.002166
3.535000E-8	0.002416
3.540000E-8	0.002625
3.545000E-8	0.002572
3.550000E-8	0.002484
3.555000E-8	0.002559
3.560000E-8	0.002234
3.565000E-8	0.001922
3.570000E-8	0.001575
3.575000E-8	0.001434
3.580000E-8	0.001056
3.585000E-8	0.001022
3.590000E-8	0.000997
3.595000E-8	0.001063
3.600000E-8	0.000991
3.605000E-8	0.001409
3.610000E-8	0.001569
3.615000E-8	0.001956
3.620000E-8	0.002300
3.625000E-8	0.002694
3.630000E-8	0.002816
3.635000E-8	0.003059
3.640000E-8	0.003128
3.645000E-8	0.003047
3.650000E-8	0.002841
3.655000E-8	0.002528
3.660000E-8	0.002153
3.665000E-8	0.001769
3.670000E-8	0.001300
3.675000E-8	0.001050
3.680000E-8	0.000753
3.685000E-8	0.000763
3.690000E-8	0.000794
3.695000E-8	0.001063
3.700000E-8	0.001266
3.705000E-8	0.001675
3.710000E-8	0.002041
3.715000E-8	0.002491
3.720000E-8	0.002694
3.725000E-8	0.002959
3.730000E-8	0.003034
3.735000E-8	0.003006
3.740000E-8	0.002822
3.745000E-8	0.002575
3.750000E-8	0.002144
3.755000E-8	0.001897
3.760000E-8	0.001509
3.765000E-8	0.001200
3.770000E-8	0.000959
3.775000E-8	0.000775
3.780000E-8	0.000709
3.785000E-8	0.000747
3.790000E-8	0.000931
3.795000E-8	0.001106
3.800000E-8	0.001581
3.805000E-8	0.001928
3.810000E-8	0.002219
3.815000E-8	0.002575
3.820000E-8	0.002778
3.825000E-8	0.002881
3.830000E-8	0.002853
3.835000E-8	0.002669
3.840000E-8	0.002550
3.845000E-8	0.002325
3.850000E-8	0.001963
3.855000E-8	0.001619
3.860000E-8	0.001362
3.865000E-8	0.001303
3.870000E-8	0.001112
3.875000E-8	0.001206
3.880000E-8	0.001347
3.885000E-8	0.001572
3.890000E-8	0.001628
3.895000E-8	0.001972
3.900000E-8	0.002119
3.905000E-8	0.002344
3.910000E-8	0.002506
3.915000E-8	0.002662
3.920000E-8	0.002581
3.925000E-8	0.002519
3.930000E-8	0.002297
3.935000E-8	0.001984
3.940000E-8	0.001666
3.945000E-8	0.001325
3.950000E-8	0.001091
3.955000E-8	0.000972
3.960000E-8	0.000797
3.965000E-8	0.000741
3.970000E-8	0.000884
3.975000E-8	0.001159
3.980000E-8	0.001397
3.985000E-8	0.001725
3.990000E-8	0.002066
3.995000E-8	0.002525
4.000000E-8	0.002731
4.005000E-8	0.002834
4.010000E-8	0.002672
4.015000E-8	0.002572
4.020000E-8	0.002403
4.025000E-8	0.002150
4.030000E-8	0.001763
4.035000E-8	0.001463
4.040000E-8	0.001288
4.045000E-8	0.001034
4.050000E-8	0.001091
4.055000E-8	0.001009
4.060000E-8	0.001231
4.065000E-8	0.001431
4.070000E-8	0.001541
4.075000E-8	0.001716
4.080000E-8	0.001994
4.085000E-8	0.002184
4.090000E-8	0.002359
4.095000E-8	0.002522
4.100000E-8	0.002556
4.105000E-8	0.002644
4.110000E-8	0.002544
4.115000E-8	0.002469
4.120000E-8	0.002244
4.125000E-8	0.001978
4.130000E-8	0.001600
4.135000E-8	0.001350
4.140000E-8	0.001184
4.145000E-8	0.000997
4.150000E-8	0.000944
4.155000E-8	0.001088
4.160000E-8	0.001278
4.165000E-8	0.001656
4.170000E-8	0.001941
4.175000E-8	0.002162
4.180000E-8	0.002394
4.185000E-8	0.002628
4.190000E-8	0.002741
4.195000E-8	0.002809
4.200000E-8	0.002688
4.205000E-8	0.002522
4.210000E-8	0.002478
4.215000E-8	0.002131
4.220000E-8	0.001884
4.225000E-8	0.001687
4.230000E-8	0.001437
4.235000E-8	0.001256
4.240000E-8	0.001122
4.245000E-8	0.001153
4.250000E-8	0.001184
4.255000E-8	0.001338
4.260000E-8	0.001634
4.265000E-8	0.001906
4.270000E-8	0.002181
4.275000E-8	0.002450
4.280000E-8	0.002450
4.285000E-8	0.002581
4.290000E-8	0.002594
4.295000E-8	0.002431
4.300000E-8	0.002253
4.305000E-8	0.002038
4.310000E-8	0.001803
4.315000E-8	0.001491
4.320000E-8	0.001256
4.325000E-8	0.001181
4.330000E-8	0.000969
4.335000E-8	0.000906
4.340000E-8	0.001078
4.345000E-8	0.001294
4.350000E-8	0.001388
4.355000E-8	0.001813
4.360000E-8	0.001978
4.365000E-8	0.002219
4.370000E-8	0.002478
4.375000E-8	0.002728
4.380000E-8	0.002728
4.385000E-8	0.002831
4.390000E-8	0.002662
4.395000E-8	0.002550
4.400000E-8	0.002391
4.405000E-8	0.002325
4.410000E-8	0.001816
4.415000E-8	0.001547
4.420000E-8	0.001250
4.425000E-8	0.001106
4.430000E-8	0.001109
4.435000E-8	0.001216
4.440000E-8	0.001375
4.445000E-8	0.001500
4.450000E-8	0.001650
4.455000E-8	0.001925
4.460000E-8	0.002206
4.465000E-8	0.002422
4.470000E-8	0.002575
4.475000E-8	0.002575
4.480000E-8	0.002444
4.485000E-8	0.002250
4.490000E-8	0.001984
4.495000E-8	0.001691
4.500000E-8	0.001369
4.505000E-8	0.001172
4.510000E-8	0.001009
4.515000E-8	0.000891
4.520000E-8	0.000731
4.525000E-8	0.000828
4.530000E-8	0.000988
4.535000E-8	0.001191
4.540000E-8	0.001466
4.545000E-8	0.001731
4.550000E-8	0.001919
4.555000E-8	0.002091
4.560000E-8	0.002144
4.565000E-8	0.002334
4.570000E-8	0.002200
4.575000E-8	0.002166
4.580000E-8	0.002069
4.585000E-8	0.001853
4.590000E-8	0.001653
4.595000E-8	0.001388
4.600000E-8	0.001150
4.605000E-8	0.001044
4.610000E-8	0.000953
4.615000E-8	0.000938
4.620000E-8	0.001016
4.625000E-8	0.001278
4.630000E-8	0.001394
4.635000E-8	0.001588
4.640000E-8	0.001741
4.645000E-8	0.002022
4.650000E-8	0.002197
4.655000E-8	0.002431
4.660000E-8	0.002319
4.665000E-8	0.002403
4.670000E-8	0.002309
4.675000E-8	0.002038
4.680000E-8	0.001797
4.685000E-8	0.001578
4.690000E-8	0.001369
4.695000E-8	0.001203
4.700000E-8	0.000934
4.705000E-8	0.000922
4.710000E-8	0.000847
4.715000E-8	0.001097
4.720000E-8	0.001297
4.725000E-8	0.001513
4.730000E-8	0.001806
4.735000E-8	0.002072
4.740000E-8	0.002247
4.745000E-8	0.002428
4.750000E-8	0.002469
4.755000E-8	0.002469
4.760000E-8	0.002466
4.765000E-8	0.002306
4.770000E-8	0.002084
4.775000E-8	0.001894
4.780000E-8	0.001584
4.785000E-8	0.001444
4.790000E-8	0.001144
4.795000E-8	0.001047
4.800000E-8	0.000938
4.805000E-8	0.000944
4.810000E-8	0.000881
4.815000E-8	0.001163
4.820000E-8	0.001294
4.825000E-8	0.001563
4.830000E-8	0.001703
4.835000E-8	0.001838
4.840000E-8	0.001897
4.845000E-8	0.002075
4.850000E-8	0.002072
4.855000E-8	0.002134
4.860000E-8	0.001978
4.865000E-8	0.001825
4.870000E-8	0.001769
4.875000E-8	0.001669
4.880000E-8	0.001453
4.885000E-8	0.001347
4.890000E-8	0.001250
4.895000E-8	0.001334
4.900000E-8	0.001350
4.905000E-8	0.001484
4.910000E-8	0.001641
4.915000E-8	0.001784
4.920000E-8	0.001850
4.925000E-8	0.002225
4.930000E-8	0.002350
4.935000E-8	0.002425
4.940000E-8	0.002472
4.945000E-8	0.002547
4.950000E-8	0.002472
4.955000E-8	0.002544
4.960000E-8	0.002281
4.965000E-8	0.002116
4.970000E-8	0.001950
4.975000E-8	0.001844
4.980000E-8	0.001659
4.985000E-8	0.001597
4.990000E-8	0.001463
4.995000E-8	0.001450
5.000000E-8	0.001550
5.005000E-8	0.001747
5.010000E-8	0.001859
5.015000E-8	0.002109
5.020000E-8	0.002162
5.025000E-8	0.002275
5.030000E-8	0.002303
5.035000E-8	0.002253
5.040000E-8	0.002169
5.045000E-8	0.002047
5.050000E-8	0.001772
5.055000E-8	0.001697
5.060000E-8	0.001478
5.065000E-8	0.001319
5.070000E-8	0.001153
5.075000E-8	0.001156
5.080000E-8	0.001150
5.085000E-8	0.001194
5.090000E-8	0.001419
5.095000E-8	0.001588
5.100000E-8	0.001766
5.105000E-8	0.001931
5.110000E-8	0.002162
5.115000E-8	0.002250
5.120000E-8	0.002406
5.125000E-8	0.002553
5.130000E-8	0.002437
5.135000E-8	0.002334
5.140000E-8	0.002203
5.145000E-8	0.002081
5.150000E-8	0.001831
5.155000E-8	0.001684
5.160000E-8	0.001500
5.165000E-8	0.001441
5.170000E-8	0.001172
5.175000E-8	0.001150
5.180000E-8	0.001197
5.185000E-8	0.001388
5.190000E-8	0.001550
5.195000E-8	0.001734
5.200000E-8	0.001944
5.205000E-8	0.002159
5.210000E-8	0.002497
5.215000E-8	0.002737
5.220000E-8	0.002866
5.225000E-8	0.002769
5.230000E-8	0.002641
5.235000E-8	0.002425
5.240000E-8	0.002116
5.245000E-8	0.001788
5.250000E-8	0.001428
5.255000E-8	0.001253
5.260000E-8	0.001038
5.265000E-8	0.001009
5.270000E-8	0.000959
5.275000E-8	0.001116
5.280000E-8	0.001128
5.285000E-8	0.001297
5.290000E-8	0.001528
5.295000E-8	0.001828
5.300000E-8	0.002006
5.305000E-8	0.002219
5.310000E-8	0.002319
5.315000E-8	0.002344
5.320000E-8	0.002128
5.325000E-8	0.002081
5.330000E-8	0.001834
5.335000E-8	0.001684
5.340000E-8	0.001375
5.345000E-8	0.001297
5.350000E-8	0.001144
5.355000E-8	0.001175
5.360000E-8	0.001141
5.365000E-8	0.001266
5.370000E-8	0.001222
5.375000E-8	0.001544
5.380000E-8	0.001675
5.385000E-8	0.001947
5.390000E-8	0.002044
5.395000E-8	0.002231
5.400000E-8	0.002256
5.405000E-8	0.002381
5.410000E-8	0.002219
5.415000E-8	0.002269
5.420000E-8	0.002059
5.425000E-8	0.001828
5.430000E-8	0.001672
5.435000E-8	0.001603
5.440000E-8	0.001375
5.445000E-8	0.001253
5.450000E-8	0.001122
5.455000E-8	0.001147
5.460000E-8	0.001134
5.465000E-8	0.001284
5.470000E-8	0.001331
5.475000E-8	0.001488
5.480000E-8	0.001659
5.485000E-8	0.001906
5.490000E-8	0.001981
5.495000E-8	0.002069
5.500000E-8	0.002184
5.505000E-8	0.002256
5.510000E-8	0.002222
5.515000E-8	0.002200
5.520000E-8	0.001991
5.525000E-8	0.001822
5.530000E-8	0.001612
5.535000E-8	0.001381
5.540000E-8	0.001259
5.545000E-8	0.001072
5.550000E-8	0.001066
5.555000E-8	0.001091
5.560000E-8	0.001153
5.565000E-8	0.001372
5.570000E-8	0.001400
5.575000E-8	0.001641
5.580000E-8	0.001841
5.585000E-8	0.002072
5.590000E-8	0.002272
5.595000E-8	0.002281
5.600000E-8	0.002216
5.605000E-8	0.002234
5.610000E-8	0.002081
5.615000E-8	0.001881
5.620000E-8	0.001594
5.625000E-8	0.001278
5.630000E-8	0.001091
5.635000E-8	0.001009
5.640000E-8	0.000863
5.645000E-8	0.000991
5.650000E-8	0.001078
5.655000E-8	0.001256
5.660000E-8	0.001572
5.665000E-8	0.001778
5.670000E-8	0.002038
5.675000E-8	0.002213
5.680000E-8	0.002313
5.685000E-8	0.002303
5.690000E-8	0.002234
5.695000E-8	0.002222
5.700000E-8	0.001903
5.705000E-8	0.001728
5.710000E-8	0.001488
5.715000E-8	0.001253
5.720000E-8	0.001194
5.725000E-8	0.000925
5.730000E-8	0.000988
5.735000E-8	0.001012
5.740000E-8	0.001063
5.745000E-8	0.001284
5.750000E-8	0.001463
5.755000E-8	0.001669
5.760000E-8	0.001822
5.765000E-8	0.002150
5.770000E-8	0.002300
5.775000E-8	0.002597
5.780000E-8	0.002544
5.785000E-8	0.002550
5.790000E-8	0.002459
5.795000E-8	0.002350
5.800000E-8	0.002056
5.805000E-8	0.001888
5.810000E-8	0.001672
5.815000E-8	0.001475
5.820000E-8	0.001431
5.825000E-8	0.001288
5.830000E-8	0.001259
5.835000E-8	0.001331
5.840000E-8	0.001391
5.845000E-8	0.001553
5.850000E-8	0.001797
5.855000E-8	0.001997
5.860000E-8	0.002100
5.865000E-8	0.002284
5.870000E-8	0.002363
5.875000E-8	0.002422
5.880000E-8	0.002409
5.885000E-8	0.002269
5.890000E-8	0.002066
5.895000E-8	0.001897
5.900000E-8	0.001741
5.905000E-8	0.001525
5.910000E-8	0.001338
5.915000E-8	0.001216
5.920000E-8	0.001109
5.925000E-8	0.001259
5.930000E-8	0.001228
5.935000E-8	0.001356
5.940000E-8	0.001484
5.945000E-8	0.001725
5.950000E-8	0.001894
5.955000E-8	0.002100
5.960000E-8	0.002247
5.965000E-8	0.002244
5.970000E-8	0.002178
5.975000E-8	0.002294
5.980000E-8	0.002147
5.985000E-8	0.002031
5.990000E-8	0.001687
5.995000E-8	0.001634
6.000000E-8	0.001481
6.005000E-8	0.001469
6.010000E-8	0.001384
6.015000E-8	0.001488
6.020000E-8	0.001509
6.025000E-8	0.001719
6.030000E-8	0.001778
6.035000E-8	0.001919
6.040000E-8	0.001981
6.045000E-8	0.002159
6.050000E-8	0.002128
6.055000E-8	0.002144
6.060000E-8	0.002178
6.065000E-8	0.002197
6.070000E-8	0.002097
6.075000E-8	0.002041
6.080000E-8	0.001931
6.085000E-8	0.001747
6.090000E-8	0.001597
6.095000E-8	0.001491
6.100000E-8	0.001494
6.105000E-8	0.001459
6.110000E-8	0.001475
6.115000E-8	0.001631
6.120000E-8	0.001669
6.125000E-8	0.001841
6.130000E-8	0.001978
6.135000E-8	0.002175
6.140000E-8	0.002231
6.145000E-8	0.002369
6.150000E-8	0.002291
6.155000E-8	0.002244
6.160000E-8	0.002159
6.165000E-8	0.002078
6.170000E-8	0.001931
6.175000E-8	0.001878
6.180000E-8	0.001738
6.185000E-8	0.001722
6.190000E-8	0.001528
6.195000E-8	0.001516
6.200000E-8	0.001406
6.205000E-8	0.001466
6.210000E-8	0.001609
6.215000E-8	0.001709
6.220000E-8	0.001766
6.225000E-8	0.001878
6.230000E-8	0.002025
6.235000E-8	0.002138
6.240000E-8	0.002122
6.245000E-8	0.002153
6.250000E-8	0.002178
6.255000E-8	0.002184
6.260000E-8	0.002072
6.265000E-8	0.002053
6.270000E-8	0.001909
6.275000E-8	0.001897
6.280000E-8	0.001706
6.285000E-8	0.001603
6.290000E-8	0.001503
6.295000E-8	0.001563
6.300000E-8	0.001700
6.305000E-8	0.001741
6.310000E-8	0.001719
6.315000E-8	0.001850
6.320000E-8	0.001972
6.325000E-8	0.001925
6.330000E-8	0.001913
6.335000E-8	0.001956
6.340000E-8	0.001872
6.345000E-8	0.001878
6.350000E-8	0.001772
6.355000E-8	0.001713
6.360000E-8	0.001678
6.365000E-8	0.001591
6.370000E-8	0.001484
6.375000E-8	0.001469
6.380000E-8	0.001475
6.385000E-8	0.001456
6.390000E-8	0.001434
6.395000E-8	0.001672
6.400000E-8	0.001759
6.405000E-8	0.001744
6.410000E-8	0.001734
6.415000E-8	0.001866
6.420000E-8	0.001853
6.425000E-8	0.001963
6.430000E-8	0.002075
6.435000E-8	0.001950
6.440000E-8	0.001969
6.445000E-8	0.002122
6.450000E-8	0.001913
6.455000E-8	0.001769
6.460000E-8	0.001675
6.465000E-8	0.001506
6.470000E-8	0.001431
6.475000E-8	0.001322
6.480000E-8	0.001197
6.485000E-8	0.001319
6.490000E-8	0.001247
6.495000E-8	0.001466
6.500000E-8	0.001522
6.505000E-8	0.001691
6.510000E-8	0.001881
6.515000E-8	0.001934
6.520000E-8	0.001975
6.525000E-8	0.001969
6.530000E-8	0.002022
6.535000E-8	0.001988
6.540000E-8	0.001878
6.545000E-8	0.001800
6.550000E-8	0.001753
6.555000E-8	0.001763
6.560000E-8	0.001619
6.565000E-8	0.001597
6.570000E-8	0.001397
6.575000E-8	0.001400
6.580000E-8	0.001319
6.585000E-8	0.001413
6.590000E-8	0.001575
6.595000E-8	0.001506
6.600000E-8	0.001713
6.605000E-8	0.001763
6.610000E-8	0.001894
6.615000E-8	0.001963
6.620000E-8	0.002063
6.625000E-8	0.002116
6.630000E-8	0.001991
6.635000E-8	0.001959
6.640000E-8	0.001803
6.645000E-8	0.001750
6.650000E-8	0.001531
6.655000E-8	0.001559
6.660000E-8	0.001478
6.665000E-8	0.001497
6.670000E-8	0.001625
6.675000E-8	0.001763
6.680000E-8	0.001747
6.685000E-8	0.001791
6.690000E-8	0.001947
6.695000E-8	0.002091
6.700000E-8	0.002066
6.705000E-8	0.002150
6.710000E-8	0.002172
6.715000E-8	0.002122
6.720000E-8	0.002141
6.725000E-8	0.001991
6.730000E-8	0.001866
6.735000E-8	0.001841
6.740000E-8	0.001666
6.745000E-8	0.001488
6.750000E-8	0.001375
6.755000E-8	0.001431
6.760000E-8	0.001444
6.765000E-8	0.001481
6.770000E-8	0.001541
6.775000E-8	0.001663
6.780000E-8	0.001750
6.785000E-8	0.001791
6.790000E-8	0.001969
6.795000E-8	0.002106
6.800000E-8	0.002172
6.805000E-8	0.002241
6.810000E-8	0.002141
6.815000E-8	0.002081
6.820000E-8	0.002019
6.825000E-8	0.001847
6.830000E-8	0.001653
6.835000E-8	0.001547
6.840000E-8	0.001362
6.845000E-8	0.001375
6.850000E-8	0.001341
6.855000E-8	0.001394
6.860000E-8	0.001500
6.865000E-8	0.001653
6.870000E-8	0.001844
6.875000E-8	0.002050
6.880000E-8	0.002197
6.885000E-8	0.002234
6.890000E-8	0.002263
6.895000E-8	0.002341
6.900000E-8	0.002406
6.905000E-8	0.002266
6.910000E-8	0.002188
6.915000E-8	0.002219
6.920000E-8	0.002031
6.925000E-8	0.001988
6.930000E-8	0.001903
6.935000E-8	0.001881
6.940000E-8	0.001897
6.945000E-8	0.001900
6.950000E-8	0.001841
6.955000E-8	0.001928
6.960000E-8	0.001878
6.965000E-8	0.002047
6.970000E-8	0.001984
6.975000E-8	0.002041
6.980000E-8	0.002097
6.985000E-8	0.002081
6.990000E-8	0.002050
6.995000E-8	0.002100
7.000000E-8	0.001953
7.005000E-8	0.001872
7.010000E-8	0.001903
7.015000E-8	0.001800
7.020000E-8	0.001619
7.025000E-8	0.001519
7.030000E-8	0.001447
7.035000E-8	0.001475
7.040000E-8	0.001278
7.045000E-8	0.001391
7.050000E-8	0.001463
7.055000E-8	0.001556
7.060000E-8	0.001675
7.065000E-8	0.001719
7.070000E-8	0.001847
7.075000E-8	0.001866
7.080000E-8	0.001953
7.085000E-8	0.001994
7.090000E-8	0.002012
7.095000E-8	0.002053
7.100000E-8	0.002059
7.105000E-8	0.002097
7.110000E-8	0.002106
7.115000E-8	0.002009
7.120000E-8	0.002044
7.125000E-8	0.001916
7.130000E-8	0.001841
7.135000E-8	0.002000
7.140000E-8	0.002044
7.145000E-8	0.001919
7.150000E-8	0.002000
7.155000E-8	0.002050
7.160000E-8	0.002066
7.165000E-8	0.002025
7.170000E-8	0.002012
7.175000E-8	0.002100
7.180000E-8	0.002034
7.185000E-8	0.001928
7.190000E-8	0.001950
7.195000E-8	0.001956
7.200000E-8	0.001900
7.205000E-8	0.001788
7.210000E-8	0.001844
7.215000E-8	0.001813
7.220000E-8	0.001791
7.225000E-8	0.001959
7.230000E-8	0.001950
7.235000E-8	0.002050
7.240000E-8	0.002103
7.245000E-8	0.002228
7.250000E-8	0.002197
7.255000E-8	0.002269
7.260000E-8	0.002281
7.265000E-8	0.002416
7.270000E-8	0.002381
7.275000E-8	0.002331
7.280000E-8	0.002294
7.285000E-8	0.002197
7.290000E-8	0.002150
7.295000E-8	0.002075
7.300000E-8	0.002009
7.305000E-8	0.002044
7.310000E-8	0.001909
7.315000E-8	0.001891
7.320000E-8	0.001841
7.325000E-8	0.001931
7.330000E-8	0.001969
7.335000E-8	0.002081
7.340000E-8	0.002081
7.345000E-8	0.002225
7.350000E-8	0.002313
7.355000E-8	0.002366
7.360000E-8	0.002413
7.365000E-8	0.002469
7.370000E-8	0.002444
7.375000E-8	0.002341
7.380000E-8	0.002175
7.385000E-8	0.002122
7.390000E-8	0.001966
7.395000E-8	0.001853
7.400000E-8	0.001728
7.405000E-8	0.001606
7.410000E-8	0.001484
7.415000E-8	0.001500
7.420000E-8	0.001425
7.425000E-8	0.001484
7.430000E-8	0.001484
7.435000E-8	0.001656
7.440000E-8	0.001788
7.445000E-8	0.001859
7.450000E-8	0.001994
7.455000E-8	0.002113
7.460000E-8	0.002197
7.465000E-8	0.002150
7.470000E-8	0.002106
7.475000E-8	0.002063
7.480000E-8	0.001966
7.485000E-8	0.001838
7.490000E-8	0.001659
7.495000E-8	0.001472
7.500000E-8	0.001456
7.505000E-8	0.001356
7.510000E-8	0.001338
7.515000E-8	0.001422
7.520000E-8	0.001437
7.525000E-8	0.001631
7.530000E-8	0.001678
7.535000E-8	0.001891
7.540000E-8	0.002141
7.545000E-8	0.002266
7.550000E-8	0.002272
7.555000E-8	0.002338
7.560000E-8	0.002297
7.565000E-8	0.002266
7.570000E-8	0.002097
7.575000E-8	0.002116
7.580000E-8	0.001956
7.585000E-8	0.001859
7.590000E-8	0.001678
7.595000E-8	0.001516
7.600000E-8	0.001516
7.605000E-8	0.001550
7.610000E-8	0.001597
7.615000E-8	0.001684
7.620000E-8	0.001709
7.625000E-8	0.001916
7.630000E-8	0.001978
7.635000E-8	0.002150
7.640000E-8	0.002097
7.645000E-8	0.002275
7.650000E-8	0.002234
7.655000E-8	0.002200
7.660000E-8	0.002162
7.665000E-8	0.002072
7.670000E-8	0.001934
7.675000E-8	0.001750
7.680000E-8	0.001650
7.685000E-8	0.001666
7.690000E-8	0.001597
7.695000E-8	0.001547
7.700000E-8	0.001525
7.705000E-8	0.001534
7.710000E-8	0.001584
7.715000E-8	0.001641
7.720000E-8	0.001769
7.725000E-8	0.001928
7.730000E-8	0.001872
7.735000E-8	0.002084
7.740000E-8	0.002209
7.745000E-8	0.002175
7.750000E-8	0.002072
7.755000E-8	0.001966
7.760000E-8	0.001856
7.765000E-8	0.001831
7.770000E-8	0.001750
7.775000E-8	0.001678
7.780000E-8	0.001600
7.785000E-8	0.001584
7.790000E-8	0.001550
7.795000E-8	0.001597
7.800000E-8	0.001594
7.805000E-8	0.001725
7.810000E-8	0.001828
7.815000E-8	0.001919
7.820000E-8	0.002128
7.825000E-8	0.002122
7.830000E-8	0.002063
7.835000E-8	0.002166
7.840000E-8	0.002053
7.845000E-8	0.002072
7.850000E-8	0.001925
7.855000E-8	0.001891
7.860000E-8	0.001775
7.865000E-8	0.001738
7.870000E-8	0.001681
7.875000E-8	0.001747
7.880000E-8	0.001713
7.885000E-8	0.001888
7.890000E-8	0.001866
7.895000E-8	0.001950
7.900000E-8	0.002034
7.905000E-8	0.002066
7.910000E-8	0.002050
7.915000E-8	0.002100
7.920000E-8	0.001994
7.925000E-8	0.002016
7.930000E-8	0.001888
7.935000E-8	0.001966
7.940000E-8	0.001878
7.945000E-8	0.001906
7.950000E-8	0.001875
7.955000E-8	0.001850
7.960000E-8	0.001794
7.965000E-8	0.001834
7.970000E-8	0.001716
7.975000E-8	0.001819
7.980000E-8	0.001719
7.985000E-8	0.001675
7.990000E-8	0.001716
7.995000E-8	0.001747
8.000000E-8	0.001763
8.005000E-8	0.001775
8.010000E-8	0.001847
8.015000E-8	0.001775
8.020000E-8	0.001734
8.025000E-8	0.001631
8.030000E-8	0.001622
8.035000E-8	0.001519
8.040000E-8	0.001406
8.045000E-8	0.001391
8.050000E-8	0.001397
8.055000E-8	0.001406
8.060000E-8	0.001388
8.065000E-8	0.001616
8.070000E-8	0.001678
8.075000E-8	0.001756
8.080000E-8	0.001716
8.085000E-8	0.001819
8.090000E-8	0.001766
8.095000E-8	0.001941
8.100000E-8	0.002034
8.105000E-8	0.002006
8.110000E-8	0.001963
8.115000E-8	0.002063
8.120000E-8	0.001966
8.125000E-8	0.001906
8.130000E-8	0.001894
8.135000E-8	0.001738
8.140000E-8	0.001753
8.145000E-8	0.001638
8.150000E-8	0.001741
8.155000E-8	0.001653
8.160000E-8	0.001672
8.165000E-8	0.001731
8.170000E-8	0.001716
8.175000E-8	0.001731
8.180000E-8	0.001794
8.185000E-8	0.001791
8.190000E-8	0.001766
8.195000E-8	0.001794
8.200000E-8	0.001756
8.205000E-8	0.001797
8.210000E-8	0.001681
8.215000E-8	0.001641
8.220000E-8	0.001522
8.225000E-8	0.001437
8.230000E-8	0.001300
8.235000E-8	0.001338
8.240000E-8	0.001297
8.245000E-8	0.001350
8.250000E-8	0.001372
8.255000E-8	0.001513
8.260000E-8	0.001691
8.265000E-8	0.001844
8.270000E-8	0.001928
8.275000E-8	0.002038
8.280000E-8	0.002078
8.285000E-8	0.002131
8.290000E-8	0.002116
8.295000E-8	0.002100
8.300000E-8	0.002094
8.305000E-8	0.002053
8.310000E-8	0.001950
8.315000E-8	0.001841
8.320000E-8	0.001747
8.325000E-8	0.001800
8.330000E-8	0.001788
8.335000E-8	0.001806
8.340000E-8	0.001722
8.345000E-8	0.001806
8.350000E-8	0.001834
8.355000E-8	0.001913
8.360000E-8	0.001909
8.365000E-8	0.001947
8.370000E-8	0.001928
8.375000E-8	0.002069
8.380000E-8	0.002122
8.385000E-8	0.001997
8.390000E-8	0.002069
8.395000E-8	0.001969
8.400000E-8	0.001825
8.405000E-8	0.001703
8.410000E-8	0.001738
8.415000E-8	0.001691
8.420000E-8	0.001594
8.425000E-8	0.001538
8.430000E-8	0.001513
8.435000E-8	0.001428
8.440000E-8	0.001509
8.445000E-8	0.001466
8.450000E-8	0.001578
8.455000E-8	0.001675
8.460000E-8	0.001653
8.465000E-8	0.001797
8.470000E-8	0.001944
8.475000E-8	0.002038
8.480000E-8	0.002106
8.485000E-8	0.002241
8.490000E-8	0.002266
8.495000E-8	0.002247
8.500000E-8	0.002241
8.505000E-8	0.002266
8.510000E-8	0.002056
8.515000E-8	0.002000
8.520000E-8	0.001788
8.525000E-8	0.001775
8.530000E-8	0.001759
8.535000E-8	0.001766
8.540000E-8	0.001672
8.545000E-8	0.001738
8.550000E-8	0.001831
8.555000E-8	0.001863
8.560000E-8	0.001875
8.565000E-8	0.001925
8.570000E-8	0.001909
8.575000E-8	0.001863
8.580000E-8	0.001872
8.585000E-8	0.001869
8.590000E-8	0.001791
8.595000E-8	0.001725
8.600000E-8	0.001772
8.605000E-8	0.001794
8.610000E-8	0.001750
8.615000E-8	0.001838
8.620000E-8	0.001672
8.625000E-8	0.001697
8.630000E-8	0.001687
8.635000E-8	0.001741
8.640000E-8	0.001681
8.645000E-8	0.001734
8.650000E-8	0.001675
8.655000E-8	0.001753
8.660000E-8	0.001781
8.665000E-8	0.001859
8.670000E-8	0.001841
8.675000E-8	0.001913
8.680000E-8	0.001806
8.685000E-8	0.001775
8.690000E-8	0.001666
8.695000E-8	0.001619
8.700000E-8	0.001553
8.705000E-8	0.001513
8.710000E-8	0.001566
8.715000E-8	0.001738
8.720000E-8	0.001722
8.725000E-8	0.001766
8.730000E-8	0.001856
8.735000E-8	0.001841
8.740000E-8	0.001984
8.745000E-8	0.002075
8.750000E-8	0.002116
8.755000E-8	0.002097
8.760000E-8	0.002028
8.765000E-8	0.002066
8.770000E-8	0.002069
8.775000E-8	0.002000
8.780000E-8	0.001888
8.785000E-8	0.001884
8.790000E-8	0.001888
8.795000E-8	0.001672
8.800000E-8	0.001666
8.805000E-8	0.001725
8.810000E-8	0.001684
8.815000E-8	0.001806
8.820000E-8	0.001853
8.825000E-8	0.001963
8.830000E-8	0.002047
8.835000E-8	0.002087
8.840000E-8	0.002087
8.845000E-8	0.002216
8.850000E-8	0.002138
8.855000E-8	0.002213
8.860000E-8	0.002106
8.865000E-8	0.002069
8.870000E-8	0.001922
8.875000E-8	0.001981
8.880000E-8	0.001863
8.885000E-8	0.001816
8.890000E-8	0.001766
8.895000E-8	0.001869
8.900000E-8	0.001816
8.905000E-8	0.001734
8.910000E-8	0.001719
8.915000E-8	0.001691
8.920000E-8	0.001791
8.925000E-8	0.001838
8.930000E-8	0.001772
8.935000E-8	0.001856
8.940000E-8	0.001928
8.945000E-8	0.002131
8.950000E-8	0.002109
8.955000E-8	0.002109
8.960000E-8	0.002056
8.965000E-8	0.002063
8.970000E-8	0.001997
8.975000E-8	0.002000
8.980000E-8	0.001900
8.985000E-8	0.001997
8.990000E-8	0.001931
8.995000E-8	0.001906
9.000000E-8	0.001981
9.005000E-8	0.002022
9.010000E-8	0.002075
9.015000E-8	0.002237
9.020000E-8	0.002228
9.025000E-8	0.002191
9.030000E-8	0.002313
9.035000E-8	0.002328
9.040000E-8	0.002350
9.045000E-8	0.002359
9.050000E-8	0.002284
9.055000E-8	0.002222
9.060000E-8	0.002256
9.065000E-8	0.002134
9.070000E-8	0.002100
9.075000E-8	0.002053
9.080000E-8	0.001866
9.085000E-8	0.001844
9.090000E-8	0.001763
9.095000E-8	0.001813
9.100000E-8	0.001753
9.105000E-8	0.001747
9.110000E-8	0.001813
9.115000E-8	0.001875
9.120000E-8	0.001866
9.125000E-8	0.001941
9.130000E-8	0.001922
9.135000E-8	0.001894
9.140000E-8	0.001838
9.145000E-8	0.001753
9.150000E-8	0.001772
9.155000E-8	0.001775
9.160000E-8	0.001816
9.165000E-8	0.001822
9.170000E-8	0.001700
9.175000E-8	0.001756
9.180000E-8	0.001659
9.185000E-8	0.001697
9.190000E-8	0.001703
9.195000E-8	0.001716
9.200000E-8	0.001741
9.205000E-8	0.001784
9.210000E-8	0.001881
9.215000E-8	0.001856
9.220000E-8	0.001831
9.225000E-8	0.001881
9.230000E-8	0.001900
9.235000E-8	0.001959
9.240000E-8	0.001959
9.245000E-8	0.001941
9.250000E-8	0.001903
9.255000E-8	0.001866
9.260000E-8	0.001888
9.265000E-8	0.001769
9.270000E-8	0.001778
9.275000E-8	0.001828
9.280000E-8	0.001753
9.285000E-8	0.001788
9.290000E-8	0.001788
9.295000E-8	0.001678
9.300000E-8	0.001753
9.305000E-8	0.001738
9.310000E-8	0.001713
9.315000E-8	0.001788
9.320000E-8	0.001834
9.325000E-8	0.001841
9.330000E-8	0.001738
9.335000E-8	0.001759
9.340000E-8	0.001750
9.345000E-8	0.001791
9.350000E-8	0.001784
9.355000E-8	0.001784
9.360000E-8	0.001891
9.365000E-8	0.001822
9.370000E-8	0.001759
9.375000E-8	0.001972
9.380000E-8	0.001850
9.385000E-8	0.001850
9.390000E-8	0.001847
9.395000E-8	0.001859
9.400000E-8	0.001897
9.405000E-8	0.001981
9.410000E-8	0.002003
9.415000E-8	0.001953
9.420000E-8	0.001919
9.425000E-8	0.001963
9.430000E-8	0.001925
9.435000E-8	0.001969
9.440000E-8	0.002016
9.445000E-8	0.001981
9.450000E-8	0.001941
9.455000E-8	0.002006
9.460000E-8	0.001916
9.465000E-8	0.001925
9.470000E-8	0.001897
9.475000E-8	0.001928
9.480000E-8	0.001931
9.485000E-8	0.002025
9.490000E-8	0.001891
9.495000E-8	0.001978
9.500000E-8	0.001972
9.505000E-8	0.002009
9.510000E-8	0.001997
9.515000E-8	0.001975
9.520000E-8	0.002012
9.525000E-8	0.001947
9.530000E-8	0.001800
9.535000E-8	0.001694
9.540000E-8	0.001625
9.545000E-8	0.001700
9.550000E-8	0.001694
9.555000E-8	0.001791
9.560000E-8	0.001706
9.565000E-8	0.001803
9.570000E-8	0.001859
9.575000E-8	0.001869
9.580000E-8	0.001850
9.585000E-8	0.001963
9.590000E-8	0.001966
9.595000E-8	0.001944
9.600000E-8	0.001859
9.605000E-8	0.001897
9.610000E-8	0.001822
9.615000E-8	0.001869
9.620000E-8	0.001825
9.625000E-8	0.001881
9.630000E-8	0.001991
9.635000E-8	0.002031
9.640000E-8	0.002103
9.645000E-8	0.002156
9.650000E-8	0.002203
9.655000E-8	0.002241
9.660000E-8	0.002162
9.665000E-8	0.002053
9.670000E-8	0.002063
9.675000E-8	0.002041
9.680000E-8	0.001922
9.685000E-8	0.001878
9.690000E-8	0.001850
9.695000E-8	0.001809
9.700000E-8	0.001847
9.705000E-8	0.001716
9.710000E-8	0.001747
9.715000E-8	0.001831
9.720000E-8	0.001616
9.725000E-8	0.001534
9.730000E-8	0.001575
9.735000E-8	0.001612
9.740000E-8	0.001531
9.745000E-8	0.001566
9.750000E-8	0.001528
9.755000E-8	0.001600
9.760000E-8	0.001475
9.765000E-8	0.001675
9.770000E-8	0.001634
9.775000E-8	0.001691
9.780000E-8	0.001713
9.785000E-8	0.001741
9.790000E-8	0.001791
9.795000E-8	0.001925
9.800000E-8	0.001900
9.805000E-8	0.001891
9.810000E-8	0.001819
9.815000E-8	0.001800
9.820000E-8	0.001703
9.825000E-8	0.001803
9.830000E-8	0.001809
9.835000E-8	0.001778
9.840000E-8	0.001822
9.845000E-8	0.001741
9.850000E-8	0.001691
9.855000E-8	0.001694
9.860000E-8	0.001575
9.865000E-8	0.001659
9.870000E-8	0.001719
9.875000E-8	0.001728
9.880000E-8	0.001747
9.885000E-8	0.001803
9.890000E-8	0.001756
9.895000E-8	0.001772
9.900000E-8	0.001663
9.905000E-8	0.001644
9.910000E-8	0.001666
9.915000E-8	0.001659
9.920000E-8	0.001638
9.925000E-8	0.001669
9.930000E-8	0.001631
9.935000E-8	0.001666
9.940000E-8	0.001647
9.945000E-8	0.001744
9.950000E-8	0.001734
9.955000E-8	0.001903
9.960000E-8	0.001841
9.965000E-8	0.001856
9.970000E-8	0.001916
9.975000E-8	0.002072
9.980000E-8	0.002078
9.985000E-8	0.002100
9.990000E-8	0.002081
9.995000E-8	0.001984
