LabVIEW Measurement	
Writer_Version	2
Reader_Version	2
Separator	Tab
Decimal_Separator	.
Multi_Headings	No
X_Columns	Multi
Time_Pref	Relative
Operator	TG lab
Date	2015/03/07
Time	10:44:35.0802984237670898438
***End_of_Header***	
	
Channels	1	
Samples	2000	
Date	1903/12/31	
Time	19:00:00	
X_Dimension	Time	
X0	0.0000000000000000E+0	
Delta_X	5.000000E-11	
***End_of_Header***		
X_Value	Untitled	Comment
0.000000	0.002147
5.000000E-11	0.002113
1.000000E-10	0.002138
1.500000E-10	0.002087
2.000000E-10	0.002138
2.500000E-10	0.002197
3.000000E-10	0.002234
3.500000E-10	0.002275
4.000000E-10	0.002216
4.500000E-10	0.002253
5.000000E-10	0.002159
5.500000E-10	0.002141
6.000000E-10	0.002038
6.500000E-10	0.002059
7.000000E-10	0.002031
7.500000E-10	0.002009
8.000000E-10	0.001972
8.500000E-10	0.001988
9.000000E-10	0.002084
9.500000E-10	0.002200
1.000000E-9	0.002141
1.050000E-9	0.002263
1.100000E-9	0.002278
1.150000E-9	0.002313
1.200000E-9	0.002250
1.250000E-9	0.002256
1.300000E-9	0.002087
1.350000E-9	0.002200
1.400000E-9	0.002122
1.450000E-9	0.002200
1.500000E-9	0.002109
1.550000E-9	0.002113
1.600000E-9	0.002134
1.650000E-9	0.002228
1.700000E-9	0.002278
1.750000E-9	0.002309
1.800000E-9	0.002447
1.850000E-9	0.002516
1.900000E-9	0.002416
1.950000E-9	0.002425
2.000000E-9	0.002472
2.050000E-9	0.002463
2.100000E-9	0.002403
2.150000E-9	0.002422
2.200000E-9	0.002353
2.250000E-9	0.002516
2.300000E-9	0.002559
2.350000E-9	0.002675
2.400000E-9	0.002666
2.450000E-9	0.002616
2.500000E-9	0.002544
2.550000E-9	0.002600
2.600000E-9	0.002553
2.650000E-9	0.002538
2.700000E-9	0.002553
2.750000E-9	0.002619
2.800000E-9	0.002722
2.850000E-9	0.002922
2.900000E-9	0.002913
2.950000E-9	0.002997
3.000000E-9	0.003141
3.050000E-9	0.003181
3.100000E-9	0.003169
3.150000E-9	0.003206
3.200000E-9	0.003031
3.250000E-9	0.002956
3.300000E-9	0.002872
3.350000E-9	0.002672
3.400000E-9	0.002550
3.450000E-9	0.002553
3.500000E-9	0.002397
3.550000E-9	0.002356
3.600000E-9	0.002472
3.650000E-9	0.002606
3.700000E-9	0.002691
3.750000E-9	0.002759
3.800000E-9	0.002963
3.850000E-9	0.003087
3.900000E-9	0.003012
3.950000E-9	0.003194
4.000000E-9	0.003353
4.050000E-9	0.003416
4.100000E-9	0.003425
4.150000E-9	0.003575
4.200000E-9	0.003541
4.250000E-9	0.003650
4.300000E-9	0.003809
4.350000E-9	0.004128
4.400000E-9	0.004431
4.450000E-9	0.004816
4.500000E-9	0.005300
4.550000E-9	0.005825
4.600000E-9	0.006356
4.650000E-9	0.006978
4.700000E-9	0.007563
4.750000E-9	0.008334
4.800000E-9	0.009072
4.850000E-9	0.009928
4.900000E-9	0.010684
4.950000E-9	0.011616
5.000000E-9	0.012484
5.050000E-9	0.013597
5.100000E-9	0.014603
5.150000E-9	0.015794
5.200000E-9	0.016853
5.250000E-9	0.017859
5.300000E-9	0.018838
5.350000E-9	0.019675
5.400000E-9	0.020291
5.450000E-9	0.020578
5.500000E-9	0.020634
5.550000E-9	0.020491
5.600000E-9	0.019978
5.650000E-9	0.019291
5.700000E-9	0.018241
5.750000E-9	0.017275
5.800000E-9	0.016091
5.850000E-9	0.015137
5.900000E-9	0.014122
5.950000E-9	0.013153
6.000000E-9	0.012550
6.050000E-9	0.012134
6.100000E-9	0.011806
6.150000E-9	0.011884
6.200000E-9	0.012059
6.250000E-9	0.012397
6.300000E-9	0.012778
6.350000E-9	0.013225
6.400000E-9	0.013384
6.450000E-9	0.013450
6.500000E-9	0.013366
6.550000E-9	0.013022
6.600000E-9	0.012472
6.650000E-9	0.011728
6.700000E-9	0.010712
6.750000E-9	0.009797
6.800000E-9	0.008869
6.850000E-9	0.007975
6.900000E-9	0.007328
6.950000E-9	0.006778
7.000000E-9	0.006488
7.050000E-9	0.006450
7.100000E-9	0.006606
7.150000E-9	0.007028
7.200000E-9	0.007509
7.250000E-9	0.008066
7.300000E-9	0.008587
7.350000E-9	0.008941
7.400000E-9	0.009141
7.450000E-9	0.009194
7.500000E-9	0.008775
7.550000E-9	0.008472
7.600000E-9	0.007959
7.650000E-9	0.007153
7.700000E-9	0.006319
7.750000E-9	0.005622
7.800000E-9	0.004866
7.850000E-9	0.004356
7.900000E-9	0.004009
7.950000E-9	0.003969
8.000000E-9	0.004038
8.050000E-9	0.004566
8.100000E-9	0.005075
8.150000E-9	0.005706
8.200000E-9	0.006269
8.250000E-9	0.006859
8.300000E-9	0.007319
8.350000E-9	0.007522
8.400000E-9	0.007594
8.450000E-9	0.007359
8.500000E-9	0.006875
8.550000E-9	0.006247
8.600000E-9	0.005606
8.650000E-9	0.004678
8.700000E-9	0.003738
8.750000E-9	0.003169
8.800000E-9	0.002509
8.850000E-9	0.002263
8.900000E-9	0.002197
8.950000E-9	0.002319
9.000000E-9	0.002703
9.050000E-9	0.003334
9.100000E-9	0.003944
9.150000E-9	0.004666
9.200000E-9	0.005247
9.250000E-9	0.005781
9.300000E-9	0.005991
9.350000E-9	0.006066
9.400000E-9	0.005784
9.450000E-9	0.005331
9.500000E-9	0.004575
9.550000E-9	0.003784
9.600000E-9	0.002909
9.650000E-9	0.002197
9.700000E-9	0.001484
9.750000E-9	0.001259
9.800000E-9	0.001116
9.850000E-9	0.001172
9.900000E-9	0.001572
9.950000E-9	0.002166
1.000000E-8	0.002875
1.005000E-8	0.003556
1.010000E-8	0.004194
1.015000E-8	0.004841
1.020000E-8	0.005247
1.025000E-8	0.005450
1.030000E-8	0.005453
1.035000E-8	0.005156
1.040000E-8	0.004722
1.045000E-8	0.004128
1.050000E-8	0.003428
1.055000E-8	0.002691
1.060000E-8	0.001947
1.065000E-8	0.001588
1.070000E-8	0.001297
1.075000E-8	0.001306
1.080000E-8	0.001450
1.085000E-8	0.001850
1.090000E-8	0.002375
1.095000E-8	0.003059
1.100000E-8	0.003688
1.105000E-8	0.004216
1.110000E-8	0.004578
1.115000E-8	0.005019
1.120000E-8	0.004906
1.125000E-8	0.004825
1.130000E-8	0.004484
1.135000E-8	0.003913
1.140000E-8	0.003275
1.145000E-8	0.002638
1.150000E-8	0.001881
1.155000E-8	0.001491
1.160000E-8	0.001022
1.165000E-8	0.000891
1.170000E-8	0.000903
1.175000E-8	0.001134
1.180000E-8	0.001534
1.185000E-8	0.002181
1.190000E-8	0.002800
1.195000E-8	0.003422
1.200000E-8	0.003863
1.205000E-8	0.004319
1.210000E-8	0.004344
1.215000E-8	0.004300
1.220000E-8	0.004016
1.225000E-8	0.003613
1.230000E-8	0.002900
1.235000E-8	0.002363
1.240000E-8	0.001719
1.245000E-8	0.001119
1.250000E-8	0.000616
1.255000E-8	0.000431
1.260000E-8	0.000406
1.265000E-8	0.000575
1.270000E-8	0.000934
1.275000E-8	0.001313
1.280000E-8	0.001866
1.285000E-8	0.002491
1.290000E-8	0.002966
1.295000E-8	0.003478
1.300000E-8	0.003794
1.305000E-8	0.003962
1.310000E-8	0.003844
1.315000E-8	0.003631
1.320000E-8	0.003184
1.325000E-8	0.002597
1.330000E-8	0.002059
1.335000E-8	0.001619
1.340000E-8	0.001028
1.345000E-8	0.000788
1.350000E-8	0.000597
1.355000E-8	0.000775
1.360000E-8	0.000981
1.365000E-8	0.001547
1.370000E-8	0.002063
1.375000E-8	0.002566
1.380000E-8	0.003169
1.385000E-8	0.003753
1.390000E-8	0.004009
1.395000E-8	0.004231
1.400000E-8	0.004122
1.405000E-8	0.003956
1.410000E-8	0.003603
1.415000E-8	0.003025
1.420000E-8	0.002466
1.425000E-8	0.001894
1.430000E-8	0.001391
1.435000E-8	0.000916
1.440000E-8	0.000691
1.445000E-8	0.000750
1.450000E-8	0.000794
1.455000E-8	0.001191
1.460000E-8	0.001638
1.465000E-8	0.002131
1.470000E-8	0.002669
1.475000E-8	0.003294
1.480000E-8	0.003719
1.485000E-8	0.003962
1.490000E-8	0.004100
1.495000E-8	0.004087
1.500000E-8	0.003744
1.505000E-8	0.003403
1.510000E-8	0.002884
1.515000E-8	0.002291
1.520000E-8	0.001687
1.525000E-8	0.001187
1.530000E-8	0.000841
1.535000E-8	0.000500
1.540000E-8	0.000441
1.545000E-8	0.000547
1.550000E-8	0.000816
1.555000E-8	0.001275
1.560000E-8	0.001813
1.565000E-8	0.002341
1.570000E-8	0.002950
1.575000E-8	0.003347
1.580000E-8	0.003634
1.585000E-8	0.003709
1.590000E-8	0.003672
1.595000E-8	0.003478
1.600000E-8	0.003141
1.605000E-8	0.002744
1.610000E-8	0.002225
1.615000E-8	0.001731
1.620000E-8	0.001272
1.625000E-8	0.001116
1.630000E-8	0.001053
1.635000E-8	0.001150
1.640000E-8	0.001266
1.645000E-8	0.001694
1.650000E-8	0.002119
1.655000E-8	0.002672
1.660000E-8	0.003106
1.665000E-8	0.003584
1.670000E-8	0.003881
1.675000E-8	0.004038
1.680000E-8	0.004103
1.685000E-8	0.003938
1.690000E-8	0.003622
1.695000E-8	0.003206
1.700000E-8	0.002675
1.705000E-8	0.002066
1.710000E-8	0.001488
1.715000E-8	0.001169
1.720000E-8	0.000906
1.725000E-8	0.000753
1.730000E-8	0.000825
1.735000E-8	0.001041
1.740000E-8	0.001434
1.745000E-8	0.001969
1.750000E-8	0.002375
1.755000E-8	0.002859
1.760000E-8	0.003322
1.765000E-8	0.003613
1.770000E-8	0.003816
1.775000E-8	0.003706
1.780000E-8	0.003534
1.785000E-8	0.003181
1.790000E-8	0.002697
1.795000E-8	0.002306
1.800000E-8	0.001841
1.805000E-8	0.001313
1.810000E-8	0.000947
1.815000E-8	0.000819
1.820000E-8	0.000625
1.825000E-8	0.000856
1.830000E-8	0.001041
1.835000E-8	0.001522
1.840000E-8	0.001878
1.845000E-8	0.002488
1.850000E-8	0.003012
1.855000E-8	0.003353
1.860000E-8	0.003534
1.865000E-8	0.003797
1.870000E-8	0.003766
1.875000E-8	0.003488
1.880000E-8	0.003203
1.885000E-8	0.002728
1.890000E-8	0.002059
1.895000E-8	0.001600
1.900000E-8	0.001041
1.905000E-8	0.000728
1.910000E-8	0.000537
1.915000E-8	0.000416
1.920000E-8	0.000628
1.925000E-8	0.000997
1.930000E-8	0.001381
1.935000E-8	0.001966
1.940000E-8	0.002466
1.945000E-8	0.003028
1.950000E-8	0.003269
1.955000E-8	0.003431
1.960000E-8	0.003397
1.965000E-8	0.003241
1.970000E-8	0.002956
1.975000E-8	0.002613
1.980000E-8	0.002122
1.985000E-8	0.001725
1.990000E-8	0.001353
1.995000E-8	0.000981
2.000000E-8	0.000763
2.005000E-8	0.000653
2.010000E-8	0.000838
2.015000E-8	0.001075
2.020000E-8	0.001300
2.025000E-8	0.001775
2.030000E-8	0.002294
2.035000E-8	0.002828
2.040000E-8	0.003122
2.045000E-8	0.003347
2.050000E-8	0.003422
2.055000E-8	0.003319
2.060000E-8	0.003059
2.065000E-8	0.002763
2.070000E-8	0.002322
2.075000E-8	0.001903
2.080000E-8	0.001316
2.085000E-8	0.001022
2.090000E-8	0.000691
2.095000E-8	0.000688
2.100000E-8	0.000706
2.105000E-8	0.000894
2.110000E-8	0.001128
2.115000E-8	0.001538
2.120000E-8	0.001988
2.125000E-8	0.002378
2.130000E-8	0.002737
2.135000E-8	0.003053
2.140000E-8	0.003222
2.145000E-8	0.003234
2.150000E-8	0.003125
2.155000E-8	0.002897
2.160000E-8	0.002512
2.165000E-8	0.002166
2.170000E-8	0.001687
2.175000E-8	0.001263
2.180000E-8	0.000984
2.185000E-8	0.000825
2.190000E-8	0.000850
2.195000E-8	0.000834
2.200000E-8	0.001022
2.205000E-8	0.001475
2.210000E-8	0.001794
2.215000E-8	0.002091
2.220000E-8	0.002447
2.225000E-8	0.002850
2.230000E-8	0.003025
2.235000E-8	0.003153
2.240000E-8	0.003150
2.245000E-8	0.003075
2.250000E-8	0.002891
2.255000E-8	0.002675
2.260000E-8	0.002300
2.265000E-8	0.001944
2.270000E-8	0.001441
2.275000E-8	0.001131
2.280000E-8	0.000847
2.285000E-8	0.000741
2.290000E-8	0.000716
2.295000E-8	0.000959
2.300000E-8	0.001338
2.305000E-8	0.001722
2.310000E-8	0.002081
2.315000E-8	0.002538
2.320000E-8	0.002966
2.325000E-8	0.003256
2.330000E-8	0.003288
2.335000E-8	0.003181
2.340000E-8	0.003012
2.345000E-8	0.002694
2.350000E-8	0.002250
2.355000E-8	0.001875
2.360000E-8	0.001300
2.365000E-8	0.001072
2.370000E-8	0.000772
2.375000E-8	0.000663
2.380000E-8	0.000681
2.385000E-8	0.000834
2.390000E-8	0.001147
2.395000E-8	0.001556
2.400000E-8	0.002022
2.405000E-8	0.002391
2.410000E-8	0.002716
2.415000E-8	0.003006
2.420000E-8	0.003153
2.425000E-8	0.003250
2.430000E-8	0.003081
2.435000E-8	0.002913
2.440000E-8	0.002541
2.445000E-8	0.002188
2.450000E-8	0.001906
2.455000E-8	0.001494
2.460000E-8	0.001191
2.465000E-8	0.000941
2.470000E-8	0.000775
2.475000E-8	0.000894
2.480000E-8	0.000941
2.485000E-8	0.001169
2.490000E-8	0.001434
2.495000E-8	0.001875
2.500000E-8	0.002288
2.505000E-8	0.002591
2.510000E-8	0.002903
2.515000E-8	0.003150
2.520000E-8	0.003172
2.525000E-8	0.003131
2.530000E-8	0.002847
2.535000E-8	0.002681
2.540000E-8	0.002175
2.545000E-8	0.001816
2.550000E-8	0.001409
2.555000E-8	0.001091
2.560000E-8	0.000891
2.565000E-8	0.000919
2.570000E-8	0.000997
2.575000E-8	0.001303
2.580000E-8	0.001594
2.585000E-8	0.001997
2.590000E-8	0.002406
2.595000E-8	0.002797
2.600000E-8	0.003231
2.605000E-8	0.003478
2.610000E-8	0.003488
2.615000E-8	0.003416
2.620000E-8	0.003181
2.625000E-8	0.002947
2.630000E-8	0.002497
2.635000E-8	0.002162
2.640000E-8	0.001731
2.645000E-8	0.001456
2.650000E-8	0.001059
2.655000E-8	0.000981
2.660000E-8	0.001000
2.665000E-8	0.001134
2.670000E-8	0.001338
2.675000E-8	0.001666
2.680000E-8	0.001956
2.685000E-8	0.002247
2.690000E-8	0.002550
2.695000E-8	0.002806
2.700000E-8	0.002969
2.705000E-8	0.003087
2.710000E-8	0.002922
2.715000E-8	0.002869
2.720000E-8	0.002522
2.725000E-8	0.002284
2.730000E-8	0.001869
2.735000E-8	0.001597
2.740000E-8	0.001206
2.745000E-8	0.001241
2.750000E-8	0.001131
2.755000E-8	0.001216
2.760000E-8	0.001297
2.765000E-8	0.001638
2.770000E-8	0.001844
2.775000E-8	0.002316
2.780000E-8	0.002516
2.785000E-8	0.002931
2.790000E-8	0.003103
2.795000E-8	0.003206
2.800000E-8	0.003231
2.805000E-8	0.003156
2.810000E-8	0.002994
2.815000E-8	0.002694
2.820000E-8	0.002425
2.825000E-8	0.002153
2.830000E-8	0.001866
2.835000E-8	0.001578
2.840000E-8	0.001422
2.845000E-8	0.001488
2.850000E-8	0.001491
2.855000E-8	0.001597
2.860000E-8	0.001759
2.865000E-8	0.002103
2.870000E-8	0.002463
2.875000E-8	0.002725
2.880000E-8	0.002963
2.885000E-8	0.003156
2.890000E-8	0.003197
2.895000E-8	0.003175
2.900000E-8	0.002959
2.905000E-8	0.002788
2.910000E-8	0.002475
2.915000E-8	0.002222
2.920000E-8	0.001828
2.925000E-8	0.001653
2.930000E-8	0.001338
2.935000E-8	0.001256
2.940000E-8	0.001075
2.945000E-8	0.001241
2.950000E-8	0.001413
2.955000E-8	0.001612
2.960000E-8	0.001894
2.965000E-8	0.002194
2.970000E-8	0.002447
2.975000E-8	0.002706
2.980000E-8	0.002916
2.985000E-8	0.002978
2.990000E-8	0.002869
2.995000E-8	0.002800
3.000000E-8	0.002616
3.005000E-8	0.002406
3.010000E-8	0.002128
3.015000E-8	0.001963
3.020000E-8	0.001656
3.025000E-8	0.001519
3.030000E-8	0.001347
3.035000E-8	0.001441
3.040000E-8	0.001525
3.045000E-8	0.001738
3.050000E-8	0.002091
3.055000E-8	0.002431
3.060000E-8	0.002572
3.065000E-8	0.002866
3.070000E-8	0.002934
3.075000E-8	0.003041
3.080000E-8	0.003091
3.085000E-8	0.002925
3.090000E-8	0.002572
3.095000E-8	0.002400
3.100000E-8	0.002038
3.105000E-8	0.001825
3.110000E-8	0.001628
3.115000E-8	0.001388
3.120000E-8	0.001250
3.125000E-8	0.001356
3.130000E-8	0.001453
3.135000E-8	0.001687
3.140000E-8	0.001878
3.145000E-8	0.002281
3.150000E-8	0.002541
3.155000E-8	0.002694
3.160000E-8	0.002950
3.165000E-8	0.002984
3.170000E-8	0.002922
3.175000E-8	0.002988
3.180000E-8	0.002697
3.185000E-8	0.002541
3.190000E-8	0.002259
3.195000E-8	0.002050
3.200000E-8	0.001709
3.205000E-8	0.001616
3.210000E-8	0.001481
3.215000E-8	0.001384
3.220000E-8	0.001491
3.225000E-8	0.001588
3.230000E-8	0.001672
3.235000E-8	0.001866
3.240000E-8	0.002016
3.245000E-8	0.002219
3.250000E-8	0.002291
3.255000E-8	0.002609
3.260000E-8	0.002706
3.265000E-8	0.002759
3.270000E-8	0.002800
3.275000E-8	0.002750
3.280000E-8	0.002572
3.285000E-8	0.002388
3.290000E-8	0.002006
3.295000E-8	0.001747
3.300000E-8	0.001541
3.305000E-8	0.001275
3.310000E-8	0.001084
3.315000E-8	0.001025
3.320000E-8	0.001000
3.325000E-8	0.001259
3.330000E-8	0.001516
3.335000E-8	0.001759
3.340000E-8	0.002050
3.345000E-8	0.002441
3.350000E-8	0.002478
3.355000E-8	0.002688
3.360000E-8	0.002672
3.365000E-8	0.002569
3.370000E-8	0.002416
3.375000E-8	0.002297
3.380000E-8	0.002128
3.385000E-8	0.001941
3.390000E-8	0.001634
3.395000E-8	0.001544
3.400000E-8	0.001491
3.405000E-8	0.001459
3.410000E-8	0.001531
3.415000E-8	0.001638
3.420000E-8	0.001859
3.425000E-8	0.002000
3.430000E-8	0.002284
3.435000E-8	0.002494
3.440000E-8	0.002625
3.445000E-8	0.002731
3.450000E-8	0.002753
3.455000E-8	0.003009
3.460000E-8	0.002847
3.465000E-8	0.002759
3.470000E-8	0.002481
3.475000E-8	0.002209
3.480000E-8	0.001956
3.485000E-8	0.001788
3.490000E-8	0.001497
3.495000E-8	0.001394
3.500000E-8	0.001359
3.505000E-8	0.001372
3.510000E-8	0.001450
3.515000E-8	0.001619
3.520000E-8	0.001847
3.525000E-8	0.002038
3.530000E-8	0.002281
3.535000E-8	0.002525
3.540000E-8	0.002578
3.545000E-8	0.002759
3.550000E-8	0.002697
3.555000E-8	0.002647
3.560000E-8	0.002500
3.565000E-8	0.002334
3.570000E-8	0.002256
3.575000E-8	0.001953
3.580000E-8	0.001706
3.585000E-8	0.001584
3.590000E-8	0.001416
3.595000E-8	0.001513
3.600000E-8	0.001466
3.605000E-8	0.001753
3.610000E-8	0.001884
3.615000E-8	0.001966
3.620000E-8	0.002119
3.625000E-8	0.002263
3.630000E-8	0.002313
3.635000E-8	0.002388
3.640000E-8	0.002325
3.645000E-8	0.002316
3.650000E-8	0.002194
3.655000E-8	0.002000
3.660000E-8	0.001844
3.665000E-8	0.001681
3.670000E-8	0.001459
3.675000E-8	0.001428
3.680000E-8	0.001247
3.685000E-8	0.001231
3.690000E-8	0.001338
3.695000E-8	0.001469
3.700000E-8	0.001469
3.705000E-8	0.001747
3.710000E-8	0.001988
3.715000E-8	0.002303
3.720000E-8	0.002481
3.725000E-8	0.002747
3.730000E-8	0.002822
3.735000E-8	0.003019
3.740000E-8	0.002841
3.745000E-8	0.002834
3.750000E-8	0.002656
3.755000E-8	0.002506
3.760000E-8	0.002288
3.765000E-8	0.002084
3.770000E-8	0.001866
3.775000E-8	0.001747
3.780000E-8	0.001706
3.785000E-8	0.001884
3.790000E-8	0.001913
3.795000E-8	0.002022
3.800000E-8	0.002128
3.805000E-8	0.002375
3.810000E-8	0.002550
3.815000E-8	0.002831
3.820000E-8	0.002938
3.825000E-8	0.002991
3.830000E-8	0.002991
3.835000E-8	0.002822
3.840000E-8	0.002713
3.845000E-8	0.002519
3.850000E-8	0.002250
3.855000E-8	0.001972
3.860000E-8	0.001769
3.865000E-8	0.001781
3.870000E-8	0.001550
3.875000E-8	0.001450
3.880000E-8	0.001525
3.885000E-8	0.001475
3.890000E-8	0.001666
3.895000E-8	0.001922
3.900000E-8	0.002116
3.905000E-8	0.002384
3.910000E-8	0.002581
3.915000E-8	0.002681
3.920000E-8	0.002847
3.925000E-8	0.002794
3.930000E-8	0.002606
3.935000E-8	0.002497
3.940000E-8	0.002153
3.945000E-8	0.002106
3.950000E-8	0.001888
3.955000E-8	0.001619
3.960000E-8	0.001406
3.965000E-8	0.001269
3.970000E-8	0.001294
3.975000E-8	0.001297
3.980000E-8	0.001328
3.985000E-8	0.001600
3.990000E-8	0.001869
3.995000E-8	0.002219
4.000000E-8	0.002441
4.005000E-8	0.002725
4.010000E-8	0.002834
4.015000E-8	0.002797
4.020000E-8	0.002906
4.025000E-8	0.002728
4.030000E-8	0.002509
4.035000E-8	0.002244
4.040000E-8	0.001941
4.045000E-8	0.001703
4.050000E-8	0.001578
4.055000E-8	0.001488
4.060000E-8	0.001356
4.065000E-8	0.001484
4.070000E-8	0.001597
4.075000E-8	0.001819
4.080000E-8	0.001975
4.085000E-8	0.002175
4.090000E-8	0.002566
4.095000E-8	0.002616
4.100000E-8	0.002756
4.105000E-8	0.002853
4.110000E-8	0.002716
4.115000E-8	0.002628
4.120000E-8	0.002441
4.125000E-8	0.002409
4.130000E-8	0.002125
4.135000E-8	0.001875
4.140000E-8	0.001809
4.145000E-8	0.001663
4.150000E-8	0.001447
4.155000E-8	0.001578
4.160000E-8	0.001625
4.165000E-8	0.001800
4.170000E-8	0.001975
4.175000E-8	0.002094
4.180000E-8	0.002281
4.185000E-8	0.002525
4.190000E-8	0.002416
4.195000E-8	0.002666
4.200000E-8	0.002706
4.205000E-8	0.002691
4.210000E-8	0.002584
4.215000E-8	0.002469
4.220000E-8	0.002375
4.225000E-8	0.002184
4.230000E-8	0.001947
4.235000E-8	0.001925
4.240000E-8	0.001756
4.245000E-8	0.001638
4.250000E-8	0.001538
4.255000E-8	0.001531
4.260000E-8	0.001659
4.265000E-8	0.001772
4.270000E-8	0.001969
4.275000E-8	0.002113
4.280000E-8	0.002263
4.285000E-8	0.002506
4.290000E-8	0.002697
4.295000E-8	0.002675
4.300000E-8	0.002719
4.305000E-8	0.002600
4.310000E-8	0.002425
4.315000E-8	0.002325
4.320000E-8	0.001975
4.325000E-8	0.001891
4.330000E-8	0.001687
4.335000E-8	0.001628
4.340000E-8	0.001644
4.345000E-8	0.001725
4.350000E-8	0.001778
4.355000E-8	0.002012
4.360000E-8	0.002200
4.365000E-8	0.002459
4.370000E-8	0.002566
4.375000E-8	0.002703
4.380000E-8	0.002731
4.385000E-8	0.002813
4.390000E-8	0.002744
4.395000E-8	0.002675
4.400000E-8	0.002491
4.405000E-8	0.002309
4.410000E-8	0.002066
4.415000E-8	0.001906
4.420000E-8	0.001813
4.425000E-8	0.001700
4.430000E-8	0.001644
4.435000E-8	0.001622
4.440000E-8	0.001694
4.445000E-8	0.001800
4.450000E-8	0.001950
4.455000E-8	0.002091
4.460000E-8	0.002272
4.465000E-8	0.002456
4.470000E-8	0.002466
4.475000E-8	0.002463
4.480000E-8	0.002512
4.485000E-8	0.002559
4.490000E-8	0.002559
4.495000E-8	0.002397
4.500000E-8	0.002134
4.505000E-8	0.002213
4.510000E-8	0.002078
4.515000E-8	0.001872
4.520000E-8	0.001763
4.525000E-8	0.001750
4.530000E-8	0.001522
4.535000E-8	0.001616
4.540000E-8	0.001616
4.545000E-8	0.001675
4.550000E-8	0.001934
4.555000E-8	0.002028
4.560000E-8	0.002209
4.565000E-8	0.002400
4.570000E-8	0.002531
4.575000E-8	0.002481
4.580000E-8	0.002397
4.585000E-8	0.002303
4.590000E-8	0.002113
4.595000E-8	0.001953
4.600000E-8	0.001675
4.605000E-8	0.001466
4.610000E-8	0.001378
4.615000E-8	0.001331
4.620000E-8	0.001322
4.625000E-8	0.001459
4.630000E-8	0.001653
4.635000E-8	0.001744
4.640000E-8	0.001819
4.645000E-8	0.002156
4.650000E-8	0.002378
4.655000E-8	0.002609
4.660000E-8	0.002713
4.665000E-8	0.002825
4.670000E-8	0.002928
4.675000E-8	0.002866
4.680000E-8	0.002753
4.685000E-8	0.002500
4.690000E-8	0.002356
4.695000E-8	0.002150
4.700000E-8	0.001884
4.705000E-8	0.001750
4.710000E-8	0.001616
4.715000E-8	0.001534
4.720000E-8	0.001538
4.725000E-8	0.001588
4.730000E-8	0.001647
4.735000E-8	0.001856
4.740000E-8	0.002000
4.745000E-8	0.002138
4.750000E-8	0.002259
4.755000E-8	0.002431
4.760000E-8	0.002447
4.765000E-8	0.002581
4.770000E-8	0.002409
4.775000E-8	0.002425
4.780000E-8	0.002247
4.785000E-8	0.002103
4.790000E-8	0.001753
4.795000E-8	0.001522
4.800000E-8	0.001269
4.805000E-8	0.001213
4.810000E-8	0.001169
4.815000E-8	0.001309
4.820000E-8	0.001256
4.825000E-8	0.001416
4.830000E-8	0.001678
4.835000E-8	0.001950
4.840000E-8	0.002156
4.845000E-8	0.002303
4.850000E-8	0.002366
4.855000E-8	0.002388
4.860000E-8	0.002372
4.865000E-8	0.002347
4.870000E-8	0.002131
4.875000E-8	0.001966
4.880000E-8	0.001816
4.885000E-8	0.001684
4.890000E-8	0.001697
4.895000E-8	0.001578
4.900000E-8	0.001556
4.905000E-8	0.001756
4.910000E-8	0.001841
4.915000E-8	0.001925
4.920000E-8	0.002050
4.925000E-8	0.002338
4.930000E-8	0.002338
4.935000E-8	0.002581
4.940000E-8	0.002672
4.945000E-8	0.002631
4.950000E-8	0.002569
4.955000E-8	0.002550
4.960000E-8	0.002306
4.965000E-8	0.002281
4.970000E-8	0.002150
4.975000E-8	0.002000
4.980000E-8	0.001788
4.985000E-8	0.001672
4.990000E-8	0.001684
4.995000E-8	0.001650
5.000000E-8	0.001697
5.005000E-8	0.001778
5.010000E-8	0.001803
5.015000E-8	0.001809
5.020000E-8	0.001931
5.025000E-8	0.002153
5.030000E-8	0.002141
5.035000E-8	0.002297
5.040000E-8	0.002225
5.045000E-8	0.002225
5.050000E-8	0.002144
5.055000E-8	0.002159
5.060000E-8	0.001934
5.065000E-8	0.001841
5.070000E-8	0.001716
5.075000E-8	0.001631
5.080000E-8	0.001475
5.085000E-8	0.001394
5.090000E-8	0.001394
5.095000E-8	0.001406
5.100000E-8	0.001497
5.105000E-8	0.001616
5.110000E-8	0.001663
5.115000E-8	0.001941
5.120000E-8	0.001981
5.125000E-8	0.002175
5.130000E-8	0.002225
5.135000E-8	0.002391
5.140000E-8	0.002425
5.145000E-8	0.002484
5.150000E-8	0.002344
5.155000E-8	0.002234
5.160000E-8	0.002162
5.165000E-8	0.001931
5.170000E-8	0.001747
5.175000E-8	0.001838
5.180000E-8	0.001803
5.185000E-8	0.001959
5.190000E-8	0.001956
5.195000E-8	0.002097
5.200000E-8	0.002294
5.205000E-8	0.002572
5.210000E-8	0.002775
5.215000E-8	0.002841
5.220000E-8	0.002903
5.225000E-8	0.002853
5.230000E-8	0.002675
5.235000E-8	0.002634
5.240000E-8	0.002481
5.245000E-8	0.002188
5.250000E-8	0.001997
5.255000E-8	0.001713
5.260000E-8	0.001525
5.265000E-8	0.001478
5.270000E-8	0.001481
5.275000E-8	0.001509
5.280000E-8	0.001453
5.285000E-8	0.001534
5.290000E-8	0.001706
5.295000E-8	0.002016
5.300000E-8	0.002200
5.305000E-8	0.002403
5.310000E-8	0.002538
5.315000E-8	0.002512
5.320000E-8	0.002484
5.325000E-8	0.002459
5.330000E-8	0.002297
5.335000E-8	0.002247
5.340000E-8	0.002116
5.345000E-8	0.001875
5.350000E-8	0.001791
5.355000E-8	0.001600
5.360000E-8	0.001475
5.365000E-8	0.001400
5.370000E-8	0.001397
5.375000E-8	0.001406
5.380000E-8	0.001472
5.385000E-8	0.001694
5.390000E-8	0.001800
5.395000E-8	0.001975
5.400000E-8	0.002147
5.405000E-8	0.002269
5.410000E-8	0.002331
5.415000E-8	0.002341
5.420000E-8	0.002263
5.425000E-8	0.002313
5.430000E-8	0.002109
5.435000E-8	0.002041
5.440000E-8	0.001959
5.445000E-8	0.001853
5.450000E-8	0.001675
5.455000E-8	0.001691
5.460000E-8	0.001669
5.465000E-8	0.001725
5.470000E-8	0.001769
5.475000E-8	0.001937
5.480000E-8	0.002125
5.485000E-8	0.002256
5.490000E-8	0.002350
5.495000E-8	0.002437
5.500000E-8	0.002578
5.505000E-8	0.002391
5.510000E-8	0.002181
5.515000E-8	0.002025
5.520000E-8	0.001900
5.525000E-8	0.001888
5.530000E-8	0.001656
5.535000E-8	0.001578
5.540000E-8	0.001456
5.545000E-8	0.001475
5.550000E-8	0.001538
5.555000E-8	0.001425
5.560000E-8	0.001656
5.565000E-8	0.001806
5.570000E-8	0.001913
5.575000E-8	0.002031
5.580000E-8	0.002131
5.585000E-8	0.002125
5.590000E-8	0.002216
5.595000E-8	0.002197
5.600000E-8	0.002094
5.605000E-8	0.002159
5.610000E-8	0.002091
5.615000E-8	0.001984
5.620000E-8	0.001966
5.625000E-8	0.001922
5.630000E-8	0.001734
5.635000E-8	0.001728
5.640000E-8	0.001628
5.645000E-8	0.001497
5.650000E-8	0.001566
5.655000E-8	0.001556
5.660000E-8	0.001653
5.665000E-8	0.001834
5.670000E-8	0.001906
5.675000E-8	0.002063
5.680000E-8	0.002087
5.685000E-8	0.002288
5.690000E-8	0.002253
5.695000E-8	0.002403
5.700000E-8	0.002359
5.705000E-8	0.002366
5.710000E-8	0.002216
5.715000E-8	0.002113
5.720000E-8	0.002003
5.725000E-8	0.001972
5.730000E-8	0.001766
5.735000E-8	0.001797
5.740000E-8	0.001822
5.745000E-8	0.001944
5.750000E-8	0.001975
5.755000E-8	0.002138
5.760000E-8	0.002309
5.765000E-8	0.002434
5.770000E-8	0.002509
5.775000E-8	0.002628
5.780000E-8	0.002822
5.785000E-8	0.002875
5.790000E-8	0.002775
5.795000E-8	0.002809
5.800000E-8	0.002788
5.805000E-8	0.002691
5.810000E-8	0.002550
5.815000E-8	0.002366
5.820000E-8	0.002250
5.825000E-8	0.002269
5.830000E-8	0.002131
5.835000E-8	0.002066
5.840000E-8	0.002022
5.845000E-8	0.002131
5.850000E-8	0.002106
5.855000E-8	0.002203
5.860000E-8	0.002234
5.865000E-8	0.002272
5.870000E-8	0.002319
5.875000E-8	0.002334
5.880000E-8	0.002222
5.885000E-8	0.002219
5.890000E-8	0.002159
5.895000E-8	0.002188
5.900000E-8	0.001981
5.905000E-8	0.001953
5.910000E-8	0.001716
5.915000E-8	0.001606
5.920000E-8	0.001497
5.925000E-8	0.001563
5.930000E-8	0.001544
5.935000E-8	0.001569
5.940000E-8	0.001663
5.945000E-8	0.001906
5.950000E-8	0.001856
5.955000E-8	0.001906
5.960000E-8	0.002106
5.965000E-8	0.002084
5.970000E-8	0.002162
5.975000E-8	0.002253
5.980000E-8	0.002294
5.985000E-8	0.002284
5.990000E-8	0.002197
5.995000E-8	0.002141
6.000000E-8	0.002087
6.005000E-8	0.002172
6.010000E-8	0.002131
6.015000E-8	0.002097
6.020000E-8	0.002109
6.025000E-8	0.002166
6.030000E-8	0.002091
6.035000E-8	0.002225
6.040000E-8	0.002200
6.045000E-8	0.002228
6.050000E-8	0.002300
6.055000E-8	0.002469
6.060000E-8	0.002475
6.065000E-8	0.002416
6.070000E-8	0.002441
6.075000E-8	0.002456
6.080000E-8	0.002272
6.085000E-8	0.002253
6.090000E-8	0.002100
6.095000E-8	0.002119
6.100000E-8	0.002031
6.105000E-8	0.001950
6.110000E-8	0.001763
6.115000E-8	0.001744
6.120000E-8	0.001728
6.125000E-8	0.001756
6.130000E-8	0.001775
6.135000E-8	0.001959
6.140000E-8	0.002006
6.145000E-8	0.002172
6.150000E-8	0.002253
6.155000E-8	0.002397
6.160000E-8	0.002481
6.165000E-8	0.002434
6.170000E-8	0.002400
6.175000E-8	0.002363
6.180000E-8	0.002078
6.185000E-8	0.002119
6.190000E-8	0.001988
6.195000E-8	0.001931
6.200000E-8	0.001775
6.205000E-8	0.001713
6.210000E-8	0.001709
6.215000E-8	0.001747
6.220000E-8	0.001759
6.225000E-8	0.001903
6.230000E-8	0.001963
6.235000E-8	0.002019
6.240000E-8	0.002234
6.245000E-8	0.002353
6.250000E-8	0.002441
6.255000E-8	0.002497
6.260000E-8	0.002406
6.265000E-8	0.002481
6.270000E-8	0.002381
6.275000E-8	0.002250
6.280000E-8	0.002169
6.285000E-8	0.002106
6.290000E-8	0.001953
6.295000E-8	0.001866
6.300000E-8	0.001778
6.305000E-8	0.001728
6.310000E-8	0.001819
6.315000E-8	0.001950
6.320000E-8	0.002063
6.325000E-8	0.002162
6.330000E-8	0.002203
6.335000E-8	0.002275
6.340000E-8	0.002375
6.345000E-8	0.002534
6.350000E-8	0.002491
6.355000E-8	0.002434
6.360000E-8	0.002366
6.365000E-8	0.002350
6.370000E-8	0.002281
6.375000E-8	0.002159
6.380000E-8	0.002031
6.385000E-8	0.001994
6.390000E-8	0.001831
6.395000E-8	0.001838
6.400000E-8	0.001953
6.405000E-8	0.002056
6.410000E-8	0.002116
6.415000E-8	0.002228
6.420000E-8	0.002263
6.425000E-8	0.002347
6.430000E-8	0.002338
6.435000E-8	0.002416
6.440000E-8	0.002331
6.445000E-8	0.002347
6.450000E-8	0.002228
6.455000E-8	0.002150
6.460000E-8	0.002069
6.465000E-8	0.001966
6.470000E-8	0.001788
6.475000E-8	0.001822
6.480000E-8	0.001828
6.485000E-8	0.001722
6.490000E-8	0.001781
6.495000E-8	0.001847
6.500000E-8	0.001813
6.505000E-8	0.002047
6.510000E-8	0.002041
6.515000E-8	0.002150
6.520000E-8	0.002206
6.525000E-8	0.002237
6.530000E-8	0.002200
6.535000E-8	0.002209
6.540000E-8	0.002222
6.545000E-8	0.002234
6.550000E-8	0.002156
6.555000E-8	0.002128
6.560000E-8	0.001988
6.565000E-8	0.001903
6.570000E-8	0.001925
6.575000E-8	0.001781
6.580000E-8	0.001691
6.585000E-8	0.001716
6.590000E-8	0.001734
6.595000E-8	0.001794
6.600000E-8	0.001950
6.605000E-8	0.002016
6.610000E-8	0.002028
6.615000E-8	0.002206
6.620000E-8	0.002194
6.625000E-8	0.002231
6.630000E-8	0.002072
6.635000E-8	0.002091
6.640000E-8	0.001903
6.645000E-8	0.001903
6.650000E-8	0.001931
6.655000E-8	0.001784
6.660000E-8	0.001784
6.665000E-8	0.001794
6.670000E-8	0.001816
6.675000E-8	0.001794
6.680000E-8	0.001922
6.685000E-8	0.002069
6.690000E-8	0.002109
6.695000E-8	0.002100
6.700000E-8	0.002131
6.705000E-8	0.002225
6.710000E-8	0.002188
6.715000E-8	0.002269
6.720000E-8	0.002150
6.725000E-8	0.002097
6.730000E-8	0.001963
6.735000E-8	0.001916
6.740000E-8	0.001866
6.745000E-8	0.001766
6.750000E-8	0.001675
6.755000E-8	0.001678
6.760000E-8	0.001578
6.765000E-8	0.001647
6.770000E-8	0.001703
6.775000E-8	0.001753
6.780000E-8	0.001831
6.785000E-8	0.001894
6.790000E-8	0.001975
6.795000E-8	0.002181
6.800000E-8	0.002222
6.805000E-8	0.002391
6.810000E-8	0.002334
6.815000E-8	0.002291
6.820000E-8	0.002175
6.825000E-8	0.002178
6.830000E-8	0.002172
6.835000E-8	0.001997
6.840000E-8	0.001872
6.845000E-8	0.001687
6.850000E-8	0.001641
6.855000E-8	0.001681
6.860000E-8	0.001625
6.865000E-8	0.001744
6.870000E-8	0.001909
6.875000E-8	0.002063
6.880000E-8	0.002125
6.885000E-8	0.002284
6.890000E-8	0.002328
6.895000E-8	0.002506
6.900000E-8	0.002656
6.905000E-8	0.002725
6.910000E-8	0.002519
6.915000E-8	0.002538
6.920000E-8	0.002509
6.925000E-8	0.002391
6.930000E-8	0.002231
6.935000E-8	0.002075
6.940000E-8	0.001966
6.945000E-8	0.001953
6.950000E-8	0.001872
6.955000E-8	0.001847
6.960000E-8	0.001847
6.965000E-8	0.001894
6.970000E-8	0.002022
6.975000E-8	0.002047
6.980000E-8	0.002025
6.985000E-8	0.002081
6.990000E-8	0.002000
6.995000E-8	0.002016
7.000000E-8	0.002091
7.005000E-8	0.002078
7.010000E-8	0.001991
7.015000E-8	0.002069
7.020000E-8	0.001991
7.025000E-8	0.001900
7.030000E-8	0.001831
7.035000E-8	0.001828
7.040000E-8	0.001931
7.045000E-8	0.001981
7.050000E-8	0.001844
7.055000E-8	0.002034
7.060000E-8	0.001931
7.065000E-8	0.002016
7.070000E-8	0.001978
7.075000E-8	0.001994
7.080000E-8	0.001984
7.085000E-8	0.002025
7.090000E-8	0.001959
7.095000E-8	0.001906
7.100000E-8	0.001881
7.105000E-8	0.001941
7.110000E-8	0.001928
7.115000E-8	0.001994
7.120000E-8	0.002009
7.125000E-8	0.002056
7.130000E-8	0.002094
7.135000E-8	0.002100
7.140000E-8	0.002109
7.145000E-8	0.002206
7.150000E-8	0.002100
7.155000E-8	0.002181
7.160000E-8	0.002234
7.165000E-8	0.002331
7.170000E-8	0.002400
7.175000E-8	0.002456
7.180000E-8	0.002363
7.185000E-8	0.002469
7.190000E-8	0.002494
7.195000E-8	0.002441
7.200000E-8	0.002444
7.205000E-8	0.002406
7.210000E-8	0.002375
7.215000E-8	0.002331
7.220000E-8	0.002259
7.225000E-8	0.002284
7.230000E-8	0.002231
7.235000E-8	0.002263
7.240000E-8	0.002134
7.245000E-8	0.002200
7.250000E-8	0.002166
7.255000E-8	0.002087
7.260000E-8	0.001981
7.265000E-8	0.002087
7.270000E-8	0.002050
7.275000E-8	0.002138
7.280000E-8	0.002169
7.285000E-8	0.002309
7.290000E-8	0.002206
7.295000E-8	0.002184
7.300000E-8	0.002200
7.305000E-8	0.002231
7.310000E-8	0.002288
7.315000E-8	0.002172
7.320000E-8	0.002153
7.325000E-8	0.002084
7.330000E-8	0.002016
7.335000E-8	0.002131
7.340000E-8	0.002094
7.345000E-8	0.002094
7.350000E-8	0.002153
7.355000E-8	0.002169
7.360000E-8	0.002322
7.365000E-8	0.002391
7.370000E-8	0.002431
7.375000E-8	0.002437
7.380000E-8	0.002322
7.385000E-8	0.002288
7.390000E-8	0.002206
7.395000E-8	0.002169
7.400000E-8	0.002084
7.405000E-8	0.002016
7.410000E-8	0.001900
7.415000E-8	0.002012
7.420000E-8	0.001897
7.425000E-8	0.001941
7.430000E-8	0.001913
7.435000E-8	0.002028
7.440000E-8	0.002016
7.445000E-8	0.002028
7.450000E-8	0.002006
7.455000E-8	0.002069
7.460000E-8	0.002009
7.465000E-8	0.002119
7.470000E-8	0.002162
7.475000E-8	0.002250
7.480000E-8	0.002253
7.485000E-8	0.002375
7.490000E-8	0.002506
7.495000E-8	0.002603
7.500000E-8	0.002613
7.505000E-8	0.002619
7.510000E-8	0.002531
7.515000E-8	0.002512
7.520000E-8	0.002441
7.525000E-8	0.002447
7.530000E-8	0.002463
7.535000E-8	0.002381
7.540000E-8	0.002306
7.545000E-8	0.002350
7.550000E-8	0.002391
7.555000E-8	0.002344
7.560000E-8	0.002175
7.565000E-8	0.002066
7.570000E-8	0.002016
7.575000E-8	0.002034
7.580000E-8	0.001841
7.585000E-8	0.001822
7.590000E-8	0.001853
7.595000E-8	0.001794
7.600000E-8	0.001644
7.605000E-8	0.001703
7.610000E-8	0.001725
7.615000E-8	0.001794
7.620000E-8	0.001806
7.625000E-8	0.001875
7.630000E-8	0.001928
7.635000E-8	0.001981
7.640000E-8	0.001972
7.645000E-8	0.001950
7.650000E-8	0.002012
7.655000E-8	0.002069
7.660000E-8	0.001941
7.665000E-8	0.002066
7.670000E-8	0.002125
7.675000E-8	0.002047
7.680000E-8	0.001919
7.685000E-8	0.001972
7.690000E-8	0.001906
7.695000E-8	0.001888
7.700000E-8	0.001759
7.705000E-8	0.001769
7.710000E-8	0.001672
7.715000E-8	0.001694
7.720000E-8	0.001653
7.725000E-8	0.001819
7.730000E-8	0.001869
7.735000E-8	0.001834
7.740000E-8	0.001925
7.745000E-8	0.001975
7.750000E-8	0.001978
7.755000E-8	0.002000
7.760000E-8	0.001984
7.765000E-8	0.002038
7.770000E-8	0.001925
7.775000E-8	0.001991
7.780000E-8	0.002009
7.785000E-8	0.002106
7.790000E-8	0.002097
7.795000E-8	0.002156
7.800000E-8	0.002100
7.805000E-8	0.002116
7.810000E-8	0.002053
7.815000E-8	0.002097
7.820000E-8	0.002169
7.825000E-8	0.002203
7.830000E-8	0.002047
7.835000E-8	0.002225
7.840000E-8	0.002275
7.845000E-8	0.002294
7.850000E-8	0.002297
7.855000E-8	0.002334
7.860000E-8	0.002309
7.865000E-8	0.002341
7.870000E-8	0.002288
7.875000E-8	0.002213
7.880000E-8	0.002097
7.885000E-8	0.001953
7.890000E-8	0.002003
7.895000E-8	0.001978
7.900000E-8	0.001969
7.905000E-8	0.002028
7.910000E-8	0.002237
7.915000E-8	0.002291
7.920000E-8	0.002184
7.925000E-8	0.002363
7.930000E-8	0.002338
7.935000E-8	0.002328
7.940000E-8	0.002237
7.945000E-8	0.002206
7.950000E-8	0.002138
7.955000E-8	0.002116
7.960000E-8	0.002019
7.965000E-8	0.002003
7.970000E-8	0.002003
7.975000E-8	0.001881
7.980000E-8	0.001834
7.985000E-8	0.001944
7.990000E-8	0.001828
7.995000E-8	0.001738
8.000000E-8	0.001697
8.005000E-8	0.001672
8.010000E-8	0.001681
8.015000E-8	0.001716
8.020000E-8	0.001819
8.025000E-8	0.001978
8.030000E-8	0.002072
8.035000E-8	0.002178
8.040000E-8	0.002281
8.045000E-8	0.002413
8.050000E-8	0.002369
8.055000E-8	0.002400
8.060000E-8	0.002291
8.065000E-8	0.002188
8.070000E-8	0.002103
8.075000E-8	0.001984
8.080000E-8	0.001937
8.085000E-8	0.001972
8.090000E-8	0.001806
8.095000E-8	0.001853
8.100000E-8	0.001934
8.105000E-8	0.002016
8.110000E-8	0.002159
8.115000E-8	0.002213
8.120000E-8	0.002169
8.125000E-8	0.002241
8.130000E-8	0.002200
8.135000E-8	0.002256
8.140000E-8	0.002194
8.145000E-8	0.002094
8.150000E-8	0.001975
8.155000E-8	0.001831
8.160000E-8	0.001725
8.165000E-8	0.001681
8.170000E-8	0.001584
8.175000E-8	0.001672
8.180000E-8	0.001713
8.185000E-8	0.001788
8.190000E-8	0.001891
8.195000E-8	0.001878
8.200000E-8	0.001928
8.205000E-8	0.002138
8.210000E-8	0.002138
8.215000E-8	0.002159
8.220000E-8	0.002116
8.225000E-8	0.002147
8.230000E-8	0.002047
8.235000E-8	0.002169
8.240000E-8	0.002009
8.245000E-8	0.001941
8.250000E-8	0.001791
8.255000E-8	0.001884
8.260000E-8	0.001822
8.265000E-8	0.001816
8.270000E-8	0.001841
8.275000E-8	0.001803
8.280000E-8	0.001781
8.285000E-8	0.001931
8.290000E-8	0.001888
8.295000E-8	0.002084
8.300000E-8	0.002056
8.305000E-8	0.002156
8.310000E-8	0.002153
8.315000E-8	0.002228
8.320000E-8	0.002259
8.325000E-8	0.002331
8.330000E-8	0.002319
8.335000E-8	0.002456
8.340000E-8	0.002297
8.345000E-8	0.002294
8.350000E-8	0.002144
8.355000E-8	0.002269
8.360000E-8	0.002150
8.365000E-8	0.002175
8.370000E-8	0.002131
8.375000E-8	0.002175
8.380000E-8	0.002103
8.385000E-8	0.002103
8.390000E-8	0.002225
8.395000E-8	0.002444
8.400000E-8	0.002597
8.405000E-8	0.002734
8.410000E-8	0.002584
8.415000E-8	0.002566
8.420000E-8	0.002444
8.425000E-8	0.002444
8.430000E-8	0.002353
8.435000E-8	0.002209
8.440000E-8	0.002106
8.445000E-8	0.001984
8.450000E-8	0.001953
8.455000E-8	0.001922
8.460000E-8	0.001978
8.465000E-8	0.002109
8.470000E-8	0.002084
8.475000E-8	0.002175
8.480000E-8	0.002222
8.485000E-8	0.002331
8.490000E-8	0.002338
8.495000E-8	0.002441
8.500000E-8	0.002428
8.505000E-8	0.002478
8.510000E-8	0.002388
8.515000E-8	0.002356
8.520000E-8	0.002319
8.525000E-8	0.002297
8.530000E-8	0.002147
8.535000E-8	0.002106
8.540000E-8	0.001944
8.545000E-8	0.001919
8.550000E-8	0.001888
8.555000E-8	0.001931
8.560000E-8	0.001897
8.565000E-8	0.001975
8.570000E-8	0.002044
8.575000E-8	0.002028
8.580000E-8	0.002078
8.585000E-8	0.002075
8.590000E-8	0.002113
8.595000E-8	0.002184
8.600000E-8	0.002162
8.605000E-8	0.002263
8.610000E-8	0.002309
8.615000E-8	0.002250
8.620000E-8	0.002131
8.625000E-8	0.002109
8.630000E-8	0.002150
8.635000E-8	0.002237
8.640000E-8	0.002087
8.645000E-8	0.002200
8.650000E-8	0.002162
8.655000E-8	0.002222
8.660000E-8	0.002197
8.665000E-8	0.002269
8.670000E-8	0.002175
8.675000E-8	0.002322
8.680000E-8	0.002381
8.685000E-8	0.002334
8.690000E-8	0.002284
8.695000E-8	0.002253
8.700000E-8	0.002138
8.705000E-8	0.002103
8.710000E-8	0.001925
8.715000E-8	0.001953
8.720000E-8	0.001788
8.725000E-8	0.001691
8.730000E-8	0.001769
8.735000E-8	0.001759
8.740000E-8	0.001747
8.745000E-8	0.001778
8.750000E-8	0.001650
8.755000E-8	0.001806
8.760000E-8	0.001844
8.765000E-8	0.001944
8.770000E-8	0.001881
8.775000E-8	0.001859
8.780000E-8	0.001772
8.785000E-8	0.001866
8.790000E-8	0.001963
8.795000E-8	0.001888
8.800000E-8	0.002003
8.805000E-8	0.002041
8.810000E-8	0.002041
8.815000E-8	0.002041
8.820000E-8	0.002019
8.825000E-8	0.002103
8.830000E-8	0.001997
8.835000E-8	0.002103
8.840000E-8	0.002153
8.845000E-8	0.002166
8.850000E-8	0.002091
8.855000E-8	0.002100
8.860000E-8	0.002138
8.865000E-8	0.002206
8.870000E-8	0.002109
8.875000E-8	0.002166
8.880000E-8	0.002122
8.885000E-8	0.002072
8.890000E-8	0.002144
8.895000E-8	0.002184
8.900000E-8	0.002206
8.905000E-8	0.002269
8.910000E-8	0.002225
8.915000E-8	0.002259
8.920000E-8	0.002234
8.925000E-8	0.002219
8.930000E-8	0.002125
8.935000E-8	0.002144
8.940000E-8	0.002006
8.945000E-8	0.001838
8.950000E-8	0.001775
8.955000E-8	0.001784
8.960000E-8	0.001866
8.965000E-8	0.001947
8.970000E-8	0.001919
8.975000E-8	0.002038
8.980000E-8	0.001975
8.985000E-8	0.002019
8.990000E-8	0.002056
8.995000E-8	0.001991
9.000000E-8	0.002063
9.005000E-8	0.001984
9.010000E-8	0.002000
9.015000E-8	0.002031
9.020000E-8	0.001997
9.025000E-8	0.002069
9.030000E-8	0.002028
9.035000E-8	0.002150
9.040000E-8	0.002109
9.045000E-8	0.002122
9.050000E-8	0.002188
9.055000E-8	0.002144
9.060000E-8	0.002025
9.065000E-8	0.002012
9.070000E-8	0.002100
9.075000E-8	0.002206
9.080000E-8	0.002122
9.085000E-8	0.002134
9.090000E-8	0.002019
9.095000E-8	0.001922
9.100000E-8	0.001925
9.105000E-8	0.002006
9.110000E-8	0.002056
9.115000E-8	0.002003
9.120000E-8	0.001916
9.125000E-8	0.001869
9.130000E-8	0.001969
9.135000E-8	0.001975
9.140000E-8	0.001947
9.145000E-8	0.002094
9.150000E-8	0.002169
9.155000E-8	0.002078
9.160000E-8	0.002063
9.165000E-8	0.002134
9.170000E-8	0.002241
9.175000E-8	0.002181
9.180000E-8	0.002153
9.185000E-8	0.002081
9.190000E-8	0.002047
9.195000E-8	0.002034
9.200000E-8	0.002009
9.205000E-8	0.002053
9.210000E-8	0.002047
9.215000E-8	0.002000
9.220000E-8	0.002084
9.225000E-8	0.002006
9.230000E-8	0.002000
9.235000E-8	0.002078
9.240000E-8	0.002038
9.245000E-8	0.002138
9.250000E-8	0.002241
9.255000E-8	0.002144
9.260000E-8	0.002162
9.265000E-8	0.002237
9.270000E-8	0.002213
9.275000E-8	0.002194
9.280000E-8	0.002087
9.285000E-8	0.001975
9.290000E-8	0.001950
9.295000E-8	0.002006
9.300000E-8	0.002038
9.305000E-8	0.002078
9.310000E-8	0.002169
9.315000E-8	0.002153
9.320000E-8	0.002200
9.325000E-8	0.002162
9.330000E-8	0.002259
9.335000E-8	0.002228
9.340000E-8	0.002106
9.345000E-8	0.002138
9.350000E-8	0.001991
9.355000E-8	0.001953
9.360000E-8	0.001878
9.365000E-8	0.001822
9.370000E-8	0.001747
9.375000E-8	0.001797
9.380000E-8	0.001788
9.385000E-8	0.001859
9.390000E-8	0.001753
9.395000E-8	0.001866
9.400000E-8	0.001900
9.405000E-8	0.001956
9.410000E-8	0.002081
9.415000E-8	0.002106
9.420000E-8	0.002091
9.425000E-8	0.002153
9.430000E-8	0.002031
9.435000E-8	0.002053
9.440000E-8	0.001919
9.445000E-8	0.001959
9.450000E-8	0.002012
9.455000E-8	0.001941
9.460000E-8	0.001959
9.465000E-8	0.002022
9.470000E-8	0.002047
9.475000E-8	0.002084
9.480000E-8	0.002084
9.485000E-8	0.002131
9.490000E-8	0.002141
9.495000E-8	0.002169
9.500000E-8	0.002197
9.505000E-8	0.002291
9.510000E-8	0.002175
9.515000E-8	0.002150
9.520000E-8	0.002231
9.525000E-8	0.002247
9.530000E-8	0.002091
9.535000E-8	0.002119
9.540000E-8	0.002109
9.545000E-8	0.002184
9.550000E-8	0.002078
9.555000E-8	0.002038
9.560000E-8	0.001963
9.565000E-8	0.001900
9.570000E-8	0.001922
9.575000E-8	0.001947
9.580000E-8	0.001925
9.585000E-8	0.002053
9.590000E-8	0.002053
9.595000E-8	0.002069
9.600000E-8	0.002031
9.605000E-8	0.002188
9.610000E-8	0.002284
9.615000E-8	0.002188
9.620000E-8	0.002231
9.625000E-8	0.002366
9.630000E-8	0.002384
9.635000E-8	0.002378
9.640000E-8	0.002425
9.645000E-8	0.002531
9.650000E-8	0.002456
9.655000E-8	0.002288
9.660000E-8	0.002334
9.665000E-8	0.002184
9.670000E-8	0.002138
9.675000E-8	0.002178
9.680000E-8	0.002025
9.685000E-8	0.002038
9.690000E-8	0.001997
9.695000E-8	0.001941
9.700000E-8	0.001966
9.705000E-8	0.002097
9.710000E-8	0.002063
9.715000E-8	0.002050
9.720000E-8	0.001959
9.725000E-8	0.001897
9.730000E-8	0.001756
9.735000E-8	0.001703
9.740000E-8	0.001672
9.745000E-8	0.001684
9.750000E-8	0.001484
9.755000E-8	0.001509
9.760000E-8	0.001509
9.765000E-8	0.001516
9.770000E-8	0.001728
9.775000E-8	0.001825
9.780000E-8	0.001906
9.785000E-8	0.002119
9.790000E-8	0.002216
9.795000E-8	0.002322
9.800000E-8	0.002209
9.805000E-8	0.002338
9.810000E-8	0.002219
9.815000E-8	0.002122
9.820000E-8	0.001984
9.825000E-8	0.001850
9.830000E-8	0.001747
9.835000E-8	0.001809
9.840000E-8	0.001666
9.845000E-8	0.001759
9.850000E-8	0.001775
9.855000E-8	0.001756
9.860000E-8	0.001756
9.865000E-8	0.001941
9.870000E-8	0.001963
9.875000E-8	0.001978
9.880000E-8	0.001900
9.885000E-8	0.001934
9.890000E-8	0.002047
9.895000E-8	0.001956
9.900000E-8	0.001881
9.905000E-8	0.001869
9.910000E-8	0.001903
9.915000E-8	0.001984
9.920000E-8	0.001853
9.925000E-8	0.001788
9.930000E-8	0.001937
9.935000E-8	0.001859
9.940000E-8	0.001844
9.945000E-8	0.001909
9.950000E-8	0.001822
9.955000E-8	0.001778
9.960000E-8	0.001703
9.965000E-8	0.001744
9.970000E-8	0.001631
9.975000E-8	0.001809
9.980000E-8	0.001872
9.985000E-8	0.001928
9.990000E-8	0.002009
9.995000E-8	0.002147
