LabVIEW Measurement	
Writer_Version	2
Reader_Version	2
Separator	Tab
Decimal_Separator	.
Multi_Headings	No
X_Columns	Multi
Time_Pref	Relative
Operator	TG lab
Date	2015/03/07
Time	11:19:13.3231668472290039062
***End_of_Header***	
	
Channels	1	
Samples	2000	
Date	2015/03/07	
Time	11:19:13.3231668472290039062	
X_Dimension	Time	
X0	0.0000000000000000E+0	
Delta_X	5.000000E-11	
***End_of_Header***		
X_Value	Untitled	Comment
0.000000	0.001273
5.000000E-11	0.001283
1.000000E-10	0.001331
1.500000E-10	0.001347
2.000000E-10	0.001373
2.500000E-10	0.001388
3.000000E-10	0.001394
3.500000E-10	0.001464
4.000000E-10	0.001416
4.500000E-10	0.001447
5.000000E-10	0.001420
5.500000E-10	0.001514
6.000000E-10	0.001452
6.500000E-10	0.001413
7.000000E-10	0.001433
7.500000E-10	0.001386
8.000000E-10	0.001367
8.500000E-10	0.001320
9.000000E-10	0.001328
9.500000E-10	0.001347
1.000000E-9	0.001331
1.050000E-9	0.001350
1.100000E-9	0.001370
1.150000E-9	0.001344
1.200000E-9	0.001389
1.250000E-9	0.001389
1.300000E-9	0.001347
1.350000E-9	0.001431
1.400000E-9	0.001489
1.450000E-9	0.001573
1.500000E-9	0.001642
1.550000E-9	0.001625
1.600000E-9	0.001652
1.650000E-9	0.001678
1.700000E-9	0.001634
1.750000E-9	0.001628
1.800000E-9	0.001636
1.850000E-9	0.001695
1.900000E-9	0.001711
1.950000E-9	0.001717
2.000000E-9	0.001708
2.050000E-9	0.001795
2.100000E-9	0.001802
2.150000E-9	0.001855
2.200000E-9	0.001908
2.250000E-9	0.001984
2.300000E-9	0.001972
2.350000E-9	0.001980
2.400000E-9	0.002039
2.450000E-9	0.002038
2.500000E-9	0.002031
2.550000E-9	0.002053
2.600000E-9	0.002058
2.650000E-9	0.002100
2.700000E-9	0.002081
2.750000E-9	0.002113
2.800000E-9	0.002139
2.850000E-9	0.002123
2.900000E-9	0.002227
2.950000E-9	0.002237
3.000000E-9	0.002202
3.050000E-9	0.002269
3.100000E-9	0.002283
3.150000E-9	0.002280
3.200000E-9	0.002225
3.250000E-9	0.002194
3.300000E-9	0.002194
3.350000E-9	0.002177
3.400000E-9	0.002089
3.450000E-9	0.002092
3.500000E-9	0.002041
3.550000E-9	0.002061
3.600000E-9	0.002042
3.650000E-9	0.001997
3.700000E-9	0.002008
3.750000E-9	0.002152
3.800000E-9	0.002172
3.850000E-9	0.002275
3.900000E-9	0.002372
3.950000E-9	0.002511
4.000000E-9	0.002631
4.050000E-9	0.002844
4.100000E-9	0.002963
4.150000E-9	0.003069
4.200000E-9	0.003267
4.250000E-9	0.003506
4.300000E-9	0.003720
4.350000E-9	0.004009
4.400000E-9	0.004339
4.450000E-9	0.004727
4.500000E-9	0.005081
4.550000E-9	0.005548
4.600000E-9	0.006117
4.650000E-9	0.006673
4.700000E-9	0.007284
4.750000E-9	0.007981
4.800000E-9	0.008788
4.850000E-9	0.009514
4.900000E-9	0.010389
4.950000E-9	0.011378
5.000000E-9	0.012205
5.050000E-9	0.013242
5.100000E-9	0.014172
5.150000E-9	0.015078
5.200000E-9	0.016014
5.250000E-9	0.016955
5.300000E-9	0.017677
5.350000E-9	0.018256
5.400000E-9	0.018687
5.450000E-9	0.018894
5.500000E-9	0.018825
5.550000E-9	0.018544
5.600000E-9	0.018027
5.650000E-9	0.017306
5.700000E-9	0.016408
5.750000E-9	0.015433
5.800000E-9	0.014416
5.850000E-9	0.013327
5.900000E-9	0.012425
5.950000E-9	0.011638
6.000000E-9	0.010986
6.050000E-9	0.010559
6.100000E-9	0.010309
6.150000E-9	0.010294
6.200000E-9	0.010447
6.250000E-9	0.010703
6.300000E-9	0.011044
6.350000E-9	0.011336
6.400000E-9	0.011570
6.450000E-9	0.011713
6.500000E-9	0.011588
6.550000E-9	0.011327
6.600000E-9	0.010820
6.650000E-9	0.010206
6.700000E-9	0.009422
6.750000E-9	0.008516
6.800000E-9	0.007658
6.850000E-9	0.006955
6.900000E-9	0.006283
6.950000E-9	0.005844
7.000000E-9	0.005670
7.050000E-9	0.005705
7.100000E-9	0.006045
7.150000E-9	0.006402
7.200000E-9	0.006870
7.250000E-9	0.007398
7.300000E-9	0.007859
7.350000E-9	0.008173
7.400000E-9	0.008283
7.450000E-9	0.008300
7.500000E-9	0.007973
7.550000E-9	0.007583
7.600000E-9	0.006975
7.650000E-9	0.006409
7.700000E-9	0.005614
7.750000E-9	0.005003
7.800000E-9	0.004466
7.850000E-9	0.004061
7.900000E-9	0.003816
7.950000E-9	0.003711
8.000000E-9	0.003863
8.050000E-9	0.004061
8.100000E-9	0.004419
8.150000E-9	0.004884
8.200000E-9	0.005328
8.250000E-9	0.005828
8.300000E-9	0.006088
8.350000E-9	0.006250
8.400000E-9	0.006177
8.450000E-9	0.005950
8.500000E-9	0.005577
8.550000E-9	0.004991
8.600000E-9	0.004278
8.650000E-9	0.003583
8.700000E-9	0.003005
8.750000E-9	0.002461
8.800000E-9	0.002027
8.850000E-9	0.001845
8.900000E-9	0.001825
8.950000E-9	0.002053
9.000000E-9	0.002377
9.050000E-9	0.002945
9.100000E-9	0.003455
9.150000E-9	0.004105
9.200000E-9	0.004588
9.250000E-9	0.004950
9.300000E-9	0.005109
9.350000E-9	0.005141
9.400000E-9	0.004950
9.450000E-9	0.004608
9.500000E-9	0.003991
9.550000E-9	0.003383
9.600000E-9	0.002683
9.650000E-9	0.002019
9.700000E-9	0.001455
9.750000E-9	0.001073
9.800000E-9	0.000908
9.850000E-9	0.000983
9.900000E-9	0.001214
9.950000E-9	0.001638
1.000000E-8	0.002195
1.005000E-8	0.002831
1.010000E-8	0.003388
1.015000E-8	0.003992
1.020000E-8	0.004308
1.025000E-8	0.004480
1.030000E-8	0.004502
1.035000E-8	0.004236
1.040000E-8	0.003880
1.045000E-8	0.003295
1.050000E-8	0.002647
1.055000E-8	0.002023
1.060000E-8	0.001472
1.065000E-8	0.001083
1.070000E-8	0.000811
1.075000E-8	0.000848
1.080000E-8	0.001011
1.085000E-8	0.001419
1.090000E-8	0.002033
1.095000E-8	0.002641
1.100000E-8	0.003209
1.105000E-8	0.003813
1.110000E-8	0.004241
1.115000E-8	0.004517
1.120000E-8	0.004537
1.125000E-8	0.004387
1.130000E-8	0.004000
1.135000E-8	0.003534
1.140000E-8	0.002944
1.145000E-8	0.002273
1.150000E-8	0.001714
1.155000E-8	0.001227
1.160000E-8	0.000823
1.165000E-8	0.000598
1.170000E-8	0.000575
1.175000E-8	0.000717
1.180000E-8	0.001047
1.185000E-8	0.001539
1.190000E-8	0.002044
1.195000E-8	0.002577
1.200000E-8	0.003097
1.205000E-8	0.003502
1.210000E-8	0.003620
1.215000E-8	0.003627
1.220000E-8	0.003463
1.225000E-8	0.003077
1.230000E-8	0.002634
1.235000E-8	0.002050
1.240000E-8	0.001455
1.245000E-8	0.000902
1.250000E-8	0.000394
1.255000E-8	0.000175
1.260000E-8	0.000111
1.265000E-8	0.000259
1.270000E-8	0.000520
1.275000E-8	0.000934
1.280000E-8	0.001472
1.285000E-8	0.002034
1.290000E-8	0.002575
1.295000E-8	0.003058
1.300000E-8	0.003438
1.305000E-8	0.003616
1.310000E-8	0.003650
1.315000E-8	0.003427
1.320000E-8	0.003092
1.325000E-8	0.002589
1.330000E-8	0.002094
1.335000E-8	0.001625
1.340000E-8	0.001145
1.345000E-8	0.000767
1.350000E-8	0.000577
1.355000E-8	0.000503
1.360000E-8	0.000575
1.365000E-8	0.000863
1.370000E-8	0.001269
1.375000E-8	0.001706
1.380000E-8	0.002234
1.385000E-8	0.002741
1.390000E-8	0.003153
1.395000E-8	0.003483
1.400000E-8	0.003664
1.405000E-8	0.003598
1.410000E-8	0.003308
1.415000E-8	0.002969
1.420000E-8	0.002473
1.425000E-8	0.001928
1.430000E-8	0.001369
1.435000E-8	0.000942
1.440000E-8	0.000486
1.445000E-8	0.000367
1.450000E-8	0.000339
1.455000E-8	0.000513
1.460000E-8	0.000864
1.465000E-8	0.001278
1.470000E-8	0.001728
1.475000E-8	0.002266
1.480000E-8	0.002631
1.485000E-8	0.002947
1.490000E-8	0.003072
1.495000E-8	0.003145
1.500000E-8	0.002977
1.505000E-8	0.002658
1.510000E-8	0.002308
1.515000E-8	0.001917
1.520000E-8	0.001431
1.525000E-8	0.000941
1.530000E-8	0.000622
1.535000E-8	0.000372
1.540000E-8	0.000228
1.545000E-8	0.000317
1.550000E-8	0.000392
1.555000E-8	0.000669
1.560000E-8	0.001039
1.565000E-8	0.001402
1.570000E-8	0.001808
1.575000E-8	0.002256
1.580000E-8	0.002494
1.585000E-8	0.002695
1.590000E-8	0.002725
1.595000E-8	0.002608
1.600000E-8	0.002416
1.605000E-8	0.002050
1.610000E-8	0.001739
1.615000E-8	0.001309
1.620000E-8	0.000908
1.625000E-8	0.000661
1.630000E-8	0.000495
1.635000E-8	0.000467
1.640000E-8	0.000573
1.645000E-8	0.000794
1.650000E-8	0.001155
1.655000E-8	0.001636
1.660000E-8	0.002111
1.665000E-8	0.002577
1.670000E-8	0.002873
1.675000E-8	0.003103
1.680000E-8	0.003127
1.685000E-8	0.003188
1.690000E-8	0.002880
1.695000E-8	0.002503
1.700000E-8	0.002123
1.705000E-8	0.001656
1.710000E-8	0.001094
1.715000E-8	0.000695
1.720000E-8	0.000411
1.725000E-8	0.000178
1.730000E-8	0.000150
1.735000E-8	0.000319
1.740000E-8	0.000567
1.745000E-8	0.000966
1.750000E-8	0.001375
1.755000E-8	0.001858
1.760000E-8	0.002273
1.765000E-8	0.002606
1.770000E-8	0.002823
1.775000E-8	0.002891
1.780000E-8	0.002783
1.785000E-8	0.002542
1.790000E-8	0.002213
1.795000E-8	0.001805
1.800000E-8	0.001309
1.805000E-8	0.000939
1.810000E-8	0.000567
1.815000E-8	0.000342
1.820000E-8	0.000163
1.825000E-8	0.000284
1.830000E-8	0.000466
1.835000E-8	0.000758
1.840000E-8	0.001148
1.845000E-8	0.001634
1.850000E-8	0.002020
1.855000E-8	0.002478
1.860000E-8	0.002736
1.865000E-8	0.002945
1.870000E-8	0.002942
1.875000E-8	0.002797
1.880000E-8	0.002481
1.885000E-8	0.002084
1.890000E-8	0.001623
1.895000E-8	0.001159
1.900000E-8	0.000683
1.905000E-8	0.000305
1.910000E-8	0.000122
1.915000E-8	0.000108
1.920000E-8	0.000222
1.925000E-8	0.000428
1.930000E-8	0.000814
1.935000E-8	0.001264
1.940000E-8	0.001711
1.945000E-8	0.002139
1.950000E-8	0.002489
1.955000E-8	0.002784
1.960000E-8	0.002864
1.965000E-8	0.002873
1.970000E-8	0.002747
1.975000E-8	0.002511
1.980000E-8	0.002127
1.985000E-8	0.001792
1.990000E-8	0.001353
1.995000E-8	0.001036
2.000000E-8	0.000703
2.005000E-8	0.000483
2.010000E-8	0.000391
2.015000E-8	0.000486
2.020000E-8	0.000653
2.025000E-8	0.000877
2.030000E-8	0.001248
2.035000E-8	0.001630
2.040000E-8	0.001997
2.045000E-8	0.002289
2.050000E-8	0.002492
2.055000E-8	0.002650
2.060000E-8	0.002578
2.065000E-8	0.002358
2.070000E-8	0.002119
2.075000E-8	0.001725
2.080000E-8	0.001317
2.085000E-8	0.000944
2.090000E-8	0.000589
2.095000E-8	0.000447
2.100000E-8	0.000338
2.105000E-8	0.000381
2.110000E-8	0.000517
2.115000E-8	0.000806
2.120000E-8	0.001122
2.125000E-8	0.001567
2.130000E-8	0.001964
2.135000E-8	0.002347
2.140000E-8	0.002684
2.145000E-8	0.002850
2.150000E-8	0.002967
2.155000E-8	0.002866
2.160000E-8	0.002648
2.165000E-8	0.002367
2.170000E-8	0.001950
2.175000E-8	0.001516
2.180000E-8	0.001144
2.185000E-8	0.000855
2.190000E-8	0.000589
2.195000E-8	0.000481
2.200000E-8	0.000481
2.205000E-8	0.000708
2.210000E-8	0.000870
2.215000E-8	0.001309
2.220000E-8	0.001659
2.225000E-8	0.002030
2.230000E-8	0.002342
2.235000E-8	0.002564
2.240000E-8	0.002619
2.245000E-8	0.002578
2.250000E-8	0.002478
2.255000E-8	0.002248
2.260000E-8	0.001814
2.265000E-8	0.001503
2.270000E-8	0.001133
2.275000E-8	0.000786
2.280000E-8	0.000578
2.285000E-8	0.000381
2.290000E-8	0.000397
2.295000E-8	0.000494
2.300000E-8	0.000717
2.305000E-8	0.001008
2.310000E-8	0.001320
2.315000E-8	0.001655
2.320000E-8	0.001948
2.325000E-8	0.002177
2.330000E-8	0.002313
2.335000E-8	0.002363
2.340000E-8	0.002364
2.345000E-8	0.002216
2.350000E-8	0.002008
2.355000E-8	0.001678
2.360000E-8	0.001319
2.365000E-8	0.001053
2.370000E-8	0.000756
2.375000E-8	0.000544
2.380000E-8	0.000456
2.385000E-8	0.000486
2.390000E-8	0.000528
2.395000E-8	0.000798
2.400000E-8	0.001133
2.405000E-8	0.001388
2.410000E-8	0.001739
2.415000E-8	0.002086
2.420000E-8	0.002369
2.425000E-8	0.002517
2.430000E-8	0.002558
2.435000E-8	0.002544
2.440000E-8	0.002317
2.445000E-8	0.002036
2.450000E-8	0.001716
2.455000E-8	0.001461
2.460000E-8	0.001052
2.465000E-8	0.000797
2.470000E-8	0.000619
2.475000E-8	0.000536
2.480000E-8	0.000539
2.485000E-8	0.000739
2.490000E-8	0.000931
2.495000E-8	0.001242
2.500000E-8	0.001503
2.505000E-8	0.001861
2.510000E-8	0.002125
2.515000E-8	0.002353
2.520000E-8	0.002483
2.525000E-8	0.002542
2.530000E-8	0.002395
2.535000E-8	0.002225
2.540000E-8	0.002000
2.545000E-8	0.001755
2.550000E-8	0.001448
2.555000E-8	0.001263
2.560000E-8	0.001067
2.565000E-8	0.000973
2.570000E-8	0.000972
2.575000E-8	0.001061
2.580000E-8	0.001172
2.585000E-8	0.001380
2.590000E-8	0.001566
2.595000E-8	0.001830
2.600000E-8	0.002027
2.605000E-8	0.002183
2.610000E-8	0.002263
2.615000E-8	0.002334
2.620000E-8	0.002252
2.625000E-8	0.002134
2.630000E-8	0.001923
2.635000E-8	0.001667
2.640000E-8	0.001469
2.645000E-8	0.001173
2.650000E-8	0.000934
2.655000E-8	0.000747
2.660000E-8	0.000688
2.665000E-8	0.000652
2.670000E-8	0.000745
2.675000E-8	0.000922
2.680000E-8	0.001125
2.685000E-8	0.001386
2.690000E-8	0.001650
2.695000E-8	0.001878
2.700000E-8	0.002025
2.705000E-8	0.002170
2.710000E-8	0.002189
2.715000E-8	0.002131
2.720000E-8	0.002031
2.725000E-8	0.001908
2.730000E-8	0.001703
2.735000E-8	0.001556
2.740000E-8	0.001352
2.745000E-8	0.001183
2.750000E-8	0.001081
2.755000E-8	0.001002
2.760000E-8	0.001094
2.765000E-8	0.001172
2.770000E-8	0.001317
2.775000E-8	0.001491
2.780000E-8	0.001705
2.785000E-8	0.001948
2.790000E-8	0.002114
2.795000E-8	0.002189
2.800000E-8	0.002320
2.805000E-8	0.002292
2.810000E-8	0.002264
2.815000E-8	0.002069
2.820000E-8	0.001778
2.825000E-8	0.001533
2.830000E-8	0.001220
2.835000E-8	0.001006
2.840000E-8	0.000919
2.845000E-8	0.000755
2.850000E-8	0.000775
2.855000E-8	0.000834
2.860000E-8	0.000952
2.865000E-8	0.001206
2.870000E-8	0.001503
2.875000E-8	0.001741
2.880000E-8	0.001970
2.885000E-8	0.002162
2.890000E-8	0.002297
2.895000E-8	0.002406
2.900000E-8	0.002380
2.905000E-8	0.002259
2.910000E-8	0.002044
2.915000E-8	0.001836
2.920000E-8	0.001583
2.925000E-8	0.001355
2.930000E-8	0.001173
2.935000E-8	0.000972
2.940000E-8	0.000898
2.945000E-8	0.000939
2.950000E-8	0.001009
2.955000E-8	0.001102
2.960000E-8	0.001330
2.965000E-8	0.001563
2.970000E-8	0.001764
2.975000E-8	0.001975
2.980000E-8	0.002091
2.985000E-8	0.002208
2.990000E-8	0.002214
2.995000E-8	0.002144
3.000000E-8	0.002031
3.005000E-8	0.001911
3.010000E-8	0.001628
3.015000E-8	0.001428
3.020000E-8	0.001155
3.025000E-8	0.000986
3.030000E-8	0.000792
3.035000E-8	0.000661
3.040000E-8	0.000617
3.045000E-8	0.000642
3.050000E-8	0.000819
3.055000E-8	0.001023
3.060000E-8	0.001200
3.065000E-8	0.001503
3.070000E-8	0.001678
3.075000E-8	0.001839
3.080000E-8	0.001956
3.085000E-8	0.001984
3.090000E-8	0.001969
3.095000E-8	0.001923
3.100000E-8	0.001780
3.105000E-8	0.001709
3.110000E-8	0.001591
3.115000E-8	0.001422
3.120000E-8	0.001305
3.125000E-8	0.001228
3.130000E-8	0.001244
3.135000E-8	0.001331
3.140000E-8	0.001395
3.145000E-8	0.001566
3.150000E-8	0.001673
3.155000E-8	0.001784
3.160000E-8	0.001933
3.165000E-8	0.002027
3.170000E-8	0.002033
3.175000E-8	0.002036
3.180000E-8	0.001952
3.185000E-8	0.001877
3.190000E-8	0.001730
3.195000E-8	0.001500
3.200000E-8	0.001303
3.205000E-8	0.001091
3.210000E-8	0.000953
3.215000E-8	0.000847
3.220000E-8	0.000775
3.225000E-8	0.000795
3.230000E-8	0.000888
3.235000E-8	0.000991
3.240000E-8	0.001173
3.245000E-8	0.001384
3.250000E-8	0.001620
3.255000E-8	0.001819
3.260000E-8	0.001953
3.265000E-8	0.002080
3.270000E-8	0.002119
3.275000E-8	0.002080
3.280000E-8	0.001950
3.285000E-8	0.001864
3.290000E-8	0.001706
3.295000E-8	0.001513
3.300000E-8	0.001238
3.305000E-8	0.001123
3.310000E-8	0.000933
3.315000E-8	0.000850
3.320000E-8	0.000784
3.325000E-8	0.000800
3.330000E-8	0.000917
3.335000E-8	0.001109
3.340000E-8	0.001297
3.345000E-8	0.001545
3.350000E-8	0.001672
3.355000E-8	0.001858
3.360000E-8	0.001906
3.365000E-8	0.001995
3.370000E-8	0.002002
3.375000E-8	0.001989
3.380000E-8	0.001878
3.385000E-8	0.001713
3.390000E-8	0.001547
3.395000E-8	0.001394
3.400000E-8	0.001158
3.405000E-8	0.001014
3.410000E-8	0.001012
3.415000E-8	0.000942
3.420000E-8	0.001006
3.425000E-8	0.001095
3.430000E-8	0.001266
3.435000E-8	0.001477
3.440000E-8	0.001598
3.445000E-8	0.001809
3.450000E-8	0.001967
3.455000E-8	0.002113
3.460000E-8	0.002191
3.465000E-8	0.002156
3.470000E-8	0.002145
3.475000E-8	0.002044
3.480000E-8	0.001867
3.485000E-8	0.001631
3.490000E-8	0.001397
3.495000E-8	0.001314
3.500000E-8	0.001178
3.505000E-8	0.001095
3.510000E-8	0.001052
3.515000E-8	0.001116
3.520000E-8	0.001158
3.525000E-8	0.001369
3.530000E-8	0.001558
3.535000E-8	0.001744
3.540000E-8	0.001942
3.545000E-8	0.002092
3.550000E-8	0.002264
3.555000E-8	0.002245
3.560000E-8	0.002231
3.565000E-8	0.002106
3.570000E-8	0.001923
3.575000E-8	0.001745
3.580000E-8	0.001548
3.585000E-8	0.001333
3.590000E-8	0.001175
3.595000E-8	0.001116
3.600000E-8	0.001109
3.605000E-8	0.001122
3.610000E-8	0.001191
3.615000E-8	0.001298
3.620000E-8	0.001395
3.625000E-8	0.001559
3.630000E-8	0.001709
3.635000E-8	0.001786
3.640000E-8	0.001903
3.645000E-8	0.001973
3.650000E-8	0.001920
3.655000E-8	0.001877
3.660000E-8	0.001759
3.665000E-8	0.001633
3.670000E-8	0.001519
3.675000E-8	0.001377
3.680000E-8	0.001228
3.685000E-8	0.001089
3.690000E-8	0.001086
3.695000E-8	0.001038
3.700000E-8	0.001094
3.705000E-8	0.001177
3.710000E-8	0.001361
3.715000E-8	0.001439
3.720000E-8	0.001606
3.725000E-8	0.001728
3.730000E-8	0.001769
3.735000E-8	0.001880
3.740000E-8	0.001919
3.745000E-8	0.001911
3.750000E-8	0.001948
3.755000E-8	0.001920
3.760000E-8	0.001797
3.765000E-8	0.001745
3.770000E-8	0.001644
3.775000E-8	0.001558
3.780000E-8	0.001425
3.785000E-8	0.001283
3.790000E-8	0.001255
3.795000E-8	0.001309
3.800000E-8	0.001322
3.805000E-8	0.001431
3.810000E-8	0.001523
3.815000E-8	0.001683
3.820000E-8	0.001792
3.825000E-8	0.001966
3.830000E-8	0.002027
3.835000E-8	0.002080
3.840000E-8	0.002020
3.845000E-8	0.002016
3.850000E-8	0.001977
3.855000E-8	0.001836
3.860000E-8	0.001664
3.865000E-8	0.001480
3.870000E-8	0.001372
3.875000E-8	0.001272
3.880000E-8	0.001184
3.885000E-8	0.001192
3.890000E-8	0.001206
3.895000E-8	0.001275
3.900000E-8	0.001366
3.905000E-8	0.001452
3.910000E-8	0.001555
3.915000E-8	0.001583
3.920000E-8	0.001614
3.925000E-8	0.001573
3.930000E-8	0.001608
3.935000E-8	0.001561
3.940000E-8	0.001450
3.945000E-8	0.001411
3.950000E-8	0.001297
3.955000E-8	0.001216
3.960000E-8	0.001147
3.965000E-8	0.001067
3.970000E-8	0.001045
3.975000E-8	0.001039
3.980000E-8	0.001042
3.985000E-8	0.001145
3.990000E-8	0.001259
3.995000E-8	0.001394
4.000000E-8	0.001575
4.005000E-8	0.001694
4.010000E-8	0.001805
4.015000E-8	0.001870
4.020000E-8	0.001981
4.025000E-8	0.001970
4.030000E-8	0.001983
4.035000E-8	0.001906
4.040000E-8	0.001747
4.045000E-8	0.001650
4.050000E-8	0.001469
4.055000E-8	0.001378
4.060000E-8	0.001208
4.065000E-8	0.001138
4.070000E-8	0.001136
4.075000E-8	0.001163
4.080000E-8	0.001250
4.085000E-8	0.001422
4.090000E-8	0.001566
4.095000E-8	0.001780
4.100000E-8	0.001898
4.105000E-8	0.002100
4.110000E-8	0.002183
4.115000E-8	0.002209
4.120000E-8	0.002191
4.125000E-8	0.002136
4.130000E-8	0.002047
4.135000E-8	0.001892
4.140000E-8	0.001719
4.145000E-8	0.001578
4.150000E-8	0.001423
4.155000E-8	0.001338
4.160000E-8	0.001319
4.165000E-8	0.001375
4.170000E-8	0.001423
4.175000E-8	0.001547
4.180000E-8	0.001708
4.185000E-8	0.001836
4.190000E-8	0.001931
4.195000E-8	0.001920
4.200000E-8	0.001978
4.205000E-8	0.001973
4.210000E-8	0.001855
4.215000E-8	0.001898
4.220000E-8	0.001783
4.225000E-8	0.001719
4.230000E-8	0.001580
4.235000E-8	0.001516
4.240000E-8	0.001391
4.245000E-8	0.001259
4.250000E-8	0.001148
4.255000E-8	0.001117
4.260000E-8	0.001064
4.265000E-8	0.001075
4.270000E-8	0.001066
4.275000E-8	0.001105
4.280000E-8	0.001216
4.285000E-8	0.001327
4.290000E-8	0.001467
4.295000E-8	0.001625
4.300000E-8	0.001705
4.305000E-8	0.001794
4.310000E-8	0.001817
4.315000E-8	0.001802
4.320000E-8	0.001673
4.325000E-8	0.001558
4.330000E-8	0.001423
4.335000E-8	0.001275
4.340000E-8	0.001164
4.345000E-8	0.001138
4.350000E-8	0.001112
4.355000E-8	0.001083
4.360000E-8	0.001117
4.365000E-8	0.001230
4.370000E-8	0.001339
4.375000E-8	0.001428
4.380000E-8	0.001547
4.385000E-8	0.001630
4.390000E-8	0.001681
4.395000E-8	0.001772
4.400000E-8	0.001775
4.405000E-8	0.001792
4.410000E-8	0.001808
4.415000E-8	0.001763
4.420000E-8	0.001661
4.425000E-8	0.001564
4.430000E-8	0.001544
4.435000E-8	0.001467
4.440000E-8	0.001425
4.445000E-8	0.001425
4.450000E-8	0.001414
4.455000E-8	0.001452
4.460000E-8	0.001517
4.465000E-8	0.001586
4.470000E-8	0.001563
4.475000E-8	0.001708
4.480000E-8	0.001808
4.485000E-8	0.001898
4.490000E-8	0.001927
4.495000E-8	0.001905
4.500000E-8	0.001888
4.505000E-8	0.001825
4.510000E-8	0.001694
4.515000E-8	0.001564
4.520000E-8	0.001380
4.525000E-8	0.001194
4.530000E-8	0.001055
4.535000E-8	0.001020
4.540000E-8	0.000966
4.545000E-8	0.001038
4.550000E-8	0.001097
4.555000E-8	0.001248
4.560000E-8	0.001427
4.565000E-8	0.001531
4.570000E-8	0.001705
4.575000E-8	0.001848
4.580000E-8	0.001920
4.585000E-8	0.001964
4.590000E-8	0.001961
4.595000E-8	0.001789
4.600000E-8	0.001686
4.605000E-8	0.001570
4.610000E-8	0.001411
4.615000E-8	0.001267
4.620000E-8	0.001195
4.625000E-8	0.001091
4.630000E-8	0.001072
4.635000E-8	0.001086
4.640000E-8	0.001112
4.645000E-8	0.001197
4.650000E-8	0.001283
4.655000E-8	0.001413
4.660000E-8	0.001544
4.665000E-8	0.001750
4.670000E-8	0.001819
4.675000E-8	0.001884
4.680000E-8	0.001875
4.685000E-8	0.001903
4.690000E-8	0.001889
4.695000E-8	0.001791
4.700000E-8	0.001731
4.705000E-8	0.001644
4.710000E-8	0.001580
4.715000E-8	0.001544
4.720000E-8	0.001509
4.725000E-8	0.001416
4.730000E-8	0.001480
4.735000E-8	0.001530
4.740000E-8	0.001578
4.745000E-8	0.001638
4.750000E-8	0.001638
4.755000E-8	0.001723
4.760000E-8	0.001678
4.765000E-8	0.001625
4.770000E-8	0.001609
4.775000E-8	0.001584
4.780000E-8	0.001503
4.785000E-8	0.001437
4.790000E-8	0.001308
4.795000E-8	0.001208
4.800000E-8	0.001175
4.805000E-8	0.001045
4.810000E-8	0.000964
4.815000E-8	0.000927
4.820000E-8	0.000947
4.825000E-8	0.000994
4.830000E-8	0.001100
4.835000E-8	0.001133
4.840000E-8	0.001231
4.845000E-8	0.001344
4.850000E-8	0.001467
4.855000E-8	0.001539
4.860000E-8	0.001684
4.865000E-8	0.001755
4.870000E-8	0.001767
4.875000E-8	0.001772
4.880000E-8	0.001745
4.885000E-8	0.001648
4.890000E-8	0.001528
4.895000E-8	0.001495
4.900000E-8	0.001403
4.905000E-8	0.001377
4.910000E-8	0.001317
4.915000E-8	0.001344
4.920000E-8	0.001300
4.925000E-8	0.001472
4.930000E-8	0.001516
4.935000E-8	0.001575
4.940000E-8	0.001741
4.945000E-8	0.001878
4.950000E-8	0.002028
4.955000E-8	0.002111
4.960000E-8	0.002106
4.965000E-8	0.002067
4.970000E-8	0.002000
4.975000E-8	0.001913
4.980000E-8	0.001797
4.985000E-8	0.001636
4.990000E-8	0.001459
4.995000E-8	0.001358
5.000000E-8	0.001191
5.005000E-8	0.001122
5.010000E-8	0.001139
5.015000E-8	0.001172
5.020000E-8	0.001242
5.025000E-8	0.001325
5.030000E-8	0.001481
5.035000E-8	0.001580
5.040000E-8	0.001677
5.045000E-8	0.001763
5.050000E-8	0.001753
5.055000E-8	0.001695
5.060000E-8	0.001647
5.065000E-8	0.001581
5.070000E-8	0.001503
5.075000E-8	0.001353
5.080000E-8	0.001227
5.085000E-8	0.001163
5.090000E-8	0.001155
5.095000E-8	0.001083
5.100000E-8	0.001189
5.105000E-8	0.001258
5.110000E-8	0.001280
5.115000E-8	0.001398
5.120000E-8	0.001523
5.125000E-8	0.001603
5.130000E-8	0.001619
5.135000E-8	0.001677
5.140000E-8	0.001684
5.145000E-8	0.001606
5.150000E-8	0.001573
5.155000E-8	0.001612
5.160000E-8	0.001589
5.165000E-8	0.001556
5.170000E-8	0.001563
5.175000E-8	0.001561
5.180000E-8	0.001556
5.185000E-8	0.001570
5.190000E-8	0.001520
5.195000E-8	0.001556
5.200000E-8	0.001570
5.205000E-8	0.001608
5.210000E-8	0.001611
5.215000E-8	0.001625
5.220000E-8	0.001656
5.225000E-8	0.001708
5.230000E-8	0.001775
5.235000E-8	0.001798
5.240000E-8	0.001780
5.245000E-8	0.001756
5.250000E-8	0.001714
5.255000E-8	0.001612
5.260000E-8	0.001489
5.265000E-8	0.001345
5.270000E-8	0.001292
5.275000E-8	0.001181
5.280000E-8	0.001072
5.285000E-8	0.001070
5.290000E-8	0.001108
5.295000E-8	0.001066
5.300000E-8	0.001145
5.305000E-8	0.001198
5.310000E-8	0.001338
5.315000E-8	0.001427
5.320000E-8	0.001523
5.325000E-8	0.001627
5.330000E-8	0.001612
5.335000E-8	0.001612
5.340000E-8	0.001488
5.345000E-8	0.001413
5.350000E-8	0.001330
5.355000E-8	0.001173
5.360000E-8	0.001038
5.365000E-8	0.000961
5.370000E-8	0.000844
5.375000E-8	0.000878
5.380000E-8	0.000909
5.385000E-8	0.000906
5.390000E-8	0.001025
5.395000E-8	0.001111
5.400000E-8	0.001277
5.405000E-8	0.001366
5.410000E-8	0.001544
5.415000E-8	0.001595
5.420000E-8	0.001630
5.425000E-8	0.001708
5.430000E-8	0.001706
5.435000E-8	0.001647
5.440000E-8	0.001616
5.445000E-8	0.001567
5.450000E-8	0.001450
5.455000E-8	0.001372
5.460000E-8	0.001256
5.465000E-8	0.001205
5.470000E-8	0.001145
5.475000E-8	0.001120
5.480000E-8	0.001195
5.485000E-8	0.001245
5.490000E-8	0.001328
5.495000E-8	0.001433
5.500000E-8	0.001531
5.505000E-8	0.001619
5.510000E-8	0.001708
5.515000E-8	0.001786
5.520000E-8	0.001792
5.525000E-8	0.001806
5.530000E-8	0.001770
5.535000E-8	0.001700
5.540000E-8	0.001634
5.545000E-8	0.001558
5.550000E-8	0.001513
5.555000E-8	0.001402
5.560000E-8	0.001344
5.565000E-8	0.001272
5.570000E-8	0.001225
5.575000E-8	0.001250
5.580000E-8	0.001284
5.585000E-8	0.001348
5.590000E-8	0.001428
5.595000E-8	0.001533
5.600000E-8	0.001652
5.605000E-8	0.001767
5.610000E-8	0.001834
5.615000E-8	0.001867
5.620000E-8	0.001867
5.625000E-8	0.001814
5.630000E-8	0.001661
5.635000E-8	0.001544
5.640000E-8	0.001316
5.645000E-8	0.001208
5.650000E-8	0.001086
5.655000E-8	0.001003
5.660000E-8	0.001028
5.665000E-8	0.001052
5.670000E-8	0.001138
5.675000E-8	0.001227
5.680000E-8	0.001361
5.685000E-8	0.001552
5.690000E-8	0.001663
5.695000E-8	0.001802
5.700000E-8	0.001930
5.705000E-8	0.002094
5.710000E-8	0.002120
5.715000E-8	0.002078
5.720000E-8	0.002003
5.725000E-8	0.001955
5.730000E-8	0.001844
5.735000E-8	0.001702
5.740000E-8	0.001533
5.745000E-8	0.001445
5.750000E-8	0.001381
5.755000E-8	0.001395
5.760000E-8	0.001458
5.765000E-8	0.001511
5.770000E-8	0.001597
5.775000E-8	0.001667
5.780000E-8	0.001766
5.785000E-8	0.001903
5.790000E-8	0.001941
5.795000E-8	0.002025
5.800000E-8	0.002005
5.805000E-8	0.002031
5.810000E-8	0.001944
5.815000E-8	0.001927
5.820000E-8	0.001855
5.825000E-8	0.001709
5.830000E-8	0.001573
5.835000E-8	0.001486
5.840000E-8	0.001403
5.845000E-8	0.001398
5.850000E-8	0.001325
5.855000E-8	0.001361
5.860000E-8	0.001450
5.865000E-8	0.001505
5.870000E-8	0.001595
5.875000E-8	0.001670
5.880000E-8	0.001766
5.885000E-8	0.001808
5.890000E-8	0.001831
5.895000E-8	0.001805
5.900000E-8	0.001731
5.905000E-8	0.001656
5.910000E-8	0.001547
5.915000E-8	0.001386
5.920000E-8	0.001288
5.925000E-8	0.001248
5.930000E-8	0.001197
5.935000E-8	0.001169
5.940000E-8	0.001156
5.945000E-8	0.001222
5.950000E-8	0.001303
5.955000E-8	0.001352
5.960000E-8	0.001437
5.965000E-8	0.001514
5.970000E-8	0.001600
5.975000E-8	0.001700
5.980000E-8	0.001695
5.985000E-8	0.001644
5.990000E-8	0.001594
5.995000E-8	0.001570
6.000000E-8	0.001497
6.005000E-8	0.001448
6.010000E-8	0.001380
6.015000E-8	0.001356
6.020000E-8	0.001342
6.025000E-8	0.001369
6.030000E-8	0.001334
6.035000E-8	0.001330
6.040000E-8	0.001364
6.045000E-8	0.001388
6.050000E-8	0.001494
6.055000E-8	0.001530
6.060000E-8	0.001656
6.065000E-8	0.001709
6.070000E-8	0.001775
6.075000E-8	0.001845
6.080000E-8	0.001869
6.085000E-8	0.001889
6.090000E-8	0.001892
6.095000E-8	0.001875
6.100000E-8	0.001811
6.105000E-8	0.001742
6.110000E-8	0.001605
6.115000E-8	0.001645
6.120000E-8	0.001578
6.125000E-8	0.001439
6.130000E-8	0.001383
6.135000E-8	0.001367
6.140000E-8	0.001339
6.145000E-8	0.001355
6.150000E-8	0.001386
6.155000E-8	0.001475
6.160000E-8	0.001536
6.165000E-8	0.001603
6.170000E-8	0.001627
6.175000E-8	0.001677
6.180000E-8	0.001670
6.185000E-8	0.001689
6.190000E-8	0.001572
6.195000E-8	0.001522
6.200000E-8	0.001470
6.205000E-8	0.001378
6.210000E-8	0.001353
6.215000E-8	0.001314
6.220000E-8	0.001341
6.225000E-8	0.001395
6.230000E-8	0.001489
6.235000E-8	0.001486
6.240000E-8	0.001517
6.245000E-8	0.001644
6.250000E-8	0.001634
6.255000E-8	0.001638
6.260000E-8	0.001666
6.265000E-8	0.001648
6.270000E-8	0.001609
6.275000E-8	0.001577
6.280000E-8	0.001603
6.285000E-8	0.001563
6.290000E-8	0.001533
6.295000E-8	0.001527
6.300000E-8	0.001494
6.305000E-8	0.001553
6.310000E-8	0.001498
6.315000E-8	0.001592
6.320000E-8	0.001591
6.325000E-8	0.001630
6.330000E-8	0.001687
6.335000E-8	0.001717
6.340000E-8	0.001820
6.345000E-8	0.001869
6.350000E-8	0.001919
6.355000E-8	0.001920
6.360000E-8	0.001945
6.365000E-8	0.001891
6.370000E-8	0.001816
6.375000E-8	0.001745
6.380000E-8	0.001650
6.385000E-8	0.001542
6.390000E-8	0.001458
6.395000E-8	0.001359
6.400000E-8	0.001325
6.405000E-8	0.001348
6.410000E-8	0.001413
6.415000E-8	0.001500
6.420000E-8	0.001591
6.425000E-8	0.001695
6.430000E-8	0.001698
6.435000E-8	0.001806
6.440000E-8	0.001878
6.445000E-8	0.001872
6.450000E-8	0.001877
6.455000E-8	0.001819
6.460000E-8	0.001778
6.465000E-8	0.001703
6.470000E-8	0.001617
6.475000E-8	0.001544
6.480000E-8	0.001447
6.485000E-8	0.001406
6.490000E-8	0.001297
6.495000E-8	0.001252
6.500000E-8	0.001177
6.505000E-8	0.001191
6.510000E-8	0.001281
6.515000E-8	0.001381
6.520000E-8	0.001372
6.525000E-8	0.001441
6.530000E-8	0.001469
6.535000E-8	0.001484
6.540000E-8	0.001361
6.545000E-8	0.001359
6.550000E-8	0.001264
6.555000E-8	0.001192
6.560000E-8	0.001194
6.565000E-8	0.001186
6.570000E-8	0.001148
6.575000E-8	0.001252
6.580000E-8	0.001322
6.585000E-8	0.001397
6.590000E-8	0.001491
6.595000E-8	0.001570
6.600000E-8	0.001641
6.605000E-8	0.001655
6.610000E-8	0.001531
6.615000E-8	0.001525
6.620000E-8	0.001472
6.625000E-8	0.001500
6.630000E-8	0.001411
6.635000E-8	0.001467
6.640000E-8	0.001522
6.645000E-8	0.001484
6.650000E-8	0.001584
6.655000E-8	0.001639
6.660000E-8	0.001609
6.665000E-8	0.001684
6.670000E-8	0.001586
6.675000E-8	0.001597
6.680000E-8	0.001563
6.685000E-8	0.001500
6.690000E-8	0.001469
6.695000E-8	0.001472
6.700000E-8	0.001370
6.705000E-8	0.001308
6.710000E-8	0.001289
6.715000E-8	0.001345
6.720000E-8	0.001316
6.725000E-8	0.001347
6.730000E-8	0.001316
6.735000E-8	0.001355
6.740000E-8	0.001286
6.745000E-8	0.001292
6.750000E-8	0.001217
6.755000E-8	0.001180
6.760000E-8	0.001158
6.765000E-8	0.001083
6.770000E-8	0.001125
6.775000E-8	0.001134
6.780000E-8	0.001198
6.785000E-8	0.001217
6.790000E-8	0.001234
6.795000E-8	0.001317
6.800000E-8	0.001403
6.805000E-8	0.001459
6.810000E-8	0.001534
6.815000E-8	0.001506
6.820000E-8	0.001611
6.825000E-8	0.001581
6.830000E-8	0.001583
6.835000E-8	0.001578
6.840000E-8	0.001480
6.845000E-8	0.001458
6.850000E-8	0.001472
6.855000E-8	0.001422
6.860000E-8	0.001492
6.865000E-8	0.001495
6.870000E-8	0.001473
6.875000E-8	0.001572
6.880000E-8	0.001650
6.885000E-8	0.001672
6.890000E-8	0.001728
6.895000E-8	0.001686
6.900000E-8	0.001605
6.905000E-8	0.001628
6.910000E-8	0.001567
6.915000E-8	0.001480
6.920000E-8	0.001417
6.925000E-8	0.001494
6.930000E-8	0.001494
6.935000E-8	0.001494
6.940000E-8	0.001536
6.945000E-8	0.001600
6.950000E-8	0.001564
6.955000E-8	0.001531
6.960000E-8	0.001545
6.965000E-8	0.001517
6.970000E-8	0.001489
6.975000E-8	0.001464
6.980000E-8	0.001480
6.985000E-8	0.001447
6.990000E-8	0.001452
6.995000E-8	0.001455
7.000000E-8	0.001409
7.005000E-8	0.001450
7.010000E-8	0.001406
7.015000E-8	0.001402
7.020000E-8	0.001373
7.025000E-8	0.001386
7.030000E-8	0.001328
7.035000E-8	0.001270
7.040000E-8	0.001284
7.045000E-8	0.001323
7.050000E-8	0.001281
7.055000E-8	0.001327
7.060000E-8	0.001350
7.065000E-8	0.001427
7.070000E-8	0.001475
7.075000E-8	0.001533
7.080000E-8	0.001523
7.085000E-8	0.001552
7.090000E-8	0.001578
7.095000E-8	0.001617
7.100000E-8	0.001650
7.105000E-8	0.001683
7.110000E-8	0.001648
7.115000E-8	0.001620
7.120000E-8	0.001639
7.125000E-8	0.001578
7.130000E-8	0.001509
7.135000E-8	0.001505
7.140000E-8	0.001484
7.145000E-8	0.001494
7.150000E-8	0.001483
7.155000E-8	0.001508
7.160000E-8	0.001505
7.165000E-8	0.001545
7.170000E-8	0.001536
7.175000E-8	0.001631
7.180000E-8	0.001742
7.185000E-8	0.001709
7.190000E-8	0.001806
7.195000E-8	0.001803
7.200000E-8	0.001728
7.205000E-8	0.001680
7.210000E-8	0.001591
7.215000E-8	0.001544
7.220000E-8	0.001481
7.225000E-8	0.001434
7.230000E-8	0.001375
7.235000E-8	0.001309
7.240000E-8	0.001208
7.245000E-8	0.001205
7.250000E-8	0.001203
7.255000E-8	0.001166
7.260000E-8	0.001189
7.265000E-8	0.001261
7.270000E-8	0.001367
7.275000E-8	0.001355
7.280000E-8	0.001423
7.285000E-8	0.001531
7.290000E-8	0.001605
7.295000E-8	0.001577
7.300000E-8	0.001612
7.305000E-8	0.001659
7.310000E-8	0.001591
7.315000E-8	0.001584
7.320000E-8	0.001523
7.325000E-8	0.001419
7.330000E-8	0.001397
7.335000E-8	0.001361
7.340000E-8	0.001316
7.345000E-8	0.001370
7.350000E-8	0.001422
7.355000E-8	0.001484
7.360000E-8	0.001616
7.365000E-8	0.001692
7.370000E-8	0.001672
7.375000E-8	0.001784
7.380000E-8	0.001784
7.385000E-8	0.001838
7.390000E-8	0.001794
7.395000E-8	0.001759
7.400000E-8	0.001708
7.405000E-8	0.001675
7.410000E-8	0.001586
7.415000E-8	0.001552
7.420000E-8	0.001475
7.425000E-8	0.001481
7.430000E-8	0.001509
7.435000E-8	0.001552
7.440000E-8	0.001597
7.445000E-8	0.001641
7.450000E-8	0.001670
7.455000E-8	0.001708
7.460000E-8	0.001683
7.465000E-8	0.001694
7.470000E-8	0.001722
7.475000E-8	0.001711
7.480000E-8	0.001570
7.485000E-8	0.001577
7.490000E-8	0.001473
7.495000E-8	0.001511
7.500000E-8	0.001458
7.505000E-8	0.001505
7.510000E-8	0.001542
7.515000E-8	0.001623
7.520000E-8	0.001658
7.525000E-8	0.001686
7.530000E-8	0.001719
7.535000E-8	0.001739
7.540000E-8	0.001658
7.545000E-8	0.001641
7.550000E-8	0.001573
7.555000E-8	0.001536
7.560000E-8	0.001442
7.565000E-8	0.001486
7.570000E-8	0.001423
7.575000E-8	0.001417
7.580000E-8	0.001497
7.585000E-8	0.001505
7.590000E-8	0.001559
7.595000E-8	0.001584
7.600000E-8	0.001573
7.605000E-8	0.001628
7.610000E-8	0.001659
7.615000E-8	0.001583
7.620000E-8	0.001531
7.625000E-8	0.001581
7.630000E-8	0.001555
7.635000E-8	0.001520
7.640000E-8	0.001531
7.645000E-8	0.001469
7.650000E-8	0.001455
7.655000E-8	0.001384
7.660000E-8	0.001350
7.665000E-8	0.001309
7.670000E-8	0.001308
7.675000E-8	0.001284
7.680000E-8	0.001198
7.685000E-8	0.001189
7.690000E-8	0.001170
7.695000E-8	0.001200
7.700000E-8	0.001203
7.705000E-8	0.001261
7.710000E-8	0.001263
7.715000E-8	0.001325
7.720000E-8	0.001439
7.725000E-8	0.001427
7.730000E-8	0.001464
7.735000E-8	0.001516
7.740000E-8	0.001541
7.745000E-8	0.001617
7.750000E-8	0.001644
7.755000E-8	0.001675
7.760000E-8	0.001659
7.765000E-8	0.001702
7.770000E-8	0.001706
7.775000E-8	0.001714
7.780000E-8	0.001672
7.785000E-8	0.001675
7.790000E-8	0.001650
7.795000E-8	0.001684
7.800000E-8	0.001675
7.805000E-8	0.001634
7.810000E-8	0.001617
7.815000E-8	0.001680
7.820000E-8	0.001658
7.825000E-8	0.001703
7.830000E-8	0.001780
7.835000E-8	0.001739
7.840000E-8	0.001789
7.845000E-8	0.001775
7.850000E-8	0.001692
7.855000E-8	0.001719
7.860000E-8	0.001681
7.865000E-8	0.001628
7.870000E-8	0.001575
7.875000E-8	0.001470
7.880000E-8	0.001380
7.885000E-8	0.001334
7.890000E-8	0.001241
7.895000E-8	0.001220
7.900000E-8	0.001203
7.905000E-8	0.001158
7.910000E-8	0.001158
7.915000E-8	0.001209
7.920000E-8	0.001239
7.925000E-8	0.001325
7.930000E-8	0.001317
7.935000E-8	0.001380
7.940000E-8	0.001353
7.945000E-8	0.001322
7.950000E-8	0.001233
7.955000E-8	0.001186
7.960000E-8	0.001152
7.965000E-8	0.001067
7.970000E-8	0.001005
7.975000E-8	0.001080
7.980000E-8	0.001064
7.985000E-8	0.001103
7.990000E-8	0.001150
7.995000E-8	0.001264
8.000000E-8	0.001291
8.005000E-8	0.001400
8.010000E-8	0.001473
8.015000E-8	0.001506
8.020000E-8	0.001541
8.025000E-8	0.001492
8.030000E-8	0.001509
8.035000E-8	0.001484
8.040000E-8	0.001489
8.045000E-8	0.001450
8.050000E-8	0.001425
8.055000E-8	0.001452
8.060000E-8	0.001389
8.065000E-8	0.001425
8.070000E-8	0.001469
8.075000E-8	0.001442
8.080000E-8	0.001520
8.085000E-8	0.001563
8.090000E-8	0.001638
8.095000E-8	0.001683
8.100000E-8	0.001620
8.105000E-8	0.001709
8.110000E-8	0.001642
8.115000E-8	0.001727
8.120000E-8	0.001738
8.125000E-8	0.001720
8.130000E-8	0.001750
8.135000E-8	0.001689
8.140000E-8	0.001639
8.145000E-8	0.001566
8.150000E-8	0.001527
8.155000E-8	0.001447
8.160000E-8	0.001320
8.165000E-8	0.001367
8.170000E-8	0.001336
8.175000E-8	0.001380
8.180000E-8	0.001427
8.185000E-8	0.001467
8.190000E-8	0.001509
8.195000E-8	0.001606
8.200000E-8	0.001623
8.205000E-8	0.001620
8.210000E-8	0.001634
8.215000E-8	0.001802
8.220000E-8	0.001789
8.225000E-8	0.001781
8.230000E-8	0.001759
8.235000E-8	0.001814
8.240000E-8	0.001756
8.245000E-8	0.001741
8.250000E-8	0.001673
8.255000E-8	0.001652
8.260000E-8	0.001616
8.265000E-8	0.001533
8.270000E-8	0.001556
8.275000E-8	0.001609
8.280000E-8	0.001570
8.285000E-8	0.001583
8.290000E-8	0.001559
8.295000E-8	0.001583
8.300000E-8	0.001616
8.305000E-8	0.001541
8.310000E-8	0.001625
8.315000E-8	0.001573
8.320000E-8	0.001530
8.325000E-8	0.001491
8.330000E-8	0.001463
8.335000E-8	0.001395
8.340000E-8	0.001380
8.345000E-8	0.001373
8.350000E-8	0.001320
8.355000E-8	0.001361
8.360000E-8	0.001417
8.365000E-8	0.001473
8.370000E-8	0.001534
8.375000E-8	0.001638
8.380000E-8	0.001672
8.385000E-8	0.001809
8.390000E-8	0.001820
8.395000E-8	0.001842
8.400000E-8	0.001819
8.405000E-8	0.001808
8.410000E-8	0.001736
8.415000E-8	0.001694
8.420000E-8	0.001594
8.425000E-8	0.001528
8.430000E-8	0.001422
8.435000E-8	0.001348
8.440000E-8	0.001294
8.445000E-8	0.001192
8.450000E-8	0.001173
8.455000E-8	0.001136
8.460000E-8	0.001102
8.465000E-8	0.001138
8.470000E-8	0.001205
8.475000E-8	0.001297
8.480000E-8	0.001308
8.485000E-8	0.001344
8.490000E-8	0.001433
8.495000E-8	0.001480
8.500000E-8	0.001483
8.505000E-8	0.001447
8.510000E-8	0.001434
8.515000E-8	0.001444
8.520000E-8	0.001378
8.525000E-8	0.001419
8.530000E-8	0.001439
8.535000E-8	0.001473
8.540000E-8	0.001536
8.545000E-8	0.001516
8.550000E-8	0.001584
8.555000E-8	0.001606
8.560000E-8	0.001694
8.565000E-8	0.001667
8.570000E-8	0.001644
8.575000E-8	0.001623
8.580000E-8	0.001645
8.585000E-8	0.001552
8.590000E-8	0.001520
8.595000E-8	0.001550
8.600000E-8	0.001575
8.605000E-8	0.001580
8.610000E-8	0.001580
8.615000E-8	0.001614
8.620000E-8	0.001644
8.625000E-8	0.001550
8.630000E-8	0.001506
8.635000E-8	0.001503
8.640000E-8	0.001459
8.645000E-8	0.001406
8.650000E-8	0.001389
8.655000E-8	0.001411
8.660000E-8	0.001434
8.665000E-8	0.001384
8.670000E-8	0.001378
8.675000E-8	0.001409
8.680000E-8	0.001342
8.685000E-8	0.001331
8.690000E-8	0.001323
8.695000E-8	0.001322
8.700000E-8	0.001305
8.705000E-8	0.001334
8.710000E-8	0.001306
8.715000E-8	0.001289
8.720000E-8	0.001177
8.725000E-8	0.001198
8.730000E-8	0.001147
8.735000E-8	0.001086
8.740000E-8	0.001083
8.745000E-8	0.001211
8.750000E-8	0.001198
8.755000E-8	0.001277
8.760000E-8	0.001298
8.765000E-8	0.001403
8.770000E-8	0.001456
8.775000E-8	0.001534
8.780000E-8	0.001550
8.785000E-8	0.001555
8.790000E-8	0.001616
8.795000E-8	0.001595
8.800000E-8	0.001600
8.805000E-8	0.001578
8.810000E-8	0.001525
8.815000E-8	0.001494
8.820000E-8	0.001430
8.825000E-8	0.001383
8.830000E-8	0.001330
8.835000E-8	0.001278
8.840000E-8	0.001283
8.845000E-8	0.001280
8.850000E-8	0.001283
8.855000E-8	0.001275
8.860000E-8	0.001305
8.865000E-8	0.001338
8.870000E-8	0.001325
8.875000E-8	0.001389
8.880000E-8	0.001298
8.885000E-8	0.001355
8.890000E-8	0.001275
8.895000E-8	0.001233
8.900000E-8	0.001250
8.905000E-8	0.001278
8.910000E-8	0.001250
8.915000E-8	0.001280
8.920000E-8	0.001345
8.925000E-8	0.001405
8.930000E-8	0.001437
8.935000E-8	0.001484
8.940000E-8	0.001491
8.945000E-8	0.001594
8.950000E-8	0.001572
8.955000E-8	0.001616
8.960000E-8	0.001567
8.965000E-8	0.001642
8.970000E-8	0.001569
8.975000E-8	0.001575
8.980000E-8	0.001578
8.985000E-8	0.001553
8.990000E-8	0.001556
8.995000E-8	0.001491
9.000000E-8	0.001506
9.005000E-8	0.001458
9.010000E-8	0.001430
9.015000E-8	0.001442
9.020000E-8	0.001425
9.025000E-8	0.001503
9.030000E-8	0.001437
9.035000E-8	0.001361
9.040000E-8	0.001325
9.045000E-8	0.001369
9.050000E-8	0.001284
9.055000E-8	0.001289
9.060000E-8	0.001248
9.065000E-8	0.001284
9.070000E-8	0.001325
9.075000E-8	0.001322
9.080000E-8	0.001370
9.085000E-8	0.001442
9.090000E-8	0.001509
9.095000E-8	0.001588
9.100000E-8	0.001617
9.105000E-8	0.001686
9.110000E-8	0.001667
9.115000E-8	0.001714
9.120000E-8	0.001692
9.125000E-8	0.001644
9.130000E-8	0.001664
9.135000E-8	0.001545
9.140000E-8	0.001503
9.145000E-8	0.001470
9.150000E-8	0.001433
9.155000E-8	0.001434
9.160000E-8	0.001450
9.165000E-8	0.001428
9.170000E-8	0.001378
9.175000E-8	0.001425
9.180000E-8	0.001436
9.185000E-8	0.001428
9.190000E-8	0.001458
9.195000E-8	0.001428
9.200000E-8	0.001408
9.205000E-8	0.001369
9.210000E-8	0.001445
9.215000E-8	0.001511
9.220000E-8	0.001569
9.225000E-8	0.001633
9.230000E-8	0.001658
9.235000E-8	0.001761
9.240000E-8	0.001852
9.245000E-8	0.001867
9.250000E-8	0.001900
9.255000E-8	0.001889
9.260000E-8	0.001864
9.265000E-8	0.001823
9.270000E-8	0.001763
9.275000E-8	0.001634
9.280000E-8	0.001530
9.285000E-8	0.001420
9.290000E-8	0.001316
9.295000E-8	0.001338
9.300000E-8	0.001322
9.305000E-8	0.001308
9.310000E-8	0.001320
9.315000E-8	0.001403
9.320000E-8	0.001430
9.325000E-8	0.001433
9.330000E-8	0.001469
9.335000E-8	0.001480
9.340000E-8	0.001458
9.345000E-8	0.001439
9.350000E-8	0.001430
9.355000E-8	0.001380
9.360000E-8	0.001289
9.365000E-8	0.001223
9.370000E-8	0.001133
9.375000E-8	0.001134
9.380000E-8	0.001084
9.385000E-8	0.001089
9.390000E-8	0.001088
9.395000E-8	0.001106
9.400000E-8	0.001134
9.405000E-8	0.001263
9.410000E-8	0.001328
9.415000E-8	0.001394
9.420000E-8	0.001494
9.425000E-8	0.001559
9.430000E-8	0.001620
9.435000E-8	0.001595
9.440000E-8	0.001573
9.445000E-8	0.001516
9.450000E-8	0.001467
9.455000E-8	0.001427
9.460000E-8	0.001291
9.465000E-8	0.001256
9.470000E-8	0.001194
9.475000E-8	0.001186
9.480000E-8	0.001238
9.485000E-8	0.001205
9.490000E-8	0.001220
9.495000E-8	0.001267
9.500000E-8	0.001267
9.505000E-8	0.001298
9.510000E-8	0.001344
9.515000E-8	0.001338
9.520000E-8	0.001356
9.525000E-8	0.001405
9.530000E-8	0.001464
9.535000E-8	0.001519
9.540000E-8	0.001586
9.545000E-8	0.001597
9.550000E-8	0.001594
9.555000E-8	0.001631
9.560000E-8	0.001642
9.565000E-8	0.001616
9.570000E-8	0.001612
9.575000E-8	0.001575
9.580000E-8	0.001573
9.585000E-8	0.001630
9.590000E-8	0.001652
9.595000E-8	0.001734
9.600000E-8	0.001734
9.605000E-8	0.001784
9.610000E-8	0.001745
9.615000E-8	0.001789
9.620000E-8	0.001775
9.625000E-8	0.001700
9.630000E-8	0.001689
9.635000E-8	0.001611
9.640000E-8	0.001489
9.645000E-8	0.001436
9.650000E-8	0.001383
9.655000E-8	0.001259
9.660000E-8	0.001177
9.665000E-8	0.001192
9.670000E-8	0.001172
9.675000E-8	0.001156
9.680000E-8	0.001217
9.685000E-8	0.001245
9.690000E-8	0.001302
9.695000E-8	0.001388
9.700000E-8	0.001456
9.705000E-8	0.001564
9.710000E-8	0.001652
9.715000E-8	0.001667
9.720000E-8	0.001709
9.725000E-8	0.001705
9.730000E-8	0.001697
9.735000E-8	0.001639
9.740000E-8	0.001558
9.745000E-8	0.001589
9.750000E-8	0.001567
9.755000E-8	0.001553
9.760000E-8	0.001505
9.765000E-8	0.001514
9.770000E-8	0.001497
9.775000E-8	0.001466
9.780000E-8	0.001522
9.785000E-8	0.001559
9.790000E-8	0.001539
9.795000E-8	0.001552
9.800000E-8	0.001448
9.805000E-8	0.001472
9.810000E-8	0.001403
9.815000E-8	0.001341
9.820000E-8	0.001403
9.825000E-8	0.001378
9.830000E-8	0.001314
9.835000E-8	0.001375
9.840000E-8	0.001420
9.845000E-8	0.001448
9.850000E-8	0.001467
9.855000E-8	0.001503
9.860000E-8	0.001541
9.865000E-8	0.001586
9.870000E-8	0.001614
9.875000E-8	0.001634
9.880000E-8	0.001623
9.885000E-8	0.001605
9.890000E-8	0.001591
9.895000E-8	0.001623
9.900000E-8	0.001556
9.905000E-8	0.001548
9.910000E-8	0.001480
9.915000E-8	0.001478
9.920000E-8	0.001402
9.925000E-8	0.001350
9.930000E-8	0.001239
9.935000E-8	0.001278
9.940000E-8	0.001289
9.945000E-8	0.001280
9.950000E-8	0.001308
9.955000E-8	0.001289
9.960000E-8	0.001270
9.965000E-8	0.001281
9.970000E-8	0.001253
9.975000E-8	0.001227
9.980000E-8	0.001197
9.985000E-8	0.001195
9.990000E-8	0.001134
9.995000E-8	0.001228
