LabVIEW Measurement	
Writer_Version	2
Reader_Version	2
Separator	Tab
Decimal_Separator	.
Multi_Headings	No
X_Columns	Multi
Time_Pref	Relative
Operator	TG lab
Date	2015/03/07
Time	10:39:59.3455271720886230469
***End_of_Header***	
	
Channels	1	
Samples	2000	
Date	2015/03/07	
Time	10:39:59.3455271720886230469	
X_Dimension	Time	
X0	0.0000000000000000E+0	
Delta_X	5.000000E-11	
***End_of_Header***		
X_Value	Untitled	Comment
0.000000	0.001506
5.000000E-11	0.001520
1.000000E-10	0.001573
1.500000E-10	0.001644
2.000000E-10	0.001686
2.500000E-10	0.001848
3.000000E-10	0.001827
3.500000E-10	0.001902
4.000000E-10	0.001853
4.500000E-10	0.001839
5.000000E-10	0.001738
5.500000E-10	0.001642
6.000000E-10	0.001552
6.500000E-10	0.001469
7.000000E-10	0.001364
7.500000E-10	0.001384
8.000000E-10	0.001373
8.500000E-10	0.001516
9.000000E-10	0.001492
9.500000E-10	0.001494
1.000000E-9	0.001567
1.050000E-9	0.001648
1.100000E-9	0.001600
1.150000E-9	0.001602
1.200000E-9	0.001602
1.250000E-9	0.001563
1.300000E-9	0.001530
1.350000E-9	0.001434
1.400000E-9	0.001414
1.450000E-9	0.001464
1.500000E-9	0.001452
1.550000E-9	0.001456
1.600000E-9	0.001436
1.650000E-9	0.001508
1.700000E-9	0.001428
1.750000E-9	0.001437
1.800000E-9	0.001377
1.850000E-9	0.001392
1.900000E-9	0.001408
1.950000E-9	0.001423
2.000000E-9	0.001359
2.050000E-9	0.001413
2.100000E-9	0.001373
2.150000E-9	0.001388
2.200000E-9	0.001400
2.250000E-9	0.001378
2.300000E-9	0.001361
2.350000E-9	0.001366
2.400000E-9	0.001323
2.450000E-9	0.001314
2.500000E-9	0.001277
2.550000E-9	0.001228
2.600000E-9	0.001283
2.650000E-9	0.001309
2.700000E-9	0.001256
2.750000E-9	0.001242
2.800000E-9	0.001206
2.850000E-9	0.001169
2.900000E-9	0.001248
2.950000E-9	0.001163
3.000000E-9	0.001148
3.050000E-9	0.001181
3.100000E-9	0.001122
3.150000E-9	0.001117
3.200000E-9	0.001144
3.250000E-9	0.001102
3.300000E-9	0.001084
3.350000E-9	0.001103
3.400000E-9	0.001134
3.450000E-9	0.001167
3.500000E-9	0.001167
3.550000E-9	0.001264
3.600000E-9	0.001267
3.650000E-9	0.001319
3.700000E-9	0.001297
3.750000E-9	0.001377
3.800000E-9	0.001305
3.850000E-9	0.001222
3.900000E-9	0.001197
3.950000E-9	0.001141
4.000000E-9	0.001142
4.050000E-9	0.001103
4.100000E-9	0.001084
4.150000E-9	0.001244
4.200000E-9	0.001217
4.250000E-9	0.001317
4.300000E-9	0.001350
4.350000E-9	0.001362
4.400000E-9	0.001391
4.450000E-9	0.001375
4.500000E-9	0.001327
4.550000E-9	0.001244
4.600000E-9	0.001133
4.650000E-9	0.001036
4.700000E-9	0.000886
4.750000E-9	0.000689
4.800000E-9	0.000263
4.850000E-9	-0.000311
4.900000E-9	-0.001045
4.950000E-9	-0.002100
5.000000E-9	-0.003358
5.050000E-9	-0.004927
5.100000E-9	-0.006728
5.150000E-9	-0.008703
5.200000E-9	-0.010783
5.250000E-9	-0.012859
5.300000E-9	-0.014852
5.350000E-9	-0.016552
5.400000E-9	-0.018019
5.450000E-9	-0.019153
5.500000E-9	-0.019822
5.550000E-9	-0.020016
5.600000E-9	-0.019852
5.650000E-9	-0.019214
5.700000E-9	-0.018195
5.750000E-9	-0.016975
5.800000E-9	-0.015488
5.850000E-9	-0.014075
5.900000E-9	-0.012697
5.950000E-9	-0.011450
6.000000E-9	-0.010594
6.050000E-9	-0.009973
6.100000E-9	-0.009687
6.150000E-9	-0.009744
6.200000E-9	-0.010166
6.250000E-9	-0.010681
6.300000E-9	-0.011333
6.350000E-9	-0.011947
6.400000E-9	-0.012414
6.450000E-9	-0.012656
6.500000E-9	-0.012595
6.550000E-9	-0.012178
6.600000E-9	-0.011633
6.650000E-9	-0.010711
6.700000E-9	-0.009580
6.750000E-9	-0.008352
6.800000E-9	-0.007208
6.850000E-9	-0.006150
6.900000E-9	-0.005344
6.950000E-9	-0.004706
7.000000E-9	-0.004478
7.050000E-9	-0.004477
7.100000E-9	-0.004748
7.150000E-9	-0.005227
7.200000E-9	-0.005792
7.250000E-9	-0.006434
7.300000E-9	-0.007097
7.350000E-9	-0.007525
7.400000E-9	-0.007814
7.450000E-9	-0.007759
7.500000E-9	-0.007553
7.550000E-9	-0.006947
7.600000E-9	-0.006191
7.650000E-9	-0.005186
7.700000E-9	-0.004078
7.750000E-9	-0.002975
7.800000E-9	-0.002075
7.850000E-9	-0.001347
7.900000E-9	-0.000859
7.950000E-9	-0.000737
8.000000E-9	-0.000922
8.050000E-9	-0.001344
8.100000E-9	-0.001959
8.150000E-9	-0.002723
8.200000E-9	-0.003508
8.250000E-9	-0.004183
8.300000E-9	-0.004739
8.350000E-9	-0.004973
8.400000E-9	-0.005058
8.450000E-9	-0.004798
8.500000E-9	-0.004314
8.550000E-9	-0.003566
8.600000E-9	-0.002688
8.650000E-9	-0.001730
8.700000E-9	-0.000823
8.750000E-9	-2.343750E-5
8.800000E-9	0.000534
8.850000E-9	0.000848
8.900000E-9	0.000870
8.950000E-9	0.000642
9.000000E-9	0.000120
9.050000E-9	-0.000558
9.100000E-9	-0.001341
9.150000E-9	-0.002128
9.200000E-9	-0.002841
9.250000E-9	-0.003344
9.300000E-9	-0.003555
9.350000E-9	-0.003528
9.400000E-9	-0.003220
9.450000E-9	-0.002623
9.500000E-9	-0.001850
9.550000E-9	-0.000927
9.600000E-9	3.281250E-5
9.650000E-9	0.000845
9.700000E-9	0.001484
9.750000E-9	0.001948
9.800000E-9	0.002061
9.850000E-9	0.001819
9.900000E-9	0.001348
9.950000E-9	0.000670
1.000000E-8	-0.000111
1.005000E-8	-0.000942
1.010000E-8	-0.001678
1.015000E-8	-0.002303
1.020000E-8	-0.002697
1.025000E-8	-0.002875
1.030000E-8	-0.002692
1.035000E-8	-0.002203
1.040000E-8	-0.001486
1.045000E-8	-0.000642
1.050000E-8	0.000286
1.055000E-8	0.001242
1.060000E-8	0.002113
1.065000E-8	0.002737
1.070000E-8	0.003053
1.075000E-8	0.003133
1.080000E-8	0.002791
1.085000E-8	0.002303
1.090000E-8	0.001569
1.095000E-8	0.000659
1.100000E-8	-0.000269
1.105000E-8	-0.001036
1.110000E-8	-0.001725
1.115000E-8	-0.002087
1.120000E-8	-0.002239
1.125000E-8	-0.001967
1.130000E-8	-0.001486
1.135000E-8	-0.000750
1.140000E-8	0.000158
1.145000E-8	0.001092
1.150000E-8	0.001927
1.155000E-8	0.002673
1.160000E-8	0.003042
1.165000E-8	0.003197
1.170000E-8	0.003159
1.175000E-8	0.002831
1.180000E-8	0.002170
1.185000E-8	0.001445
1.190000E-8	0.000580
1.195000E-8	-0.000236
1.200000E-8	-0.000934
1.205000E-8	-0.001450
1.210000E-8	-0.001752
1.215000E-8	-0.001783
1.220000E-8	-0.001500
1.225000E-8	-0.001014
1.230000E-8	-0.000350
1.235000E-8	0.000450
1.240000E-8	0.001275
1.245000E-8	0.002061
1.250000E-8	0.002555
1.255000E-8	0.002977
1.260000E-8	0.003120
1.265000E-8	0.002939
1.270000E-8	0.002548
1.275000E-8	0.001891
1.280000E-8	0.001144
1.285000E-8	0.000358
1.290000E-8	-0.000350
1.295000E-8	-0.000934
1.300000E-8	-0.001317
1.305000E-8	-0.001455
1.310000E-8	-0.001280
1.315000E-8	-0.000870
1.320000E-8	-0.000170
1.325000E-8	0.000638
1.330000E-8	0.001489
1.335000E-8	0.002384
1.340000E-8	0.002995
1.345000E-8	0.003422
1.350000E-8	0.003600
1.355000E-8	0.003466
1.360000E-8	0.003064
1.365000E-8	0.002508
1.370000E-8	0.001647
1.375000E-8	0.000878
1.380000E-8	0.000136
1.385000E-8	-0.000525
1.390000E-8	-0.000922
1.395000E-8	-0.001091
1.400000E-8	-0.001072
1.405000E-8	-0.000692
1.410000E-8	-0.000136
1.415000E-8	0.000581
1.420000E-8	0.001305
1.425000E-8	0.002120
1.430000E-8	0.002767
1.435000E-8	0.003297
1.440000E-8	0.003569
1.445000E-8	0.003653
1.450000E-8	0.003408
1.455000E-8	0.003083
1.460000E-8	0.002503
1.465000E-8	0.001836
1.470000E-8	0.001077
1.475000E-8	0.000431
1.480000E-8	-0.000141
1.485000E-8	-0.000544
1.490000E-8	-0.000763
1.495000E-8	-0.000741
1.500000E-8	-0.000573
1.505000E-8	-0.000116
1.510000E-8	0.000458
1.515000E-8	0.001095
1.520000E-8	0.001767
1.525000E-8	0.002353
1.530000E-8	0.002805
1.535000E-8	0.003042
1.540000E-8	0.003069
1.545000E-8	0.002938
1.550000E-8	0.002534
1.555000E-8	0.001984
1.560000E-8	0.001252
1.565000E-8	0.000563
1.570000E-8	-0.000142
1.575000E-8	-0.000527
1.580000E-8	-0.000844
1.585000E-8	-0.000944
1.590000E-8	-0.000783
1.595000E-8	-0.000412
1.600000E-8	0.000166
1.605000E-8	0.000834
1.610000E-8	0.001597
1.615000E-8	0.002281
1.620000E-8	0.002883
1.625000E-8	0.003288
1.630000E-8	0.003525
1.635000E-8	0.003519
1.640000E-8	0.003242
1.645000E-8	0.002839
1.650000E-8	0.002250
1.655000E-8	0.001573
1.660000E-8	0.000898
1.665000E-8	0.000250
1.670000E-8	-0.000213
1.675000E-8	-0.000428
1.680000E-8	-0.000541
1.685000E-8	-0.000325
1.690000E-8	5.312500E-5
1.695000E-8	0.000652
1.700000E-8	0.001289
1.705000E-8	0.002106
1.710000E-8	0.002691
1.715000E-8	0.003191
1.720000E-8	0.003436
1.725000E-8	0.003530
1.730000E-8	0.003367
1.735000E-8	0.002983
1.740000E-8	0.002333
1.745000E-8	0.001692
1.750000E-8	0.000998
1.755000E-8	0.000380
1.760000E-8	-0.000188
1.765000E-8	-0.000531
1.770000E-8	-0.000689
1.775000E-8	-0.000597
1.780000E-8	-0.000325
1.785000E-8	0.000170
1.790000E-8	0.000741
1.795000E-8	0.001358
1.800000E-8	0.001919
1.805000E-8	0.002475
1.810000E-8	0.002852
1.815000E-8	0.003083
1.820000E-8	0.003122
1.825000E-8	0.002983
1.830000E-8	0.002636
1.835000E-8	0.002161
1.840000E-8	0.001598
1.845000E-8	0.000952
1.850000E-8	0.000375
1.855000E-8	-5.000000E-5
1.860000E-8	-0.000356
1.865000E-8	-0.000519
1.870000E-8	-0.000423
1.875000E-8	-8.750000E-5
1.880000E-8	0.000394
1.885000E-8	0.000978
1.890000E-8	0.001678
1.895000E-8	0.002319
1.900000E-8	0.002920
1.905000E-8	0.003286
1.910000E-8	0.003520
1.915000E-8	0.003461
1.920000E-8	0.003161
1.925000E-8	0.002728
1.930000E-8	0.002042
1.935000E-8	0.001420
1.940000E-8	0.000719
1.945000E-8	0.000195
1.950000E-8	-0.000298
1.955000E-8	-0.000578
1.960000E-8	-0.000622
1.965000E-8	-0.000408
1.970000E-8	-4.531250E-5
1.975000E-8	0.000534
1.980000E-8	0.001267
1.985000E-8	0.001992
1.990000E-8	0.002597
1.995000E-8	0.003080
2.000000E-8	0.003398
2.005000E-8	0.003500
2.010000E-8	0.003259
2.015000E-8	0.002941
2.020000E-8	0.002370
2.025000E-8	0.001808
2.030000E-8	0.001209
2.035000E-8	0.000673
2.040000E-8	0.000127
2.045000E-8	-9.687500E-5
2.050000E-8	-0.000247
2.055000E-8	-7.187500E-5
2.060000E-8	0.000234
2.065000E-8	0.000697
2.070000E-8	0.001295
2.075000E-8	0.001891
2.080000E-8	0.002422
2.085000E-8	0.002867
2.090000E-8	0.003155
2.095000E-8	0.003319
2.100000E-8	0.003173
2.105000E-8	0.002967
2.110000E-8	0.002480
2.115000E-8	0.002005
2.120000E-8	0.001466
2.125000E-8	0.000992
2.130000E-8	0.000548
2.135000E-8	0.000252
2.140000E-8	0.000100
2.145000E-8	6.406250E-5
2.150000E-8	0.000256
2.155000E-8	0.000598
2.160000E-8	0.001019
2.165000E-8	0.001509
2.170000E-8	0.002094
2.175000E-8	0.002517
2.180000E-8	0.002908
2.185000E-8	0.003178
2.190000E-8	0.003200
2.195000E-8	0.003069
2.200000E-8	0.002781
2.205000E-8	0.002467
2.210000E-8	0.001953
2.215000E-8	0.001442
2.220000E-8	0.000906
2.225000E-8	0.000594
2.230000E-8	0.000308
2.235000E-8	0.000169
2.240000E-8	0.000227
2.245000E-8	0.000431
2.250000E-8	0.000853
2.255000E-8	0.001405
2.260000E-8	0.001830
2.265000E-8	0.002300
2.270000E-8	0.002780
2.275000E-8	0.003077
2.280000E-8	0.003189
2.285000E-8	0.003213
2.290000E-8	0.003034
2.295000E-8	0.002734
2.300000E-8	0.002247
2.305000E-8	0.001748
2.310000E-8	0.001222
2.315000E-8	0.000748
2.320000E-8	0.000408
2.325000E-8	0.000128
2.330000E-8	7.187500E-5
2.335000E-8	0.000161
2.340000E-8	0.000463
2.345000E-8	0.000897
2.350000E-8	0.001350
2.355000E-8	0.001820
2.360000E-8	0.002233
2.365000E-8	0.002616
2.370000E-8	0.002856
2.375000E-8	0.002944
2.380000E-8	0.002777
2.385000E-8	0.002597
2.390000E-8	0.002186
2.395000E-8	0.001805
2.400000E-8	0.001345
2.405000E-8	0.000942
2.410000E-8	0.000534
2.415000E-8	0.000247
2.420000E-8	0.000170
2.425000E-8	0.000175
2.430000E-8	0.000361
2.435000E-8	0.000761
2.440000E-8	0.001159
2.445000E-8	0.001570
2.450000E-8	0.002002
2.455000E-8	0.002452
2.460000E-8	0.002733
2.465000E-8	0.002933
2.470000E-8	0.002950
2.475000E-8	0.002836
2.480000E-8	0.002589
2.485000E-8	0.002275
2.490000E-8	0.001863
2.495000E-8	0.001402
2.500000E-8	0.000923
2.505000E-8	0.000522
2.510000E-8	0.000330
2.515000E-8	0.000192
2.520000E-8	0.000242
2.525000E-8	0.000425
2.530000E-8	0.000752
2.535000E-8	0.001067
2.540000E-8	0.001491
2.545000E-8	0.001931
2.550000E-8	0.002347
2.555000E-8	0.002647
2.560000E-8	0.002795
2.565000E-8	0.002909
2.570000E-8	0.002720
2.575000E-8	0.002502
2.580000E-8	0.002073
2.585000E-8	0.001659
2.590000E-8	0.001164
2.595000E-8	0.000737
2.600000E-8	0.000319
2.605000E-8	5.468750E-5
2.610000E-8	-1.250000E-5
2.615000E-8	7.500000E-5
2.620000E-8	0.000281
2.625000E-8	0.000675
2.630000E-8	0.001083
2.635000E-8	0.001541
2.640000E-8	0.001995
2.645000E-8	0.002378
2.650000E-8	0.002617
2.655000E-8	0.002828
2.660000E-8	0.002789
2.665000E-8	0.002659
2.670000E-8	0.002239
2.675000E-8	0.001841
2.680000E-8	0.001295
2.685000E-8	0.000795
2.690000E-8	0.000311
2.695000E-8	-4.218750E-5
2.700000E-8	-0.000198
2.705000E-8	-0.000131
2.710000E-8	6.562500E-5
2.715000E-8	0.000431
2.720000E-8	0.000966
2.725000E-8	0.001461
2.730000E-8	0.001961
2.735000E-8	0.002450
2.740000E-8	0.002747
2.745000E-8	0.002902
2.750000E-8	0.002905
2.755000E-8	0.002798
2.760000E-8	0.002478
2.765000E-8	0.002192
2.770000E-8	0.001827
2.775000E-8	0.001398
2.780000E-8	0.001005
2.785000E-8	0.000705
2.790000E-8	0.000491
2.795000E-8	0.000395
2.800000E-8	0.000369
2.805000E-8	0.000509
2.810000E-8	0.000695
2.815000E-8	0.001100
2.820000E-8	0.001459
2.825000E-8	0.001831
2.830000E-8	0.002181
2.835000E-8	0.002550
2.840000E-8	0.002680
2.845000E-8	0.002692
2.850000E-8	0.002514
2.855000E-8	0.002216
2.860000E-8	0.001934
2.865000E-8	0.001503
2.870000E-8	0.001080
2.875000E-8	0.000695
2.880000E-8	0.000391
2.885000E-8	0.000208
2.890000E-8	0.000189
2.895000E-8	0.000263
2.900000E-8	0.000558
2.905000E-8	0.000894
2.910000E-8	0.001309
2.915000E-8	0.001723
2.920000E-8	0.002086
2.925000E-8	0.002497
2.930000E-8	0.002652
2.935000E-8	0.002702
2.940000E-8	0.002587
2.945000E-8	0.002383
2.950000E-8	0.002127
2.955000E-8	0.001730
2.960000E-8	0.001283
2.965000E-8	0.000892
2.970000E-8	0.000569
2.975000E-8	0.000416
2.980000E-8	0.000313
2.985000E-8	0.000358
2.990000E-8	0.000550
2.995000E-8	0.000859
3.000000E-8	0.001213
3.005000E-8	0.001672
3.010000E-8	0.001988
3.015000E-8	0.002338
3.020000E-8	0.002506
3.025000E-8	0.002681
3.030000E-8	0.002667
3.035000E-8	0.002553
3.040000E-8	0.002313
3.045000E-8	0.001977
3.050000E-8	0.001531
3.055000E-8	0.001164
3.060000E-8	0.000745
3.065000E-8	0.000325
3.070000E-8	0.000122
3.075000E-8	2.031250E-5
3.080000E-8	-2.500000E-5
3.085000E-8	0.000236
3.090000E-8	0.000570
3.095000E-8	0.000980
3.100000E-8	0.001444
3.105000E-8	0.001864
3.110000E-8	0.002263
3.115000E-8	0.002609
3.120000E-8	0.002742
3.125000E-8	0.002820
3.130000E-8	0.002737
3.135000E-8	0.002542
3.140000E-8	0.002134
3.145000E-8	0.001825
3.150000E-8	0.001389
3.155000E-8	0.001053
3.160000E-8	0.000750
3.165000E-8	0.000503
3.170000E-8	0.000323
3.175000E-8	0.000425
3.180000E-8	0.000605
3.185000E-8	0.000973
3.190000E-8	0.001369
3.195000E-8	0.001770
3.200000E-8	0.002231
3.205000E-8	0.002602
3.210000E-8	0.002764
3.215000E-8	0.002859
3.220000E-8	0.002828
3.225000E-8	0.002619
3.230000E-8	0.002291
3.235000E-8	0.001952
3.240000E-8	0.001559
3.245000E-8	0.001186
3.250000E-8	0.000831
3.255000E-8	0.000578
3.260000E-8	0.000511
3.265000E-8	0.000500
3.270000E-8	0.000602
3.275000E-8	0.000913
3.280000E-8	0.001112
3.285000E-8	0.001494
3.290000E-8	0.001816
3.295000E-8	0.002177
3.300000E-8	0.002445
3.305000E-8	0.002634
3.310000E-8	0.002645
3.315000E-8	0.002688
3.320000E-8	0.002489
3.325000E-8	0.002328
3.330000E-8	0.002017
3.335000E-8	0.001758
3.340000E-8	0.001450
3.345000E-8	0.001245
3.350000E-8	0.001006
3.355000E-8	0.000895
3.360000E-8	0.000781
3.365000E-8	0.000830
3.370000E-8	0.000994
3.375000E-8	0.001211
3.380000E-8	0.001475
3.385000E-8	0.001803
3.390000E-8	0.002158
3.395000E-8	0.002383
3.400000E-8	0.002534
3.405000E-8	0.002595
3.410000E-8	0.002563
3.415000E-8	0.002394
3.420000E-8	0.002103
3.425000E-8	0.001855
3.430000E-8	0.001527
3.435000E-8	0.001233
3.440000E-8	0.000933
3.445000E-8	0.000769
3.450000E-8	0.000742
3.455000E-8	0.000678
3.460000E-8	0.000794
3.465000E-8	0.001048
3.470000E-8	0.001258
3.475000E-8	0.001533
3.480000E-8	0.001744
3.485000E-8	0.002009
3.490000E-8	0.002147
3.495000E-8	0.002292
3.500000E-8	0.002295
3.505000E-8	0.002173
3.510000E-8	0.002053
3.515000E-8	0.001791
3.520000E-8	0.001572
3.525000E-8	0.001264
3.530000E-8	0.001014
3.535000E-8	0.000889
3.540000E-8	0.000766
3.545000E-8	0.000788
3.550000E-8	0.000873
3.555000E-8	0.001048
3.560000E-8	0.001252
3.565000E-8	0.001533
3.570000E-8	0.001852
3.575000E-8	0.002116
3.580000E-8	0.002278
3.585000E-8	0.002448
3.590000E-8	0.002512
3.595000E-8	0.002450
3.600000E-8	0.002336
3.605000E-8	0.002162
3.610000E-8	0.001859
3.615000E-8	0.001589
3.620000E-8	0.001284
3.625000E-8	0.000983
3.630000E-8	0.000770
3.635000E-8	0.000641
3.640000E-8	0.000589
3.645000E-8	0.000698
3.650000E-8	0.000891
3.655000E-8	0.001120
3.660000E-8	0.001383
3.665000E-8	0.001656
3.670000E-8	0.001914
3.675000E-8	0.002138
3.680000E-8	0.002223
3.685000E-8	0.002291
3.690000E-8	0.002233
3.695000E-8	0.002100
3.700000E-8	0.001813
3.705000E-8	0.001597
3.710000E-8	0.001362
3.715000E-8	0.001109
3.720000E-8	0.000884
3.725000E-8	0.000737
3.730000E-8	0.000777
3.735000E-8	0.000805
3.740000E-8	0.000917
3.745000E-8	0.001141
3.750000E-8	0.001384
3.755000E-8	0.001728
3.760000E-8	0.002041
3.765000E-8	0.002322
3.770000E-8	0.002519
3.775000E-8	0.002644
3.780000E-8	0.002608
3.785000E-8	0.002561
3.790000E-8	0.002380
3.795000E-8	0.002103
3.800000E-8	0.001816
3.805000E-8	0.001544
3.810000E-8	0.001298
3.815000E-8	0.001055
3.820000E-8	0.000927
3.825000E-8	0.000950
3.830000E-8	0.001014
3.835000E-8	0.001170
3.840000E-8	0.001427
3.845000E-8	0.001694
3.850000E-8	0.001888
3.855000E-8	0.002098
3.860000E-8	0.002289
3.865000E-8	0.002327
3.870000E-8	0.002345
3.875000E-8	0.002248
3.880000E-8	0.002050
3.885000E-8	0.001881
3.890000E-8	0.001638
3.895000E-8	0.001411
3.900000E-8	0.001170
3.905000E-8	0.001011
3.910000E-8	0.000917
3.915000E-8	0.000839
3.920000E-8	0.000888
3.925000E-8	0.001022
3.930000E-8	0.001169
3.935000E-8	0.001441
3.940000E-8	0.001630
3.945000E-8	0.001919
3.950000E-8	0.002130
3.955000E-8	0.002325
3.960000E-8	0.002366
3.965000E-8	0.002338
3.970000E-8	0.002256
3.975000E-8	0.002097
3.980000E-8	0.001841
3.985000E-8	0.001578
3.990000E-8	0.001297
3.995000E-8	0.001053
4.000000E-8	0.000792
4.005000E-8	0.000641
4.010000E-8	0.000511
4.015000E-8	0.000555
4.020000E-8	0.000591
4.025000E-8	0.000794
4.030000E-8	0.001025
4.035000E-8	0.001336
4.040000E-8	0.001533
4.045000E-8	0.001811
4.050000E-8	0.002023
4.055000E-8	0.002105
4.060000E-8	0.002173
4.065000E-8	0.002108
4.070000E-8	0.002036
4.075000E-8	0.001834
4.080000E-8	0.001569
4.085000E-8	0.001362
4.090000E-8	0.001080
4.095000E-8	0.000966
4.100000E-8	0.000789
4.105000E-8	0.000803
4.110000E-8	0.000878
4.115000E-8	0.001023
4.120000E-8	0.001167
4.125000E-8	0.001503
4.130000E-8	0.001750
4.135000E-8	0.001992
4.140000E-8	0.002230
4.145000E-8	0.002350
4.150000E-8	0.002452
4.155000E-8	0.002353
4.160000E-8	0.002230
4.165000E-8	0.002050
4.170000E-8	0.001750
4.175000E-8	0.001547
4.180000E-8	0.001273
4.185000E-8	0.000967
4.190000E-8	0.000823
4.195000E-8	0.000709
4.200000E-8	0.000625
4.205000E-8	0.000677
4.210000E-8	0.000828
4.215000E-8	0.001094
4.220000E-8	0.001325
4.225000E-8	0.001622
4.230000E-8	0.001942
4.235000E-8	0.002198
4.240000E-8	0.002334
4.245000E-8	0.002423
4.250000E-8	0.002381
4.255000E-8	0.002281
4.260000E-8	0.002023
4.265000E-8	0.001792
4.270000E-8	0.001447
4.275000E-8	0.001150
4.280000E-8	0.000891
4.285000E-8	0.000795
4.290000E-8	0.000694
4.295000E-8	0.000739
4.300000E-8	0.000777
4.305000E-8	0.001008
4.310000E-8	0.001292
4.315000E-8	0.001595
4.320000E-8	0.001855
4.325000E-8	0.002033
4.330000E-8	0.002258
4.335000E-8	0.002442
4.340000E-8	0.002395
4.345000E-8	0.002339
4.350000E-8	0.002242
4.355000E-8	0.001994
4.360000E-8	0.001730
4.365000E-8	0.001456
4.370000E-8	0.001183
4.375000E-8	0.000973
4.380000E-8	0.000864
4.385000E-8	0.000839
4.390000E-8	0.000866
4.395000E-8	0.001011
4.400000E-8	0.001180
4.405000E-8	0.001414
4.410000E-8	0.001617
4.415000E-8	0.001903
4.420000E-8	0.002017
4.425000E-8	0.002061
4.430000E-8	0.002028
4.435000E-8	0.001988
4.440000E-8	0.001842
4.445000E-8	0.001650
4.450000E-8	0.001511
4.455000E-8	0.001302
4.460000E-8	0.001117
4.465000E-8	0.001042
4.470000E-8	0.000892
4.475000E-8	0.000977
4.480000E-8	0.000983
4.485000E-8	0.001153
4.490000E-8	0.001283
4.495000E-8	0.001497
4.500000E-8	0.001639
4.505000E-8	0.001894
4.510000E-8	0.001992
4.515000E-8	0.002139
4.520000E-8	0.002100
4.525000E-8	0.002136
4.530000E-8	0.002075
4.535000E-8	0.001955
4.540000E-8	0.001761
4.545000E-8	0.001569
4.550000E-8	0.001389
4.555000E-8	0.001234
4.560000E-8	0.001078
4.565000E-8	0.001063
4.570000E-8	0.001059
4.575000E-8	0.001116
4.580000E-8	0.001202
4.585000E-8	0.001383
4.590000E-8	0.001541
4.595000E-8	0.001702
4.600000E-8	0.001894
4.605000E-8	0.002053
4.610000E-8	0.002122
4.615000E-8	0.002213
4.620000E-8	0.002109
4.625000E-8	0.002056
4.630000E-8	0.001941
4.635000E-8	0.001753
4.640000E-8	0.001456
4.645000E-8	0.001336
4.650000E-8	0.001130
4.655000E-8	0.001108
4.660000E-8	0.001063
4.665000E-8	0.001095
4.670000E-8	0.001131
4.675000E-8	0.001314
4.680000E-8	0.001442
4.685000E-8	0.001695
4.690000E-8	0.001863
4.695000E-8	0.002072
4.700000E-8	0.002253
4.705000E-8	0.002316
4.710000E-8	0.002350
4.715000E-8	0.002358
4.720000E-8	0.002197
4.725000E-8	0.002080
4.730000E-8	0.001814
4.735000E-8	0.001638
4.740000E-8	0.001405
4.745000E-8	0.001220
4.750000E-8	0.001006
4.755000E-8	0.000950
4.760000E-8	0.000898
4.765000E-8	0.000981
4.770000E-8	0.001144
4.775000E-8	0.001323
4.780000E-8	0.001553
4.785000E-8	0.001797
4.790000E-8	0.001967
4.795000E-8	0.002108
4.800000E-8	0.002200
4.805000E-8	0.002169
4.810000E-8	0.002072
4.815000E-8	0.001925
4.820000E-8	0.001638
4.825000E-8	0.001395
4.830000E-8	0.001086
4.835000E-8	0.000866
4.840000E-8	0.000681
4.845000E-8	0.000639
4.850000E-8	0.000641
4.855000E-8	0.000717
4.860000E-8	0.000938
4.865000E-8	0.001195
4.870000E-8	0.001469
4.875000E-8	0.001730
4.880000E-8	0.001953
4.885000E-8	0.002098
4.890000E-8	0.002244
4.895000E-8	0.002295
4.900000E-8	0.002191
4.905000E-8	0.002116
4.910000E-8	0.001945
4.915000E-8	0.001770
4.920000E-8	0.001597
4.925000E-8	0.001436
4.930000E-8	0.001197
4.935000E-8	0.001034
4.940000E-8	0.000961
4.945000E-8	0.000911
4.950000E-8	0.000897
4.955000E-8	0.001105
4.960000E-8	0.001198
4.965000E-8	0.001466
4.970000E-8	0.001691
4.975000E-8	0.001930
4.980000E-8	0.002162
4.985000E-8	0.002306
4.990000E-8	0.002386
4.995000E-8	0.002331
5.000000E-8	0.002133
5.005000E-8	0.002016
5.010000E-8	0.001761
5.015000E-8	0.001547
5.020000E-8	0.001233
5.025000E-8	0.001048
5.030000E-8	0.000894
5.035000E-8	0.000778
5.040000E-8	0.000761
5.045000E-8	0.000863
5.050000E-8	0.001033
5.055000E-8	0.001184
5.060000E-8	0.001367
5.065000E-8	0.001592
5.070000E-8	0.001722
5.075000E-8	0.001878
5.080000E-8	0.001928
5.085000E-8	0.001889
5.090000E-8	0.001798
5.095000E-8	0.001713
5.100000E-8	0.001591
5.105000E-8	0.001388
5.110000E-8	0.001217
5.115000E-8	0.001100
5.120000E-8	0.000892
5.125000E-8	0.000855
5.130000E-8	0.000789
5.135000E-8	0.000833
5.140000E-8	0.000903
5.145000E-8	0.001048
5.150000E-8	0.001206
5.155000E-8	0.001394
5.160000E-8	0.001614
5.165000E-8	0.001864
5.170000E-8	0.001995
5.175000E-8	0.002161
5.180000E-8	0.002219
5.185000E-8	0.002209
5.190000E-8	0.002213
5.195000E-8	0.002086
5.200000E-8	0.001839
5.205000E-8	0.001713
5.210000E-8	0.001427
5.215000E-8	0.001277
5.220000E-8	0.001139
5.225000E-8	0.001083
5.230000E-8	0.001163
5.235000E-8	0.001239
5.240000E-8	0.001378
5.245000E-8	0.001672
5.250000E-8	0.001922
5.255000E-8	0.002097
5.260000E-8	0.002248
5.265000E-8	0.002305
5.270000E-8	0.002358
5.275000E-8	0.002316
5.280000E-8	0.002158
5.285000E-8	0.001937
5.290000E-8	0.001678
5.295000E-8	0.001431
5.300000E-8	0.001186
5.305000E-8	0.001066
5.310000E-8	0.000911
5.315000E-8	0.000833
5.320000E-8	0.000878
5.325000E-8	0.001050
5.330000E-8	0.001198
5.335000E-8	0.001362
5.340000E-8	0.001506
5.345000E-8	0.001691
5.350000E-8	0.001831
5.355000E-8	0.001850
5.360000E-8	0.001847
5.365000E-8	0.001839
5.370000E-8	0.001719
5.375000E-8	0.001633
5.380000E-8	0.001539
5.385000E-8	0.001394
5.390000E-8	0.001238
5.395000E-8	0.001236
5.400000E-8	0.001122
5.405000E-8	0.001086
5.410000E-8	0.001109
5.415000E-8	0.001234
5.420000E-8	0.001289
5.425000E-8	0.001361
5.430000E-8	0.001522
5.435000E-8	0.001641
5.440000E-8	0.001803
5.445000E-8	0.001916
5.450000E-8	0.001989
5.455000E-8	0.002067
5.460000E-8	0.002080
5.465000E-8	0.002063
5.470000E-8	0.001955
5.475000E-8	0.001842
5.480000E-8	0.001653
5.485000E-8	0.001447
5.490000E-8	0.001195
5.495000E-8	0.001067
5.500000E-8	0.000969
5.505000E-8	0.000948
5.510000E-8	0.000934
5.515000E-8	0.001053
5.520000E-8	0.001117
5.525000E-8	0.001375
5.530000E-8	0.001594
5.535000E-8	0.001791
5.540000E-8	0.001902
5.545000E-8	0.001997
5.550000E-8	0.002038
5.555000E-8	0.001986
5.560000E-8	0.001833
5.565000E-8	0.001684
5.570000E-8	0.001475
5.575000E-8	0.001256
5.580000E-8	0.001083
5.585000E-8	0.000958
5.590000E-8	0.000783
5.595000E-8	0.000788
5.600000E-8	0.000778
5.605000E-8	0.000894
5.610000E-8	0.001005
5.615000E-8	0.001214
5.620000E-8	0.001369
5.625000E-8	0.001473
5.630000E-8	0.001547
5.635000E-8	0.001638
5.640000E-8	0.001602
5.645000E-8	0.001569
5.650000E-8	0.001497
5.655000E-8	0.001398
5.660000E-8	0.001283
5.665000E-8	0.001158
5.670000E-8	0.001064
5.675000E-8	0.001069
5.680000E-8	0.001017
5.685000E-8	0.001003
5.690000E-8	0.001044
5.695000E-8	0.001125
5.700000E-8	0.001159
5.705000E-8	0.001255
5.710000E-8	0.001372
5.715000E-8	0.001522
5.720000E-8	0.001580
5.725000E-8	0.001745
5.730000E-8	0.001816
5.735000E-8	0.001916
5.740000E-8	0.001942
5.745000E-8	0.001937
5.750000E-8	0.001966
5.755000E-8	0.001877
5.760000E-8	0.001670
5.765000E-8	0.001570
5.770000E-8	0.001523
5.775000E-8	0.001428
5.780000E-8	0.001395
5.785000E-8	0.001355
5.790000E-8	0.001430
5.795000E-8	0.001530
5.800000E-8	0.001644
5.805000E-8	0.001808
5.810000E-8	0.001988
5.815000E-8	0.002214
5.820000E-8	0.002286
5.825000E-8	0.002430
5.830000E-8	0.002422
5.835000E-8	0.002441
5.840000E-8	0.002294
5.845000E-8	0.002130
5.850000E-8	0.001889
5.855000E-8	0.001652
5.860000E-8	0.001391
5.865000E-8	0.001169
5.870000E-8	0.000991
5.875000E-8	0.000897
5.880000E-8	0.000831
5.885000E-8	0.000836
5.890000E-8	0.000944
5.895000E-8	0.001123
5.900000E-8	0.001241
5.905000E-8	0.001373
5.910000E-8	0.001473
5.915000E-8	0.001661
5.920000E-8	0.001644
5.925000E-8	0.001545
5.930000E-8	0.001511
5.935000E-8	0.001433
5.940000E-8	0.001303
5.945000E-8	0.001194
5.950000E-8	0.001086
5.955000E-8	0.001048
5.960000E-8	0.001038
5.965000E-8	0.001169
5.970000E-8	0.001223
5.975000E-8	0.001344
5.980000E-8	0.001469
5.985000E-8	0.001631
5.990000E-8	0.001797
5.995000E-8	0.001937
6.000000E-8	0.002031
6.005000E-8	0.002147
6.010000E-8	0.002197
6.015000E-8	0.002200
6.020000E-8	0.002261
6.025000E-8	0.002113
6.030000E-8	0.002033
6.035000E-8	0.001905
6.040000E-8	0.001761
6.045000E-8	0.001559
6.050000E-8	0.001447
6.055000E-8	0.001289
6.060000E-8	0.001203
6.065000E-8	0.001205
6.070000E-8	0.001272
6.075000E-8	0.001322
6.080000E-8	0.001503
6.085000E-8	0.001686
6.090000E-8	0.001769
6.095000E-8	0.001916
6.100000E-8	0.002064
6.105000E-8	0.002094
6.110000E-8	0.002070
6.115000E-8	0.001970
6.120000E-8	0.001923
6.125000E-8	0.001734
6.130000E-8	0.001623
6.135000E-8	0.001539
6.140000E-8	0.001350
6.145000E-8	0.001209
6.150000E-8	0.001034
6.155000E-8	0.001056
6.160000E-8	0.000981
6.165000E-8	0.001117
6.170000E-8	0.001203
6.175000E-8	0.001423
6.180000E-8	0.001578
6.185000E-8	0.001802
6.190000E-8	0.002028
6.195000E-8	0.002155
6.200000E-8	0.002173
6.205000E-8	0.002197
6.210000E-8	0.002150
6.215000E-8	0.002050
6.220000E-8	0.001877
6.225000E-8	0.001623
6.230000E-8	0.001461
6.235000E-8	0.001316
6.240000E-8	0.001197
6.245000E-8	0.001091
6.250000E-8	0.001073
6.255000E-8	0.001138
6.260000E-8	0.001247
6.265000E-8	0.001380
6.270000E-8	0.001516
6.275000E-8	0.001686
6.280000E-8	0.001698
6.285000E-8	0.001881
6.290000E-8	0.001808
6.295000E-8	0.001863
6.300000E-8	0.001806
6.305000E-8	0.001748
6.310000E-8	0.001659
6.315000E-8	0.001503
6.320000E-8	0.001406
6.325000E-8	0.001273
6.330000E-8	0.001164
6.335000E-8	0.001142
6.340000E-8	0.001075
6.345000E-8	0.001094
6.350000E-8	0.001142
6.355000E-8	0.001314
6.360000E-8	0.001389
6.365000E-8	0.001500
6.370000E-8	0.001528
6.375000E-8	0.001598
6.380000E-8	0.001659
6.385000E-8	0.001722
6.390000E-8	0.001634
6.395000E-8	0.001612
6.400000E-8	0.001566
6.405000E-8	0.001486
6.410000E-8	0.001344
6.415000E-8	0.001230
6.420000E-8	0.001122
6.425000E-8	0.001058
6.430000E-8	0.000903
6.435000E-8	0.000947
6.440000E-8	0.000913
6.445000E-8	0.001005
6.450000E-8	0.001095
6.455000E-8	0.001339
6.460000E-8	0.001480
6.465000E-8	0.001647
6.470000E-8	0.001759
6.475000E-8	0.001969
6.480000E-8	0.001978
6.485000E-8	0.002097
6.490000E-8	0.002036
6.495000E-8	0.002012
6.500000E-8	0.001766
6.505000E-8	0.001687
6.510000E-8	0.001489
6.515000E-8	0.001308
6.520000E-8	0.001155
6.525000E-8	0.001067
6.530000E-8	0.000975
6.535000E-8	0.000963
6.540000E-8	0.000986
6.545000E-8	0.001075
6.550000E-8	0.001167
6.555000E-8	0.001283
6.560000E-8	0.001336
6.565000E-8	0.001437
6.570000E-8	0.001478
6.575000E-8	0.001495
6.580000E-8	0.001520
6.585000E-8	0.001413
6.590000E-8	0.001367
6.595000E-8	0.001323
6.600000E-8	0.001205
6.605000E-8	0.001125
6.610000E-8	0.001106
6.615000E-8	0.001105
6.620000E-8	0.001067
6.625000E-8	0.001127
6.630000E-8	0.001169
6.635000E-8	0.001217
6.640000E-8	0.001239
6.645000E-8	0.001291
6.650000E-8	0.001389
6.655000E-8	0.001570
6.660000E-8	0.001572
6.665000E-8	0.001603
6.670000E-8	0.001614
6.675000E-8	0.001572
6.680000E-8	0.001561
6.685000E-8	0.001464
6.690000E-8	0.001405
6.695000E-8	0.001319
6.700000E-8	0.001239
6.705000E-8	0.001123
6.710000E-8	0.001097
6.715000E-8	0.001138
6.720000E-8	0.001119
6.725000E-8	0.001111
6.730000E-8	0.001222
6.735000E-8	0.001306
6.740000E-8	0.001395
6.745000E-8	0.001542
6.750000E-8	0.001619
6.755000E-8	0.001700
6.760000E-8	0.001742
6.765000E-8	0.001780
6.770000E-8	0.001769
6.775000E-8	0.001713
6.780000E-8	0.001592
6.785000E-8	0.001488
6.790000E-8	0.001391
6.795000E-8	0.001328
6.800000E-8	0.001195
6.805000E-8	0.001236
6.810000E-8	0.001200
6.815000E-8	0.001328
6.820000E-8	0.001428
6.825000E-8	0.001520
6.830000E-8	0.001647
6.835000E-8	0.001819
6.840000E-8	0.001839
6.845000E-8	0.001858
6.850000E-8	0.001809
6.855000E-8	0.001816
6.860000E-8	0.001778
6.865000E-8	0.001663
6.870000E-8	0.001577
6.875000E-8	0.001484
6.880000E-8	0.001448
6.885000E-8	0.001434
6.890000E-8	0.001384
6.895000E-8	0.001417
6.900000E-8	0.001344
6.905000E-8	0.001381
6.910000E-8	0.001419
6.915000E-8	0.001545
6.920000E-8	0.001597
6.925000E-8	0.001692
6.930000E-8	0.001772
6.935000E-8	0.001816
6.940000E-8	0.001897
6.945000E-8	0.001891
6.950000E-8	0.001850
6.955000E-8	0.001791
6.960000E-8	0.001708
6.965000E-8	0.001584
6.970000E-8	0.001456
6.975000E-8	0.001325
6.980000E-8	0.001211
6.985000E-8	0.001119
6.990000E-8	0.001095
6.995000E-8	0.001023
7.000000E-8	0.001069
7.005000E-8	0.001172
7.010000E-8	0.001194
7.015000E-8	0.001389
7.020000E-8	0.001452
7.025000E-8	0.001538
7.030000E-8	0.001638
7.035000E-8	0.001722
7.040000E-8	0.001680
7.045000E-8	0.001686
7.050000E-8	0.001630
7.055000E-8	0.001553
7.060000E-8	0.001463
7.065000E-8	0.001362
7.070000E-8	0.001239
7.075000E-8	0.001181
7.080000E-8	0.001081
7.085000E-8	0.001023
7.090000E-8	0.001052
7.095000E-8	0.001081
7.100000E-8	0.001234
7.105000E-8	0.001327
7.110000E-8	0.001461
7.115000E-8	0.001628
7.120000E-8	0.001748
7.125000E-8	0.001889
7.130000E-8	0.001963
7.135000E-8	0.001972
7.140000E-8	0.001944
7.145000E-8	0.001975
7.150000E-8	0.001841
7.155000E-8	0.001706
7.160000E-8	0.001584
7.165000E-8	0.001448
7.170000E-8	0.001344
7.175000E-8	0.001311
7.180000E-8	0.001248
7.185000E-8	0.001294
7.190000E-8	0.001323
7.195000E-8	0.001458
7.200000E-8	0.001494
7.205000E-8	0.001666
7.210000E-8	0.001733
7.215000E-8	0.001764
7.220000E-8	0.001819
7.225000E-8	0.001783
7.230000E-8	0.001795
7.235000E-8	0.001802
7.240000E-8	0.001713
7.245000E-8	0.001648
7.250000E-8	0.001592
7.255000E-8	0.001477
7.260000E-8	0.001389
7.265000E-8	0.001250
7.270000E-8	0.001180
7.275000E-8	0.001155
7.280000E-8	0.001145
7.285000E-8	0.001175
7.290000E-8	0.001166
7.295000E-8	0.001313
7.300000E-8	0.001483
7.305000E-8	0.001625
7.310000E-8	0.001645
7.315000E-8	0.001831
7.320000E-8	0.001817
7.325000E-8	0.001842
7.330000E-8	0.001778
7.335000E-8	0.001691
7.340000E-8	0.001592
7.345000E-8	0.001475
7.350000E-8	0.001395
7.355000E-8	0.001264
7.360000E-8	0.001202
7.365000E-8	0.001170
7.370000E-8	0.001153
7.375000E-8	0.001208
7.380000E-8	0.001245
7.385000E-8	0.001355
7.390000E-8	0.001461
7.395000E-8	0.001598
7.400000E-8	0.001692
7.405000E-8	0.001769
7.410000E-8	0.001761
7.415000E-8	0.001798
7.420000E-8	0.001792
7.425000E-8	0.001748
7.430000E-8	0.001677
7.435000E-8	0.001647
7.440000E-8	0.001498
7.445000E-8	0.001466
7.450000E-8	0.001372
7.455000E-8	0.001344
7.460000E-8	0.001322
7.465000E-8	0.001395
7.470000E-8	0.001434
7.475000E-8	0.001567
7.480000E-8	0.001705
7.485000E-8	0.001842
7.490000E-8	0.001939
7.495000E-8	0.002020
7.500000E-8	0.002038
7.505000E-8	0.002023
7.510000E-8	0.002008
7.515000E-8	0.001941
7.520000E-8	0.001797
7.525000E-8	0.001644
7.530000E-8	0.001489
7.535000E-8	0.001384
7.540000E-8	0.001325
7.545000E-8	0.001284
7.550000E-8	0.001230
7.555000E-8	0.001223
7.560000E-8	0.001228
7.565000E-8	0.001258
7.570000E-8	0.001369
7.575000E-8	0.001505
7.580000E-8	0.001755
7.585000E-8	0.001853
7.590000E-8	0.001956
7.595000E-8	0.002009
7.600000E-8	0.001978
7.605000E-8	0.001945
7.610000E-8	0.001836
7.615000E-8	0.001722
7.620000E-8	0.001603
7.625000E-8	0.001433
7.630000E-8	0.001295
7.635000E-8	0.001236
7.640000E-8	0.001175
7.645000E-8	0.001186
7.650000E-8	0.001187
7.655000E-8	0.001250
7.660000E-8	0.001320
7.665000E-8	0.001414
7.670000E-8	0.001481
7.675000E-8	0.001611
7.680000E-8	0.001606
7.685000E-8	0.001697
7.690000E-8	0.001725
7.695000E-8	0.001750
7.700000E-8	0.001677
7.705000E-8	0.001645
7.710000E-8	0.001589
7.715000E-8	0.001567
7.720000E-8	0.001497
7.725000E-8	0.001367
7.730000E-8	0.001323
7.735000E-8	0.001353
7.740000E-8	0.001358
7.745000E-8	0.001394
7.750000E-8	0.001477
7.755000E-8	0.001536
7.760000E-8	0.001672
7.765000E-8	0.001759
7.770000E-8	0.001894
7.775000E-8	0.002017
7.780000E-8	0.002100
7.785000E-8	0.002148
7.790000E-8	0.002044
7.795000E-8	0.001984
7.800000E-8	0.001794
7.805000E-8	0.001681
7.810000E-8	0.001497
7.815000E-8	0.001453
7.820000E-8	0.001367
7.825000E-8	0.001391
7.830000E-8	0.001427
7.835000E-8	0.001491
7.840000E-8	0.001617
7.845000E-8	0.001734
7.850000E-8	0.001803
7.855000E-8	0.001864
7.860000E-8	0.001891
7.865000E-8	0.001917
7.870000E-8	0.001828
7.875000E-8	0.001820
7.880000E-8	0.001667
7.885000E-8	0.001634
7.890000E-8	0.001533
7.895000E-8	0.001464
7.900000E-8	0.001430
7.905000E-8	0.001370
7.910000E-8	0.001452
7.915000E-8	0.001428
7.920000E-8	0.001491
7.925000E-8	0.001505
7.930000E-8	0.001534
7.935000E-8	0.001588
7.940000E-8	0.001630
7.945000E-8	0.001664
7.950000E-8	0.001634
7.955000E-8	0.001670
7.960000E-8	0.001700
7.965000E-8	0.001698
7.970000E-8	0.001713
7.975000E-8	0.001719
7.980000E-8	0.001659
7.985000E-8	0.001580
7.990000E-8	0.001467
7.995000E-8	0.001359
8.000000E-8	0.001233
8.005000E-8	0.001200
8.010000E-8	0.001094
8.015000E-8	0.001127
8.020000E-8	0.001153
8.025000E-8	0.001197
8.030000E-8	0.001250
8.035000E-8	0.001472
8.040000E-8	0.001520
8.045000E-8	0.001636
8.050000E-8	0.001780
8.055000E-8	0.001864
8.060000E-8	0.001870
8.065000E-8	0.001894
8.070000E-8	0.001852
8.075000E-8	0.001758
8.080000E-8	0.001675
8.085000E-8	0.001573
8.090000E-8	0.001470
8.095000E-8	0.001425
8.100000E-8	0.001428
8.105000E-8	0.001391
8.110000E-8	0.001488
8.115000E-8	0.001514
8.120000E-8	0.001573
8.125000E-8	0.001664
8.130000E-8	0.001730
8.135000E-8	0.001786
8.140000E-8	0.001817
8.145000E-8	0.001800
8.150000E-8	0.001755
8.155000E-8	0.001767
8.160000E-8	0.001725
8.165000E-8	0.001728
8.170000E-8	0.001655
8.175000E-8	0.001694
8.180000E-8	0.001638
8.185000E-8	0.001659
8.190000E-8	0.001692
8.195000E-8	0.001661
8.200000E-8	0.001648
8.205000E-8	0.001689
8.210000E-8	0.001628
8.215000E-8	0.001678
8.220000E-8	0.001675
8.225000E-8	0.001658
8.230000E-8	0.001658
8.235000E-8	0.001666
8.240000E-8	0.001608
8.245000E-8	0.001622
8.250000E-8	0.001547
8.255000E-8	0.001525
8.260000E-8	0.001541
8.265000E-8	0.001522
8.270000E-8	0.001481
8.275000E-8	0.001514
8.280000E-8	0.001497
8.285000E-8	0.001525
8.290000E-8	0.001486
8.295000E-8	0.001491
8.300000E-8	0.001444
8.305000E-8	0.001453
8.310000E-8	0.001398
8.315000E-8	0.001333
8.320000E-8	0.001347
8.325000E-8	0.001356
8.330000E-8	0.001362
8.335000E-8	0.001434
8.340000E-8	0.001492
8.345000E-8	0.001588
8.350000E-8	0.001670
8.355000E-8	0.001680
8.360000E-8	0.001677
8.365000E-8	0.001663
8.370000E-8	0.001616
8.375000E-8	0.001577
8.380000E-8	0.001441
8.385000E-8	0.001416
8.390000E-8	0.001367
8.395000E-8	0.001331
8.400000E-8	0.001372
8.405000E-8	0.001436
8.410000E-8	0.001439
8.415000E-8	0.001595
8.420000E-8	0.001655
8.425000E-8	0.001794
8.430000E-8	0.001892
8.435000E-8	0.001992
8.440000E-8	0.002022
8.445000E-8	0.001991
8.450000E-8	0.001969
8.455000E-8	0.001919
8.460000E-8	0.001884
8.465000E-8	0.001713
8.470000E-8	0.001670
8.475000E-8	0.001517
8.480000E-8	0.001441
8.485000E-8	0.001411
8.490000E-8	0.001420
8.495000E-8	0.001406
8.500000E-8	0.001489
8.505000E-8	0.001569
8.510000E-8	0.001656
8.515000E-8	0.001739
8.520000E-8	0.001773
8.525000E-8	0.001758
8.530000E-8	0.001728
8.535000E-8	0.001603
8.540000E-8	0.001522
8.545000E-8	0.001380
8.550000E-8	0.001230
8.555000E-8	0.001150
8.560000E-8	0.001033
8.565000E-8	0.000950
8.570000E-8	0.001006
8.575000E-8	0.000977
8.580000E-8	0.001066
8.585000E-8	0.001067
8.590000E-8	0.001109
8.595000E-8	0.001219
8.600000E-8	0.001300
8.605000E-8	0.001284
8.610000E-8	0.001347
8.615000E-8	0.001419
8.620000E-8	0.001386
8.625000E-8	0.001436
8.630000E-8	0.001428
8.635000E-8	0.001425
8.640000E-8	0.001433
8.645000E-8	0.001427
8.650000E-8	0.001448
8.655000E-8	0.001373
8.660000E-8	0.001389
8.665000E-8	0.001497
8.670000E-8	0.001475
8.675000E-8	0.001536
8.680000E-8	0.001508
8.685000E-8	0.001564
8.690000E-8	0.001577
8.695000E-8	0.001608
8.700000E-8	0.001588
8.705000E-8	0.001561
8.710000E-8	0.001559
8.715000E-8	0.001569
8.720000E-8	0.001505
8.725000E-8	0.001514
8.730000E-8	0.001481
8.735000E-8	0.001461
8.740000E-8	0.001439
8.745000E-8	0.001422
8.750000E-8	0.001400
8.755000E-8	0.001494
8.760000E-8	0.001442
8.765000E-8	0.001491
8.770000E-8	0.001466
8.775000E-8	0.001508
8.780000E-8	0.001483
8.785000E-8	0.001588
8.790000E-8	0.001625
8.795000E-8	0.001630
8.800000E-8	0.001739
8.805000E-8	0.001727
8.810000E-8	0.001733
8.815000E-8	0.001806
8.820000E-8	0.001741
8.825000E-8	0.001656
8.830000E-8	0.001558
8.835000E-8	0.001519
8.840000E-8	0.001417
8.845000E-8	0.001362
8.850000E-8	0.001259
8.855000E-8	0.001339
8.860000E-8	0.001348
8.865000E-8	0.001413
8.870000E-8	0.001561
8.875000E-8	0.001666
8.880000E-8	0.001723
8.885000E-8	0.001806
8.890000E-8	0.001820
8.895000E-8	0.001802
8.900000E-8	0.001767
8.905000E-8	0.001769
8.910000E-8	0.001720
8.915000E-8	0.001620
8.920000E-8	0.001497
8.925000E-8	0.001445
8.930000E-8	0.001411
8.935000E-8	0.001458
8.940000E-8	0.001444
8.945000E-8	0.001522
8.950000E-8	0.001544
8.955000E-8	0.001612
8.960000E-8	0.001639
8.965000E-8	0.001705
8.970000E-8	0.001675
8.975000E-8	0.001680
8.980000E-8	0.001633
8.985000E-8	0.001619
8.990000E-8	0.001567
8.995000E-8	0.001520
9.000000E-8	0.001433
9.005000E-8	0.001402
9.010000E-8	0.001408
9.015000E-8	0.001436
9.020000E-8	0.001458
9.025000E-8	0.001450
9.030000E-8	0.001461
9.035000E-8	0.001514
9.040000E-8	0.001539
9.045000E-8	0.001586
9.050000E-8	0.001669
9.055000E-8	0.001675
9.060000E-8	0.001698
9.065000E-8	0.001752
9.070000E-8	0.001798
9.075000E-8	0.001780
9.080000E-8	0.001731
9.085000E-8	0.001719
9.090000E-8	0.001700
9.095000E-8	0.001666
9.100000E-8	0.001547
9.105000E-8	0.001509
9.110000E-8	0.001475
9.115000E-8	0.001359
9.120000E-8	0.001266
9.125000E-8	0.001258
9.130000E-8	0.001177
9.135000E-8	0.001144
9.140000E-8	0.001248
9.145000E-8	0.001275
9.150000E-8	0.001330
9.155000E-8	0.001403
9.160000E-8	0.001475
9.165000E-8	0.001566
9.170000E-8	0.001581
9.175000E-8	0.001573
9.180000E-8	0.001491
9.185000E-8	0.001539
9.190000E-8	0.001456
9.195000E-8	0.001411
9.200000E-8	0.001367
9.205000E-8	0.001303
9.210000E-8	0.001347
9.215000E-8	0.001336
9.220000E-8	0.001325
9.225000E-8	0.001423
9.230000E-8	0.001406
9.235000E-8	0.001492
9.240000E-8	0.001486
9.245000E-8	0.001498
9.250000E-8	0.001511
9.255000E-8	0.001455
9.260000E-8	0.001480
9.265000E-8	0.001480
9.270000E-8	0.001497
9.275000E-8	0.001452
9.280000E-8	0.001508
9.285000E-8	0.001500
9.290000E-8	0.001534
9.295000E-8	0.001522
9.300000E-8	0.001503
9.305000E-8	0.001530
9.310000E-8	0.001522
9.315000E-8	0.001475
9.320000E-8	0.001522
9.325000E-8	0.001523
9.330000E-8	0.001494
9.335000E-8	0.001492
9.340000E-8	0.001522
9.345000E-8	0.001530
9.350000E-8	0.001483
9.355000E-8	0.001552
9.360000E-8	0.001567
9.365000E-8	0.001538
9.370000E-8	0.001586
9.375000E-8	0.001616
9.380000E-8	0.001606
9.385000E-8	0.001591
9.390000E-8	0.001580
9.395000E-8	0.001630
9.400000E-8	0.001630
9.405000E-8	0.001636
9.410000E-8	0.001580
9.415000E-8	0.001536
9.420000E-8	0.001605
9.425000E-8	0.001580
9.430000E-8	0.001606
9.435000E-8	0.001572
9.440000E-8	0.001541
9.445000E-8	0.001547
9.450000E-8	0.001516
9.455000E-8	0.001483
9.460000E-8	0.001397
9.465000E-8	0.001380
9.470000E-8	0.001306
9.475000E-8	0.001378
9.480000E-8	0.001255
9.485000E-8	0.001327
9.490000E-8	0.001366
9.495000E-8	0.001367
9.500000E-8	0.001380
9.505000E-8	0.001441
9.510000E-8	0.001430
9.515000E-8	0.001475
9.520000E-8	0.001452
9.525000E-8	0.001497
9.530000E-8	0.001445
9.535000E-8	0.001514
9.540000E-8	0.001488
9.545000E-8	0.001486
9.550000E-8	0.001439
9.555000E-8	0.001405
9.560000E-8	0.001313
9.565000E-8	0.001314
9.570000E-8	0.001367
9.575000E-8	0.001478
9.580000E-8	0.001522
9.585000E-8	0.001627
9.590000E-8	0.001608
9.595000E-8	0.001686
9.600000E-8	0.001580
9.605000E-8	0.001586
9.610000E-8	0.001569
9.615000E-8	0.001530
9.620000E-8	0.001525
9.625000E-8	0.001586
9.630000E-8	0.001589
9.635000E-8	0.001659
9.640000E-8	0.001703
9.645000E-8	0.001830
9.650000E-8	0.001903
9.655000E-8	0.001958
9.660000E-8	0.001983
9.665000E-8	0.001939
9.670000E-8	0.001806
9.675000E-8	0.001811
9.680000E-8	0.001711
9.685000E-8	0.001644
9.690000E-8	0.001519
9.695000E-8	0.001483
9.700000E-8	0.001405
9.705000E-8	0.001408
9.710000E-8	0.001400
9.715000E-8	0.001400
9.720000E-8	0.001392
9.725000E-8	0.001434
9.730000E-8	0.001452
9.735000E-8	0.001497
9.740000E-8	0.001469
9.745000E-8	0.001472
9.750000E-8	0.001409
9.755000E-8	0.001430
9.760000E-8	0.001361
9.765000E-8	0.001367
9.770000E-8	0.001380
9.775000E-8	0.001409
9.780000E-8	0.001413
9.785000E-8	0.001481
9.790000E-8	0.001511
9.795000E-8	0.001605
9.800000E-8	0.001634
9.805000E-8	0.001717
9.810000E-8	0.001713
9.815000E-8	0.001734
9.820000E-8	0.001700
9.825000E-8	0.001723
9.830000E-8	0.001659
9.835000E-8	0.001583
9.840000E-8	0.001530
9.845000E-8	0.001600
9.850000E-8	0.001577
9.855000E-8	0.001619
9.860000E-8	0.001647
9.865000E-8	0.001669
9.870000E-8	0.001669
9.875000E-8	0.001739
9.880000E-8	0.001745
9.885000E-8	0.001748
9.890000E-8	0.001653
9.895000E-8	0.001684
9.900000E-8	0.001545
9.905000E-8	0.001517
9.910000E-8	0.001514
9.915000E-8	0.001456
9.920000E-8	0.001413
9.925000E-8	0.001419
9.930000E-8	0.001481
9.935000E-8	0.001437
9.940000E-8	0.001486
9.945000E-8	0.001477
9.950000E-8	0.001511
9.955000E-8	0.001553
9.960000E-8	0.001548
9.965000E-8	0.001580
9.970000E-8	0.001655
9.975000E-8	0.001672
9.980000E-8	0.001645
9.985000E-8	0.001722
9.990000E-8	0.001692
9.995000E-8	0.001722
