LabVIEW Measurement	
Writer_Version	2
Reader_Version	2
Separator	Tab
Decimal_Separator	.
Multi_Headings	No
X_Columns	Multi
Time_Pref	Relative
Operator	TG lab
Date	2015/03/06
Time	19:55:47.9791622161865234375
***End_of_Header***	
	
Channels	1	
Samples	2000	
Date	1903/12/31	
Time	19:00:00	
X_Dimension	Time	
X0	0.0000000000000000E+0	
Delta_X	5.000000E-11	
***End_of_Header***		
X_Value	Untitled	Comment
0.000000	0.002700
5.000000E-11	0.002675
1.000000E-10	0.002766
1.500000E-10	0.002838
2.000000E-10	0.002806
2.500000E-10	0.002750
3.000000E-10	0.002678
3.500000E-10	0.002725
4.000000E-10	0.002713
4.500000E-10	0.002737
5.000000E-10	0.002684
5.500000E-10	0.002616
6.000000E-10	0.002384
6.500000E-10	0.002428
7.000000E-10	0.002503
7.500000E-10	0.002566
8.000000E-10	0.002475
8.500000E-10	0.002600
9.000000E-10	0.002638
9.500000E-10	0.002728
1.000000E-9	0.002613
1.050000E-9	0.002631
1.100000E-9	0.002644
1.150000E-9	0.002731
1.200000E-9	0.002706
1.250000E-9	0.002675
1.300000E-9	0.002700
1.350000E-9	0.002825
1.400000E-9	0.002809
1.450000E-9	0.002941
1.500000E-9	0.002972
1.550000E-9	0.002984
1.600000E-9	0.002931
1.650000E-9	0.002994
1.700000E-9	0.003066
1.750000E-9	0.003147
1.800000E-9	0.003056
1.850000E-9	0.003141
1.900000E-9	0.003131
1.950000E-9	0.003181
2.000000E-9	0.003087
2.050000E-9	0.003003
2.100000E-9	0.003116
2.150000E-9	0.003169
2.200000E-9	0.003109
2.250000E-9	0.003087
2.300000E-9	0.003044
2.350000E-9	0.003094
2.400000E-9	0.003153
2.450000E-9	0.003134
2.500000E-9	0.003172
2.550000E-9	0.003206
2.600000E-9	0.003356
2.650000E-9	0.003438
2.700000E-9	0.003553
2.750000E-9	0.003703
2.800000E-9	0.003553
2.850000E-9	0.003613
2.900000E-9	0.003625
2.950000E-9	0.003600
3.000000E-9	0.003572
3.050000E-9	0.003528
3.100000E-9	0.003463
3.150000E-9	0.003319
3.200000E-9	0.003281
3.250000E-9	0.003325
3.300000E-9	0.003384
3.350000E-9	0.003453
3.400000E-9	0.003600
3.450000E-9	0.003522
3.500000E-9	0.003697
3.550000E-9	0.003794
3.600000E-9	0.003806
3.650000E-9	0.003875
3.700000E-9	0.003913
3.750000E-9	0.004038
3.800000E-9	0.003909
3.850000E-9	0.003969
3.900000E-9	0.004044
3.950000E-9	0.004081
4.000000E-9	0.004031
4.050000E-9	0.004125
4.100000E-9	0.004234
4.150000E-9	0.004359
4.200000E-9	0.004363
4.250000E-9	0.004581
4.300000E-9	0.004859
4.350000E-9	0.005103
4.400000E-9	0.005453
4.450000E-9	0.006050
4.500000E-9	0.006438
4.550000E-9	0.006988
4.600000E-9	0.007622
4.650000E-9	0.008172
4.700000E-9	0.008913
4.750000E-9	0.009597
4.800000E-9	0.010409
4.850000E-9	0.011281
4.900000E-9	0.012038
4.950000E-9	0.013028
5.000000E-9	0.014091
5.050000E-9	0.015353
5.100000E-9	0.016766
5.150000E-9	0.018300
5.200000E-9	0.019775
5.250000E-9	0.021338
5.300000E-9	0.022756
5.350000E-9	0.023934
5.400000E-9	0.024941
5.450000E-9	0.025491
5.500000E-9	0.025700
5.550000E-9	0.025531
5.600000E-9	0.024931
5.650000E-9	0.024081
5.700000E-9	0.022791
5.750000E-9	0.021487
5.800000E-9	0.020000
5.850000E-9	0.018594
5.900000E-9	0.017309
5.950000E-9	0.016306
6.000000E-9	0.015497
6.050000E-9	0.015031
6.100000E-9	0.014897
6.150000E-9	0.015000
6.200000E-9	0.015378
6.250000E-9	0.015916
6.300000E-9	0.016422
6.350000E-9	0.016959
6.400000E-9	0.017206
6.450000E-9	0.017328
6.500000E-9	0.016966
6.550000E-9	0.016509
6.600000E-9	0.015603
6.650000E-9	0.014606
6.700000E-9	0.013381
6.750000E-9	0.012078
6.800000E-9	0.010966
6.850000E-9	0.009884
6.900000E-9	0.009081
6.950000E-9	0.008516
7.000000E-9	0.008206
7.050000E-9	0.008341
7.100000E-9	0.008619
7.150000E-9	0.009213
7.200000E-9	0.009797
7.250000E-9	0.010550
7.300000E-9	0.011234
7.350000E-9	0.011744
7.400000E-9	0.011884
7.450000E-9	0.012003
7.500000E-9	0.011475
7.550000E-9	0.010991
7.600000E-9	0.010116
7.650000E-9	0.009216
7.700000E-9	0.008278
7.750000E-9	0.007347
7.800000E-9	0.006516
7.850000E-9	0.005991
7.900000E-9	0.005669
7.950000E-9	0.005631
8.000000E-9	0.005766
8.050000E-9	0.006234
8.100000E-9	0.006659
8.150000E-9	0.007481
8.200000E-9	0.008350
8.250000E-9	0.008925
8.300000E-9	0.009213
8.350000E-9	0.009556
8.400000E-9	0.009447
8.450000E-9	0.009041
8.500000E-9	0.008431
8.550000E-9	0.007716
8.600000E-9	0.006653
8.650000E-9	0.005775
8.700000E-9	0.004884
8.750000E-9	0.004303
8.800000E-9	0.003697
8.850000E-9	0.003709
8.900000E-9	0.003703
8.950000E-9	0.004044
9.000000E-9	0.004594
9.050000E-9	0.005400
9.100000E-9	0.006103
9.150000E-9	0.006834
9.200000E-9	0.007372
9.250000E-9	0.007734
9.300000E-9	0.007800
9.350000E-9	0.007591
9.400000E-9	0.007041
9.450000E-9	0.006484
9.500000E-9	0.005513
9.550000E-9	0.004709
9.600000E-9	0.003797
9.650000E-9	0.003178
9.700000E-9	0.002509
9.750000E-9	0.002256
9.800000E-9	0.002309
9.850000E-9	0.002556
9.900000E-9	0.003091
9.950000E-9	0.003725
1.000000E-8	0.004469
1.005000E-8	0.005181
1.010000E-8	0.005969
1.015000E-8	0.006525
1.020000E-8	0.006856
1.025000E-8	0.007047
1.030000E-8	0.006916
1.035000E-8	0.006481
1.040000E-8	0.005916
1.045000E-8	0.005106
1.050000E-8	0.004159
1.055000E-8	0.003425
1.060000E-8	0.002634
1.065000E-8	0.002047
1.070000E-8	0.001834
1.075000E-8	0.001988
1.080000E-8	0.002159
1.085000E-8	0.002694
1.090000E-8	0.003281
1.095000E-8	0.004044
1.100000E-8	0.004875
1.105000E-8	0.005550
1.110000E-8	0.005981
1.115000E-8	0.006231
1.120000E-8	0.006250
1.125000E-8	0.006072
1.130000E-8	0.005556
1.135000E-8	0.004944
1.140000E-8	0.004209
1.145000E-8	0.003388
1.150000E-8	0.002587
1.155000E-8	0.002009
1.160000E-8	0.001575
1.165000E-8	0.001416
1.170000E-8	0.001519
1.175000E-8	0.001909
1.180000E-8	0.002497
1.185000E-8	0.003222
1.190000E-8	0.004087
1.195000E-8	0.004694
1.200000E-8	0.005347
1.205000E-8	0.005706
1.210000E-8	0.005728
1.215000E-8	0.005672
1.220000E-8	0.005181
1.225000E-8	0.004572
1.230000E-8	0.003900
1.235000E-8	0.003119
1.240000E-8	0.002325
1.245000E-8	0.001775
1.250000E-8	0.001341
1.255000E-8	0.001109
1.260000E-8	0.001053
1.265000E-8	0.001325
1.270000E-8	0.001763
1.275000E-8	0.002397
1.280000E-8	0.002984
1.285000E-8	0.003666
1.290000E-8	0.004237
1.295000E-8	0.004713
1.300000E-8	0.004988
1.305000E-8	0.005156
1.310000E-8	0.005025
1.315000E-8	0.004656
1.320000E-8	0.004194
1.325000E-8	0.003503
1.330000E-8	0.002919
1.335000E-8	0.002250
1.340000E-8	0.001734
1.345000E-8	0.001359
1.350000E-8	0.001131
1.355000E-8	0.001319
1.360000E-8	0.001588
1.365000E-8	0.002175
1.370000E-8	0.002706
1.375000E-8	0.003422
1.380000E-8	0.004175
1.385000E-8	0.004703
1.390000E-8	0.005138
1.395000E-8	0.005334
1.400000E-8	0.005272
1.405000E-8	0.005100
1.410000E-8	0.004628
1.415000E-8	0.004041
1.420000E-8	0.003434
1.425000E-8	0.002700
1.430000E-8	0.002044
1.435000E-8	0.001569
1.440000E-8	0.001166
1.445000E-8	0.001184
1.450000E-8	0.001328
1.455000E-8	0.001622
1.460000E-8	0.002094
1.465000E-8	0.002709
1.470000E-8	0.003409
1.475000E-8	0.004156
1.480000E-8	0.004672
1.485000E-8	0.005088
1.490000E-8	0.005191
1.495000E-8	0.005134
1.500000E-8	0.004834
1.505000E-8	0.004272
1.510000E-8	0.003663
1.515000E-8	0.002981
1.520000E-8	0.002259
1.525000E-8	0.001538
1.530000E-8	0.001012
1.535000E-8	0.000697
1.540000E-8	0.000703
1.545000E-8	0.000994
1.550000E-8	0.001319
1.555000E-8	0.001878
1.560000E-8	0.002428
1.565000E-8	0.003122
1.570000E-8	0.003538
1.575000E-8	0.004066
1.580000E-8	0.004316
1.585000E-8	0.004475
1.590000E-8	0.004422
1.595000E-8	0.004206
1.600000E-8	0.003763
1.605000E-8	0.003313
1.610000E-8	0.002719
1.615000E-8	0.002078
1.620000E-8	0.001656
1.625000E-8	0.001297
1.630000E-8	0.001100
1.635000E-8	0.001106
1.640000E-8	0.001362
1.645000E-8	0.001722
1.650000E-8	0.002288
1.655000E-8	0.002913
1.660000E-8	0.003575
1.665000E-8	0.004147
1.670000E-8	0.004559
1.675000E-8	0.004756
1.680000E-8	0.004691
1.685000E-8	0.004594
1.690000E-8	0.004181
1.695000E-8	0.003719
1.700000E-8	0.003141
1.705000E-8	0.002463
1.710000E-8	0.001928
1.715000E-8	0.001428
1.720000E-8	0.001125
1.725000E-8	0.001100
1.730000E-8	0.001266
1.735000E-8	0.001547
1.740000E-8	0.001891
1.745000E-8	0.002528
1.750000E-8	0.003138
1.755000E-8	0.003719
1.760000E-8	0.004109
1.765000E-8	0.004391
1.770000E-8	0.004503
1.775000E-8	0.004481
1.780000E-8	0.004038
1.785000E-8	0.003719
1.790000E-8	0.003172
1.795000E-8	0.002669
1.800000E-8	0.002159
1.805000E-8	0.001700
1.810000E-8	0.001459
1.815000E-8	0.001325
1.820000E-8	0.001319
1.825000E-8	0.001666
1.830000E-8	0.001894
1.835000E-8	0.002422
1.840000E-8	0.002928
1.845000E-8	0.003381
1.850000E-8	0.003834
1.855000E-8	0.004122
1.860000E-8	0.004322
1.865000E-8	0.004491
1.870000E-8	0.004359
1.875000E-8	0.004100
1.880000E-8	0.003713
1.885000E-8	0.003231
1.890000E-8	0.002609
1.895000E-8	0.002050
1.900000E-8	0.001612
1.905000E-8	0.001350
1.910000E-8	0.001197
1.915000E-8	0.001284
1.920000E-8	0.001416
1.925000E-8	0.001756
1.930000E-8	0.002234
1.935000E-8	0.002844
1.940000E-8	0.003400
1.945000E-8	0.003922
1.950000E-8	0.004241
1.955000E-8	0.004459
1.960000E-8	0.004406
1.965000E-8	0.004372
1.970000E-8	0.004075
1.975000E-8	0.003763
1.980000E-8	0.003238
1.985000E-8	0.002625
1.990000E-8	0.002087
1.995000E-8	0.001684
2.000000E-8	0.001347
2.005000E-8	0.001216
2.010000E-8	0.001241
2.015000E-8	0.001450
2.020000E-8	0.001838
2.025000E-8	0.002294
2.030000E-8	0.002819
2.035000E-8	0.003378
2.040000E-8	0.003778
2.045000E-8	0.004103
2.050000E-8	0.004222
2.055000E-8	0.004147
2.060000E-8	0.004019
2.065000E-8	0.003622
2.070000E-8	0.002991
2.075000E-8	0.002484
2.080000E-8	0.001928
2.085000E-8	0.001534
2.090000E-8	0.001053
2.095000E-8	0.000897
2.100000E-8	0.000741
2.105000E-8	0.000984
2.110000E-8	0.001294
2.115000E-8	0.001700
2.120000E-8	0.002237
2.125000E-8	0.002831
2.130000E-8	0.003238
2.135000E-8	0.003619
2.140000E-8	0.003928
2.145000E-8	0.004038
2.150000E-8	0.003906
2.155000E-8	0.003741
2.160000E-8	0.003316
2.165000E-8	0.002781
2.170000E-8	0.002313
2.175000E-8	0.001834
2.180000E-8	0.001478
2.185000E-8	0.001231
2.190000E-8	0.001072
2.195000E-8	0.001047
2.200000E-8	0.001247
2.205000E-8	0.001609
2.210000E-8	0.002134
2.215000E-8	0.002666
2.220000E-8	0.003203
2.225000E-8	0.003631
2.230000E-8	0.003969
2.235000E-8	0.004150
2.240000E-8	0.004116
2.245000E-8	0.003947
2.250000E-8	0.003616
2.255000E-8	0.003284
2.260000E-8	0.002819
2.265000E-8	0.002316
2.270000E-8	0.001897
2.275000E-8	0.001488
2.280000E-8	0.001272
2.285000E-8	0.001209
2.290000E-8	0.001231
2.295000E-8	0.001463
2.300000E-8	0.001841
2.305000E-8	0.002325
2.310000E-8	0.002753
2.315000E-8	0.003138
2.320000E-8	0.003722
2.325000E-8	0.004009
2.330000E-8	0.004247
2.335000E-8	0.004159
2.340000E-8	0.004109
2.345000E-8	0.003925
2.350000E-8	0.003563
2.355000E-8	0.003091
2.360000E-8	0.002628
2.365000E-8	0.002237
2.370000E-8	0.001947
2.375000E-8	0.001713
2.380000E-8	0.001500
2.385000E-8	0.001513
2.390000E-8	0.001706
2.395000E-8	0.002084
2.400000E-8	0.002394
2.405000E-8	0.002866
2.410000E-8	0.003241
2.415000E-8	0.003663
2.420000E-8	0.003791
2.425000E-8	0.003888
2.430000E-8	0.003825
2.435000E-8	0.003666
2.440000E-8	0.003278
2.445000E-8	0.002953
2.450000E-8	0.002616
2.455000E-8	0.002162
2.460000E-8	0.001850
2.465000E-8	0.001641
2.470000E-8	0.001531
2.475000E-8	0.001559
2.480000E-8	0.001675
2.485000E-8	0.001913
2.490000E-8	0.002222
2.495000E-8	0.002631
2.500000E-8	0.003022
2.505000E-8	0.003350
2.510000E-8	0.003616
2.515000E-8	0.003872
2.520000E-8	0.003763
2.525000E-8	0.003788
2.530000E-8	0.003650
2.535000E-8	0.003428
2.540000E-8	0.003097
2.545000E-8	0.002769
2.550000E-8	0.002437
2.555000E-8	0.002116
2.560000E-8	0.001819
2.565000E-8	0.001794
2.570000E-8	0.001775
2.575000E-8	0.001900
2.580000E-8	0.002041
2.585000E-8	0.002322
2.590000E-8	0.002731
2.595000E-8	0.003025
2.600000E-8	0.003344
2.605000E-8	0.003603
2.610000E-8	0.003647
2.615000E-8	0.003669
2.620000E-8	0.003447
2.625000E-8	0.003206
2.630000E-8	0.002931
2.635000E-8	0.002609
2.640000E-8	0.002128
2.645000E-8	0.001909
2.650000E-8	0.001647
2.655000E-8	0.001509
2.660000E-8	0.001403
2.665000E-8	0.001481
2.670000E-8	0.001675
2.675000E-8	0.002034
2.680000E-8	0.002328
2.685000E-8	0.002675
2.690000E-8	0.003141
2.695000E-8	0.003384
2.700000E-8	0.003591
2.705000E-8	0.003713
2.710000E-8	0.003550
2.715000E-8	0.003512
2.720000E-8	0.003147
2.725000E-8	0.002828
2.730000E-8	0.002325
2.735000E-8	0.002078
2.740000E-8	0.001841
2.745000E-8	0.001638
2.750000E-8	0.001569
2.755000E-8	0.001681
2.760000E-8	0.001669
2.765000E-8	0.001959
2.770000E-8	0.002303
2.775000E-8	0.002647
2.780000E-8	0.003047
2.785000E-8	0.003388
2.790000E-8	0.003713
2.795000E-8	0.003856
2.800000E-8	0.003962
2.805000E-8	0.003991
2.810000E-8	0.003834
2.815000E-8	0.003644
2.820000E-8	0.003291
2.825000E-8	0.002941
2.830000E-8	0.002591
2.835000E-8	0.002372
2.840000E-8	0.002031
2.845000E-8	0.002009
2.850000E-8	0.002116
2.855000E-8	0.002228
2.860000E-8	0.002431
2.865000E-8	0.002781
2.870000E-8	0.003075
2.875000E-8	0.003478
2.880000E-8	0.003719
2.885000E-8	0.003962
2.890000E-8	0.003962
2.895000E-8	0.003863
2.900000E-8	0.003706
2.905000E-8	0.003497
2.910000E-8	0.003219
2.915000E-8	0.002891
2.920000E-8	0.002550
2.925000E-8	0.002222
2.930000E-8	0.001991
2.935000E-8	0.001875
2.940000E-8	0.001834
2.945000E-8	0.001944
2.950000E-8	0.002000
2.955000E-8	0.002206
2.960000E-8	0.002512
2.965000E-8	0.002850
2.970000E-8	0.003125
2.975000E-8	0.003425
2.980000E-8	0.003716
2.985000E-8	0.003950
2.990000E-8	0.003875
2.995000E-8	0.003822
3.000000E-8	0.003681
3.005000E-8	0.003328
3.010000E-8	0.003006
3.015000E-8	0.002522
3.020000E-8	0.002241
3.025000E-8	0.002181
3.030000E-8	0.002087
3.035000E-8	0.002044
3.040000E-8	0.002116
3.045000E-8	0.002388
3.050000E-8	0.002563
3.055000E-8	0.002850
3.060000E-8	0.003047
3.065000E-8	0.003356
3.070000E-8	0.003619
3.075000E-8	0.003522
3.080000E-8	0.003587
3.085000E-8	0.003622
3.090000E-8	0.003563
3.095000E-8	0.003459
3.100000E-8	0.003113
3.105000E-8	0.002828
3.110000E-8	0.002603
3.115000E-8	0.002350
3.120000E-8	0.002091
3.125000E-8	0.001816
3.130000E-8	0.001800
3.135000E-8	0.001866
3.140000E-8	0.002063
3.145000E-8	0.002416
3.150000E-8	0.002766
3.155000E-8	0.002956
3.160000E-8	0.003203
3.165000E-8	0.003413
3.170000E-8	0.003581
3.175000E-8	0.003634
3.180000E-8	0.003488
3.185000E-8	0.003366
3.190000E-8	0.003175
3.195000E-8	0.002913
3.200000E-8	0.002625
3.205000E-8	0.002381
3.210000E-8	0.002150
3.215000E-8	0.002006
3.220000E-8	0.002047
3.225000E-8	0.002162
3.230000E-8	0.002281
3.235000E-8	0.002469
3.240000E-8	0.002563
3.245000E-8	0.002878
3.250000E-8	0.003178
3.255000E-8	0.003409
3.260000E-8	0.003575
3.265000E-8	0.003666
3.270000E-8	0.003706
3.275000E-8	0.003622
3.280000E-8	0.003341
3.285000E-8	0.003175
3.290000E-8	0.002803
3.295000E-8	0.002444
3.300000E-8	0.002103
3.305000E-8	0.001934
3.310000E-8	0.001784
3.315000E-8	0.001663
3.320000E-8	0.001713
3.325000E-8	0.001947
3.330000E-8	0.002219
3.335000E-8	0.002463
3.340000E-8	0.002737
3.345000E-8	0.002966
3.350000E-8	0.003184
3.355000E-8	0.003269
3.360000E-8	0.003253
3.365000E-8	0.003247
3.370000E-8	0.003038
3.375000E-8	0.002888
3.380000E-8	0.002613
3.385000E-8	0.002450
3.390000E-8	0.002319
3.395000E-8	0.002053
3.400000E-8	0.001900
3.405000E-8	0.001975
3.410000E-8	0.001913
3.415000E-8	0.002103
3.420000E-8	0.002403
3.425000E-8	0.002825
3.430000E-8	0.003016
3.435000E-8	0.003350
3.440000E-8	0.003600
3.445000E-8	0.003775
3.450000E-8	0.003803
3.455000E-8	0.003713
3.460000E-8	0.003497
3.465000E-8	0.003297
3.470000E-8	0.003009
3.475000E-8	0.002597
3.480000E-8	0.002303
3.485000E-8	0.002087
3.490000E-8	0.001959
3.495000E-8	0.001831
3.500000E-8	0.001897
3.505000E-8	0.002034
3.510000E-8	0.002156
3.515000E-8	0.002397
3.520000E-8	0.002678
3.525000E-8	0.002922
3.530000E-8	0.003144
3.535000E-8	0.003369
3.540000E-8	0.003341
3.545000E-8	0.003503
3.550000E-8	0.003456
3.555000E-8	0.003344
3.560000E-8	0.003072
3.565000E-8	0.002859
3.570000E-8	0.002650
3.575000E-8	0.002303
3.580000E-8	0.002128
3.585000E-8	0.002012
3.590000E-8	0.001878
3.595000E-8	0.002000
3.600000E-8	0.002138
3.605000E-8	0.002406
3.610000E-8	0.002691
3.615000E-8	0.003072
3.620000E-8	0.003416
3.625000E-8	0.003656
3.630000E-8	0.003759
3.635000E-8	0.003909
3.640000E-8	0.003816
3.645000E-8	0.003775
3.650000E-8	0.003594
3.655000E-8	0.003328
3.660000E-8	0.002906
3.665000E-8	0.002619
3.670000E-8	0.002300
3.675000E-8	0.002234
3.680000E-8	0.002150
3.685000E-8	0.002081
3.690000E-8	0.002103
3.695000E-8	0.002175
3.700000E-8	0.002409
3.705000E-8	0.002713
3.710000E-8	0.002763
3.715000E-8	0.002903
3.720000E-8	0.003100
3.725000E-8	0.003222
3.730000E-8	0.003275
3.735000E-8	0.003219
3.740000E-8	0.003134
3.745000E-8	0.003097
3.750000E-8	0.002884
3.755000E-8	0.002706
3.760000E-8	0.002469
3.765000E-8	0.002331
3.770000E-8	0.002119
3.775000E-8	0.001913
3.780000E-8	0.001916
3.785000E-8	0.001944
3.790000E-8	0.002034
3.795000E-8	0.002237
3.800000E-8	0.002481
3.805000E-8	0.002713
3.810000E-8	0.002947
3.815000E-8	0.003116
3.820000E-8	0.003259
3.825000E-8	0.003297
3.830000E-8	0.003194
3.835000E-8	0.003272
3.840000E-8	0.003053
3.845000E-8	0.002850
3.850000E-8	0.002569
3.855000E-8	0.002300
3.860000E-8	0.002106
3.865000E-8	0.002084
3.870000E-8	0.002084
3.875000E-8	0.002141
3.880000E-8	0.002197
3.885000E-8	0.002484
3.890000E-8	0.002578
3.895000E-8	0.002763
3.900000E-8	0.003003
3.905000E-8	0.003141
3.910000E-8	0.003272
3.915000E-8	0.003322
3.920000E-8	0.003263
3.925000E-8	0.003166
3.930000E-8	0.003106
3.935000E-8	0.002925
3.940000E-8	0.002694
3.945000E-8	0.002531
3.950000E-8	0.002288
3.955000E-8	0.002159
3.960000E-8	0.002038
3.965000E-8	0.002009
3.970000E-8	0.002113
3.975000E-8	0.002341
3.980000E-8	0.002578
3.985000E-8	0.002834
3.990000E-8	0.003169
3.995000E-8	0.003450
4.000000E-8	0.003638
4.005000E-8	0.003731
4.010000E-8	0.003738
4.015000E-8	0.003691
4.020000E-8	0.003438
4.025000E-8	0.003303
4.030000E-8	0.003022
4.035000E-8	0.002728
4.040000E-8	0.002228
4.045000E-8	0.002153
4.050000E-8	0.001956
4.055000E-8	0.001816
4.060000E-8	0.001825
4.065000E-8	0.001884
4.070000E-8	0.002050
4.075000E-8	0.002363
4.080000E-8	0.002525
4.085000E-8	0.002856
4.090000E-8	0.003041
4.095000E-8	0.003322
4.100000E-8	0.003456
4.105000E-8	0.003466
4.110000E-8	0.003441
4.115000E-8	0.003422
4.120000E-8	0.003247
4.125000E-8	0.003119
4.130000E-8	0.002959
4.135000E-8	0.002641
4.140000E-8	0.002250
4.145000E-8	0.002162
4.150000E-8	0.001991
4.155000E-8	0.001913
4.160000E-8	0.001941
4.165000E-8	0.002131
4.170000E-8	0.002237
4.175000E-8	0.002528
4.180000E-8	0.002763
4.185000E-8	0.003144
4.190000E-8	0.003334
4.195000E-8	0.003459
4.200000E-8	0.003466
4.205000E-8	0.003506
4.210000E-8	0.003447
4.215000E-8	0.003153
4.220000E-8	0.002969
4.225000E-8	0.002647
4.230000E-8	0.002372
4.235000E-8	0.002216
4.240000E-8	0.001925
4.245000E-8	0.001928
4.250000E-8	0.001872
4.255000E-8	0.001928
4.260000E-8	0.002100
4.265000E-8	0.002331
4.270000E-8	0.002544
4.275000E-8	0.002881
4.280000E-8	0.002978
4.285000E-8	0.003206
4.290000E-8	0.003350
4.295000E-8	0.003403
4.300000E-8	0.003409
4.305000E-8	0.003275
4.310000E-8	0.003188
4.315000E-8	0.002975
4.320000E-8	0.002756
4.325000E-8	0.002578
4.330000E-8	0.002494
4.335000E-8	0.002331
4.340000E-8	0.002231
4.345000E-8	0.002316
4.350000E-8	0.002291
4.355000E-8	0.002497
4.360000E-8	0.002669
4.365000E-8	0.002959
4.370000E-8	0.003059
4.375000E-8	0.003181
4.380000E-8	0.003431
4.385000E-8	0.003359
4.390000E-8	0.003303
4.395000E-8	0.003275
4.400000E-8	0.003047
4.405000E-8	0.002834
4.410000E-8	0.002503
4.415000E-8	0.002325
4.420000E-8	0.002206
4.425000E-8	0.002006
4.430000E-8	0.001931
4.435000E-8	0.002019
4.440000E-8	0.002056
4.445000E-8	0.002234
4.450000E-8	0.002431
4.455000E-8	0.002631
4.460000E-8	0.002737
4.465000E-8	0.003022
4.470000E-8	0.003056
4.475000E-8	0.003109
4.480000E-8	0.002991
4.485000E-8	0.003053
4.490000E-8	0.003009
4.495000E-8	0.002897
4.500000E-8	0.002700
4.505000E-8	0.002609
4.510000E-8	0.002478
4.515000E-8	0.002406
4.520000E-8	0.002331
4.525000E-8	0.002447
4.530000E-8	0.002425
4.535000E-8	0.002353
4.540000E-8	0.002575
4.545000E-8	0.002688
4.550000E-8	0.002856
4.555000E-8	0.003006
4.560000E-8	0.003056
4.565000E-8	0.003138
4.570000E-8	0.003087
4.575000E-8	0.002988
4.580000E-8	0.002919
4.585000E-8	0.002891
4.590000E-8	0.002731
4.595000E-8	0.002669
4.600000E-8	0.002603
4.605000E-8	0.002581
4.610000E-8	0.002416
4.615000E-8	0.002359
4.620000E-8	0.002313
4.625000E-8	0.002406
4.630000E-8	0.002456
4.635000E-8	0.002584
4.640000E-8	0.002753
4.645000E-8	0.002938
4.650000E-8	0.003094
4.655000E-8	0.003325
4.660000E-8	0.003428
4.665000E-8	0.003428
4.670000E-8	0.003391
4.675000E-8	0.003438
4.680000E-8	0.003325
4.685000E-8	0.003284
4.690000E-8	0.003119
4.695000E-8	0.002953
4.700000E-8	0.002713
4.705000E-8	0.002594
4.710000E-8	0.002384
4.715000E-8	0.002409
4.720000E-8	0.002394
4.725000E-8	0.002459
4.730000E-8	0.002600
4.735000E-8	0.002834
4.740000E-8	0.002913
4.745000E-8	0.003056
4.750000E-8	0.003094
4.755000E-8	0.003250
4.760000E-8	0.003225
4.765000E-8	0.003122
4.770000E-8	0.002994
4.775000E-8	0.002791
4.780000E-8	0.002697
4.785000E-8	0.002456
4.790000E-8	0.002156
4.795000E-8	0.002019
4.800000E-8	0.001881
4.805000E-8	0.001803
4.810000E-8	0.001913
4.815000E-8	0.002078
4.820000E-8	0.002100
4.825000E-8	0.002450
4.830000E-8	0.002606
4.835000E-8	0.002819
4.840000E-8	0.002956
4.845000E-8	0.003022
4.850000E-8	0.003000
4.855000E-8	0.002891
4.860000E-8	0.002759
4.865000E-8	0.002563
4.870000E-8	0.002531
4.875000E-8	0.002397
4.880000E-8	0.002200
4.885000E-8	0.002128
4.890000E-8	0.002122
4.895000E-8	0.002109
4.900000E-8	0.002178
4.905000E-8	0.002347
4.910000E-8	0.002372
4.915000E-8	0.002703
4.920000E-8	0.002794
4.925000E-8	0.003116
4.930000E-8	0.003203
4.935000E-8	0.003331
4.940000E-8	0.003256
4.945000E-8	0.003175
4.950000E-8	0.003072
4.955000E-8	0.003031
4.960000E-8	0.002844
4.965000E-8	0.002659
4.970000E-8	0.002463
4.975000E-8	0.002322
4.980000E-8	0.002128
4.985000E-8	0.002050
4.990000E-8	0.001981
4.995000E-8	0.002016
5.000000E-8	0.002134
5.005000E-8	0.002147
5.010000E-8	0.002156
5.015000E-8	0.002363
5.020000E-8	0.002403
5.025000E-8	0.002647
5.030000E-8	0.002666
5.035000E-8	0.002638
5.040000E-8	0.002731
5.045000E-8	0.002631
5.050000E-8	0.002581
5.055000E-8	0.002581
5.060000E-8	0.002553
5.065000E-8	0.002484
5.070000E-8	0.002381
5.075000E-8	0.002394
5.080000E-8	0.002319
5.085000E-8	0.002334
5.090000E-8	0.002278
5.095000E-8	0.002363
5.100000E-8	0.002519
5.105000E-8	0.002728
5.110000E-8	0.002716
5.115000E-8	0.002816
5.120000E-8	0.002878
5.125000E-8	0.002969
5.130000E-8	0.002956
5.135000E-8	0.002972
5.140000E-8	0.002825
5.145000E-8	0.002847
5.150000E-8	0.002766
5.155000E-8	0.002591
5.160000E-8	0.002472
5.165000E-8	0.002384
5.170000E-8	0.002266
5.175000E-8	0.002300
5.180000E-8	0.002225
5.185000E-8	0.002294
5.190000E-8	0.002278
5.195000E-8	0.002563
5.200000E-8	0.002731
5.205000E-8	0.002853
5.210000E-8	0.002928
5.215000E-8	0.003097
5.220000E-8	0.003084
5.225000E-8	0.003275
5.230000E-8	0.003219
5.235000E-8	0.003141
5.240000E-8	0.002928
5.245000E-8	0.002841
5.250000E-8	0.002694
5.255000E-8	0.002544
5.260000E-8	0.002375
5.265000E-8	0.002394
5.270000E-8	0.002475
5.275000E-8	0.002500
5.280000E-8	0.002634
5.285000E-8	0.002803
5.290000E-8	0.002869
5.295000E-8	0.003053
5.300000E-8	0.003097
5.305000E-8	0.003272
5.310000E-8	0.003256
5.315000E-8	0.003347
5.320000E-8	0.003250
5.325000E-8	0.003219
5.330000E-8	0.003116
5.335000E-8	0.003047
5.340000E-8	0.002872
5.345000E-8	0.002756
5.350000E-8	0.002613
5.355000E-8	0.002584
5.360000E-8	0.002478
5.365000E-8	0.002431
5.370000E-8	0.002506
5.375000E-8	0.002506
5.380000E-8	0.002566
5.385000E-8	0.002669
5.390000E-8	0.002703
5.395000E-8	0.002863
5.400000E-8	0.002975
5.405000E-8	0.003134
5.410000E-8	0.003069
5.415000E-8	0.003072
5.420000E-8	0.002900
5.425000E-8	0.002847
5.430000E-8	0.002613
5.435000E-8	0.002447
5.440000E-8	0.002281
5.445000E-8	0.002325
5.450000E-8	0.002272
5.455000E-8	0.002213
5.460000E-8	0.002300
5.465000E-8	0.002441
5.470000E-8	0.002578
5.475000E-8	0.002803
5.480000E-8	0.002944
5.485000E-8	0.003034
5.490000E-8	0.003047
5.495000E-8	0.003238
5.500000E-8	0.003228
5.505000E-8	0.003200
5.510000E-8	0.003247
5.515000E-8	0.003150
5.520000E-8	0.002966
5.525000E-8	0.002953
5.530000E-8	0.002747
5.535000E-8	0.002672
5.540000E-8	0.002516
5.545000E-8	0.002503
5.550000E-8	0.002400
5.555000E-8	0.002369
5.560000E-8	0.002409
5.565000E-8	0.002494
5.570000E-8	0.002491
5.575000E-8	0.002662
5.580000E-8	0.002669
5.585000E-8	0.002709
5.590000E-8	0.002919
5.595000E-8	0.002938
5.600000E-8	0.002934
5.605000E-8	0.002953
5.610000E-8	0.002975
5.615000E-8	0.002841
5.620000E-8	0.002816
5.625000E-8	0.002603
5.630000E-8	0.002447
5.635000E-8	0.002356
5.640000E-8	0.002144
5.645000E-8	0.002175
5.650000E-8	0.002172
5.655000E-8	0.002166
5.660000E-8	0.002303
5.665000E-8	0.002459
5.670000E-8	0.002544
5.675000E-8	0.002722
5.680000E-8	0.002841
5.685000E-8	0.002894
5.690000E-8	0.002988
5.695000E-8	0.002950
5.700000E-8	0.002900
5.705000E-8	0.002819
5.710000E-8	0.002747
5.715000E-8	0.002791
5.720000E-8	0.002606
5.725000E-8	0.002459
5.730000E-8	0.002447
5.735000E-8	0.002406
5.740000E-8	0.002522
5.745000E-8	0.002519
5.750000E-8	0.002556
5.755000E-8	0.002688
5.760000E-8	0.002781
5.765000E-8	0.002950
5.770000E-8	0.002972
5.775000E-8	0.003166
5.780000E-8	0.003147
5.785000E-8	0.003119
5.790000E-8	0.003097
5.795000E-8	0.003100
5.800000E-8	0.002856
5.805000E-8	0.002775
5.810000E-8	0.002684
5.815000E-8	0.002606
5.820000E-8	0.002591
5.825000E-8	0.002506
5.830000E-8	0.002531
5.835000E-8	0.002534
5.840000E-8	0.002600
5.845000E-8	0.002784
5.850000E-8	0.002703
5.855000E-8	0.002737
5.860000E-8	0.002919
5.865000E-8	0.003022
5.870000E-8	0.003012
5.875000E-8	0.003094
5.880000E-8	0.002966
5.885000E-8	0.002988
5.890000E-8	0.002863
5.895000E-8	0.002750
5.900000E-8	0.002609
5.905000E-8	0.002578
5.910000E-8	0.002522
5.915000E-8	0.002459
5.920000E-8	0.002466
5.925000E-8	0.002356
5.930000E-8	0.002456
5.935000E-8	0.002581
5.940000E-8	0.002581
5.945000E-8	0.002641
5.950000E-8	0.002734
5.955000E-8	0.002734
5.960000E-8	0.002741
5.965000E-8	0.002869
5.970000E-8	0.002888
5.975000E-8	0.002897
5.980000E-8	0.002800
5.985000E-8	0.002800
5.990000E-8	0.002763
5.995000E-8	0.002556
6.000000E-8	0.002547
6.005000E-8	0.002603
6.010000E-8	0.002622
6.015000E-8	0.002609
6.020000E-8	0.002547
6.025000E-8	0.002625
6.030000E-8	0.002775
6.035000E-8	0.002781
6.040000E-8	0.002806
6.045000E-8	0.002878
6.050000E-8	0.002928
6.055000E-8	0.002947
6.060000E-8	0.002875
6.065000E-8	0.002984
6.070000E-8	0.002981
6.075000E-8	0.003087
6.080000E-8	0.003050
6.085000E-8	0.002909
6.090000E-8	0.002959
6.095000E-8	0.002847
6.100000E-8	0.002784
6.105000E-8	0.002756
6.110000E-8	0.002681
6.115000E-8	0.002722
6.120000E-8	0.002625
6.125000E-8	0.002641
6.130000E-8	0.002622
6.135000E-8	0.002619
6.140000E-8	0.002650
6.145000E-8	0.002691
6.150000E-8	0.002653
6.155000E-8	0.002753
6.160000E-8	0.002678
6.165000E-8	0.002734
6.170000E-8	0.002688
6.175000E-8	0.002559
6.180000E-8	0.002469
6.185000E-8	0.002394
6.190000E-8	0.002250
6.195000E-8	0.002231
6.200000E-8	0.002184
6.205000E-8	0.002172
6.210000E-8	0.002300
6.215000E-8	0.002350
6.220000E-8	0.002388
6.225000E-8	0.002512
6.230000E-8	0.002625
6.235000E-8	0.002734
6.240000E-8	0.002816
6.245000E-8	0.002813
6.250000E-8	0.002916
6.255000E-8	0.002941
6.260000E-8	0.002913
6.265000E-8	0.002913
6.270000E-8	0.002856
6.275000E-8	0.002662
6.280000E-8	0.002647
6.285000E-8	0.002600
6.290000E-8	0.002581
6.295000E-8	0.002509
6.300000E-8	0.002519
6.305000E-8	0.002656
6.310000E-8	0.002641
6.315000E-8	0.002700
6.320000E-8	0.002647
6.325000E-8	0.002737
6.330000E-8	0.002938
6.335000E-8	0.002988
6.340000E-8	0.002988
6.345000E-8	0.003078
6.350000E-8	0.003113
6.355000E-8	0.003050
6.360000E-8	0.002859
6.365000E-8	0.002834
6.370000E-8	0.002634
6.375000E-8	0.002628
6.380000E-8	0.002550
6.385000E-8	0.002538
6.390000E-8	0.002563
6.395000E-8	0.002522
6.400000E-8	0.002609
6.405000E-8	0.002778
6.410000E-8	0.002866
6.415000E-8	0.003012
6.420000E-8	0.003113
6.425000E-8	0.003216
6.430000E-8	0.003328
6.435000E-8	0.003322
6.440000E-8	0.003266
6.445000E-8	0.003119
6.450000E-8	0.003147
6.455000E-8	0.002919
6.460000E-8	0.002722
6.465000E-8	0.002622
6.470000E-8	0.002494
6.475000E-8	0.002394
6.480000E-8	0.002403
6.485000E-8	0.002278
6.490000E-8	0.002313
6.495000E-8	0.002481
6.500000E-8	0.002581
6.505000E-8	0.002681
6.510000E-8	0.002684
6.515000E-8	0.002750
6.520000E-8	0.002791
6.525000E-8	0.002919
6.530000E-8	0.002928
6.535000E-8	0.002975
6.540000E-8	0.002834
6.545000E-8	0.002763
6.550000E-8	0.002681
6.555000E-8	0.002603
6.560000E-8	0.002559
6.565000E-8	0.002538
6.570000E-8	0.002394
6.575000E-8	0.002381
6.580000E-8	0.002463
6.585000E-8	0.002531
6.590000E-8	0.002569
6.595000E-8	0.002747
6.600000E-8	0.002828
6.605000E-8	0.002863
6.610000E-8	0.002850
6.615000E-8	0.003041
6.620000E-8	0.002975
6.625000E-8	0.003106
6.630000E-8	0.002959
6.635000E-8	0.002988
6.640000E-8	0.002944
6.645000E-8	0.002753
6.650000E-8	0.002775
6.655000E-8	0.002813
6.660000E-8	0.002744
6.665000E-8	0.002809
6.670000E-8	0.002819
6.675000E-8	0.002906
6.680000E-8	0.002834
6.685000E-8	0.002966
6.690000E-8	0.003019
6.695000E-8	0.003047
6.700000E-8	0.002966
6.705000E-8	0.002850
6.710000E-8	0.002838
6.715000E-8	0.002800
6.720000E-8	0.002847
6.725000E-8	0.002853
6.730000E-8	0.002906
6.735000E-8	0.002844
6.740000E-8	0.002706
6.745000E-8	0.002691
6.750000E-8	0.002703
6.755000E-8	0.002681
6.760000E-8	0.002600
6.765000E-8	0.002563
6.770000E-8	0.002591
6.775000E-8	0.002488
6.780000E-8	0.002500
6.785000E-8	0.002559
6.790000E-8	0.002678
6.795000E-8	0.002694
6.800000E-8	0.002744
6.805000E-8	0.002822
6.810000E-8	0.002881
6.815000E-8	0.002991
6.820000E-8	0.003016
6.825000E-8	0.002834
6.830000E-8	0.002684
6.835000E-8	0.002600
6.840000E-8	0.002469
6.845000E-8	0.002453
6.850000E-8	0.002391
6.855000E-8	0.002269
6.860000E-8	0.002259
6.865000E-8	0.002516
6.870000E-8	0.002534
6.875000E-8	0.002725
6.880000E-8	0.002791
6.885000E-8	0.002916
6.890000E-8	0.003000
6.895000E-8	0.003038
6.900000E-8	0.003109
6.905000E-8	0.003147
6.910000E-8	0.003034
6.915000E-8	0.002978
6.920000E-8	0.002947
6.925000E-8	0.002806
6.930000E-8	0.002713
6.935000E-8	0.002672
6.940000E-8	0.002669
6.945000E-8	0.002662
6.950000E-8	0.002609
6.955000E-8	0.002734
6.960000E-8	0.002638
6.965000E-8	0.002678
6.970000E-8	0.002566
6.975000E-8	0.002509
6.980000E-8	0.002488
6.985000E-8	0.002381
6.990000E-8	0.002456
6.995000E-8	0.002378
7.000000E-8	0.002309
7.005000E-8	0.002328
7.010000E-8	0.002372
7.015000E-8	0.002397
7.020000E-8	0.002341
7.025000E-8	0.002506
7.030000E-8	0.002600
7.035000E-8	0.002606
7.040000E-8	0.002616
7.045000E-8	0.002609
7.050000E-8	0.002544
7.055000E-8	0.002541
7.060000E-8	0.002666
7.065000E-8	0.002681
7.070000E-8	0.002628
7.075000E-8	0.002688
7.080000E-8	0.002659
7.085000E-8	0.002766
7.090000E-8	0.002828
7.095000E-8	0.002725
7.100000E-8	0.002772
7.105000E-8	0.002841
7.110000E-8	0.002856
7.115000E-8	0.002834
7.120000E-8	0.002741
7.125000E-8	0.002722
7.130000E-8	0.002594
7.135000E-8	0.002556
7.140000E-8	0.002584
7.145000E-8	0.002662
7.150000E-8	0.002525
7.155000E-8	0.002525
7.160000E-8	0.002509
7.165000E-8	0.002600
7.170000E-8	0.002575
7.175000E-8	0.002600
7.180000E-8	0.002531
7.185000E-8	0.002656
7.190000E-8	0.002653
7.195000E-8	0.002841
7.200000E-8	0.002791
7.205000E-8	0.002878
7.210000E-8	0.002847
7.215000E-8	0.002881
7.220000E-8	0.002981
7.225000E-8	0.002919
7.230000E-8	0.002944
7.235000E-8	0.002863
7.240000E-8	0.002878
7.245000E-8	0.002866
7.250000E-8	0.002784
7.255000E-8	0.002791
7.260000E-8	0.002809
7.265000E-8	0.002841
7.270000E-8	0.002778
7.275000E-8	0.002847
7.280000E-8	0.002806
7.285000E-8	0.002878
7.290000E-8	0.002775
7.295000E-8	0.002737
7.300000E-8	0.002781
7.305000E-8	0.002728
7.310000E-8	0.002728
7.315000E-8	0.002831
7.320000E-8	0.002697
7.325000E-8	0.002778
7.330000E-8	0.002844
7.335000E-8	0.002903
7.340000E-8	0.002822
7.345000E-8	0.002884
7.350000E-8	0.002819
7.355000E-8	0.002903
7.360000E-8	0.002838
7.365000E-8	0.002809
7.370000E-8	0.002728
7.375000E-8	0.002781
7.380000E-8	0.002678
7.385000E-8	0.002544
7.390000E-8	0.002581
7.395000E-8	0.002497
7.400000E-8	0.002394
7.405000E-8	0.002506
7.410000E-8	0.002472
7.415000E-8	0.002494
7.420000E-8	0.002431
7.425000E-8	0.002512
7.430000E-8	0.002494
7.435000E-8	0.002572
7.440000E-8	0.002506
7.445000E-8	0.002653
7.450000E-8	0.002675
7.455000E-8	0.002719
7.460000E-8	0.002791
7.465000E-8	0.002919
7.470000E-8	0.002834
7.475000E-8	0.002856
7.480000E-8	0.002853
7.485000E-8	0.002831
7.490000E-8	0.002875
7.495000E-8	0.002972
7.500000E-8	0.002966
7.505000E-8	0.002950
7.510000E-8	0.002903
7.515000E-8	0.002978
7.520000E-8	0.002975
7.525000E-8	0.003031
7.530000E-8	0.003038
7.535000E-8	0.003100
7.540000E-8	0.003125
7.545000E-8	0.003175
7.550000E-8	0.003009
7.555000E-8	0.003044
7.560000E-8	0.002969
7.565000E-8	0.002963
7.570000E-8	0.002831
7.575000E-8	0.002838
7.580000E-8	0.002719
7.585000E-8	0.002866
7.590000E-8	0.002791
7.595000E-8	0.002900
7.600000E-8	0.002869
7.605000E-8	0.002838
7.610000E-8	0.002831
7.615000E-8	0.002756
7.620000E-8	0.002806
7.625000E-8	0.002822
7.630000E-8	0.002759
7.635000E-8	0.002737
7.640000E-8	0.002669
7.645000E-8	0.002709
7.650000E-8	0.002728
7.655000E-8	0.002688
7.660000E-8	0.002809
7.665000E-8	0.002772
7.670000E-8	0.002825
7.675000E-8	0.002794
7.680000E-8	0.002744
7.685000E-8	0.002750
7.690000E-8	0.002622
7.695000E-8	0.002634
7.700000E-8	0.002478
7.705000E-8	0.002328
7.710000E-8	0.002353
7.715000E-8	0.002363
7.720000E-8	0.002334
7.725000E-8	0.002384
7.730000E-8	0.002381
7.735000E-8	0.002484
7.740000E-8	0.002603
7.745000E-8	0.002706
7.750000E-8	0.002694
7.755000E-8	0.002825
7.760000E-8	0.002769
7.765000E-8	0.002856
7.770000E-8	0.002772
7.775000E-8	0.002666
7.780000E-8	0.002538
7.785000E-8	0.002522
7.790000E-8	0.002591
7.795000E-8	0.002572
7.800000E-8	0.002525
7.805000E-8	0.002619
7.810000E-8	0.002594
7.815000E-8	0.002675
7.820000E-8	0.002700
7.825000E-8	0.002734
7.830000E-8	0.002803
7.835000E-8	0.002916
7.840000E-8	0.002722
7.845000E-8	0.002744
7.850000E-8	0.002641
7.855000E-8	0.002569
7.860000E-8	0.002506
7.865000E-8	0.002525
7.870000E-8	0.002522
7.875000E-8	0.002497
7.880000E-8	0.002447
7.885000E-8	0.002544
7.890000E-8	0.002522
7.895000E-8	0.002569
7.900000E-8	0.002628
7.905000E-8	0.002613
7.910000E-8	0.002631
7.915000E-8	0.002688
7.920000E-8	0.002578
7.925000E-8	0.002488
7.930000E-8	0.002459
7.935000E-8	0.002516
7.940000E-8	0.002391
7.945000E-8	0.002306
7.950000E-8	0.002388
7.955000E-8	0.002369
7.960000E-8	0.002309
7.965000E-8	0.002400
7.970000E-8	0.002575
7.975000E-8	0.002697
7.980000E-8	0.002669
7.985000E-8	0.002741
7.990000E-8	0.002788
7.995000E-8	0.002841
8.000000E-8	0.002825
8.005000E-8	0.002897
8.010000E-8	0.002881
8.015000E-8	0.002934
8.020000E-8	0.002991
8.025000E-8	0.003031
8.030000E-8	0.003059
8.035000E-8	0.003056
8.040000E-8	0.002984
8.045000E-8	0.002775
8.050000E-8	0.002806
8.055000E-8	0.002747
8.060000E-8	0.002713
8.065000E-8	0.002700
8.070000E-8	0.002656
8.075000E-8	0.002622
8.080000E-8	0.002606
8.085000E-8	0.002541
8.090000E-8	0.002572
8.095000E-8	0.002531
8.100000E-8	0.002525
8.105000E-8	0.002534
8.110000E-8	0.002556
8.115000E-8	0.002634
8.120000E-8	0.002509
8.125000E-8	0.002678
8.130000E-8	0.002581
8.135000E-8	0.002638
8.140000E-8	0.002559
8.145000E-8	0.002544
8.150000E-8	0.002422
8.155000E-8	0.002475
8.160000E-8	0.002359
8.165000E-8	0.002363
8.170000E-8	0.002322
8.175000E-8	0.002447
8.180000E-8	0.002437
8.185000E-8	0.002563
8.190000E-8	0.002547
8.195000E-8	0.002519
8.200000E-8	0.002587
8.205000E-8	0.002647
8.210000E-8	0.002644
8.215000E-8	0.002597
8.220000E-8	0.002512
8.225000E-8	0.002478
8.230000E-8	0.002437
8.235000E-8	0.002481
8.240000E-8	0.002503
8.245000E-8	0.002591
8.250000E-8	0.002603
8.255000E-8	0.002744
8.260000E-8	0.002822
8.265000E-8	0.002900
8.270000E-8	0.002894
8.275000E-8	0.002938
8.280000E-8	0.002841
8.285000E-8	0.002697
8.290000E-8	0.002584
8.295000E-8	0.002587
8.300000E-8	0.002509
8.305000E-8	0.002503
8.310000E-8	0.002456
8.315000E-8	0.002516
8.320000E-8	0.002606
8.325000E-8	0.002725
8.330000E-8	0.002669
8.335000E-8	0.002722
8.340000E-8	0.002753
8.345000E-8	0.002803
8.350000E-8	0.002709
8.355000E-8	0.002741
8.360000E-8	0.002741
8.365000E-8	0.002734
8.370000E-8	0.002737
8.375000E-8	0.002725
8.380000E-8	0.002734
8.385000E-8	0.002700
8.390000E-8	0.002725
8.395000E-8	0.002647
8.400000E-8	0.002650
8.405000E-8	0.002662
8.410000E-8	0.002647
8.415000E-8	0.002688
8.420000E-8	0.002713
8.425000E-8	0.002809
8.430000E-8	0.002644
8.435000E-8	0.002659
8.440000E-8	0.002638
8.445000E-8	0.002744
8.450000E-8	0.002713
8.455000E-8	0.002759
8.460000E-8	0.002691
8.465000E-8	0.002816
8.470000E-8	0.002809
8.475000E-8	0.002900
8.480000E-8	0.003016
8.485000E-8	0.003050
8.490000E-8	0.003059
8.495000E-8	0.002997
8.500000E-8	0.002988
8.505000E-8	0.003006
8.510000E-8	0.002984
8.515000E-8	0.002994
8.520000E-8	0.002872
8.525000E-8	0.002972
8.530000E-8	0.003038
8.535000E-8	0.002938
8.540000E-8	0.003006
8.545000E-8	0.003091
8.550000E-8	0.003113
8.555000E-8	0.003128
8.560000E-8	0.003216
8.565000E-8	0.003194
8.570000E-8	0.003228
8.575000E-8	0.003338
8.580000E-8	0.003228
8.585000E-8	0.003053
8.590000E-8	0.002959
8.595000E-8	0.002906
8.600000E-8	0.002794
8.605000E-8	0.002625
8.610000E-8	0.002572
8.615000E-8	0.002506
8.620000E-8	0.002409
8.625000E-8	0.002519
8.630000E-8	0.002559
8.635000E-8	0.002613
8.640000E-8	0.002559
8.645000E-8	0.002603
8.650000E-8	0.002587
8.655000E-8	0.002609
8.660000E-8	0.002563
8.665000E-8	0.002541
8.670000E-8	0.002675
8.675000E-8	0.002772
8.680000E-8	0.002753
8.685000E-8	0.002638
8.690000E-8	0.002719
8.695000E-8	0.002734
8.700000E-8	0.002600
8.705000E-8	0.002722
8.710000E-8	0.002656
8.715000E-8	0.002769
8.720000E-8	0.002697
8.725000E-8	0.002709
8.730000E-8	0.002719
8.735000E-8	0.002666
8.740000E-8	0.002522
8.745000E-8	0.002650
8.750000E-8	0.002531
8.755000E-8	0.002553
8.760000E-8	0.002453
8.765000E-8	0.002659
8.770000E-8	0.002644
8.775000E-8	0.002706
8.780000E-8	0.002622
8.785000E-8	0.002803
8.790000E-8	0.002788
8.795000E-8	0.002716
8.800000E-8	0.002653
8.805000E-8	0.002622
8.810000E-8	0.002625
8.815000E-8	0.002638
8.820000E-8	0.002581
8.825000E-8	0.002644
8.830000E-8	0.002684
8.835000E-8	0.002706
8.840000E-8	0.002709
8.845000E-8	0.002731
8.850000E-8	0.002788
8.855000E-8	0.002828
8.860000E-8	0.002928
8.865000E-8	0.002813
8.870000E-8	0.002781
8.875000E-8	0.002684
8.880000E-8	0.002541
8.885000E-8	0.002463
8.890000E-8	0.002356
8.895000E-8	0.002388
8.900000E-8	0.002297
8.905000E-8	0.002300
8.910000E-8	0.002344
8.915000E-8	0.002450
8.920000E-8	0.002550
8.925000E-8	0.002619
8.930000E-8	0.002728
8.935000E-8	0.002706
8.940000E-8	0.002750
8.945000E-8	0.002719
8.950000E-8	0.002581
8.955000E-8	0.002628
8.960000E-8	0.002575
8.965000E-8	0.002591
8.970000E-8	0.002425
8.975000E-8	0.002350
8.980000E-8	0.002347
8.985000E-8	0.002425
8.990000E-8	0.002369
8.995000E-8	0.002488
9.000000E-8	0.002463
9.005000E-8	0.002300
9.010000E-8	0.002284
9.015000E-8	0.002453
9.020000E-8	0.002322
9.025000E-8	0.002366
9.030000E-8	0.002341
9.035000E-8	0.002491
9.040000E-8	0.002372
9.045000E-8	0.002569
9.050000E-8	0.002656
9.055000E-8	0.002647
9.060000E-8	0.002691
9.065000E-8	0.002734
9.070000E-8	0.002759
9.075000E-8	0.002878
9.080000E-8	0.002713
9.085000E-8	0.002672
9.090000E-8	0.002631
9.095000E-8	0.002684
9.100000E-8	0.002631
9.105000E-8	0.002675
9.110000E-8	0.002603
9.115000E-8	0.002662
9.120000E-8	0.002544
9.125000E-8	0.002622
9.130000E-8	0.002569
9.135000E-8	0.002616
9.140000E-8	0.002584
9.145000E-8	0.002528
9.150000E-8	0.002544
9.155000E-8	0.002597
9.160000E-8	0.002478
9.165000E-8	0.002525
9.170000E-8	0.002409
9.175000E-8	0.002534
9.180000E-8	0.002494
9.185000E-8	0.002591
9.190000E-8	0.002575
9.195000E-8	0.002516
9.200000E-8	0.002597
9.205000E-8	0.002753
9.210000E-8	0.002763
9.215000E-8	0.002788
9.220000E-8	0.002725
9.225000E-8	0.002788
9.230000E-8	0.002953
9.235000E-8	0.002928
9.240000E-8	0.002919
9.245000E-8	0.002878
9.250000E-8	0.002794
9.255000E-8	0.002709
9.260000E-8	0.002713
9.265000E-8	0.002697
9.270000E-8	0.002594
9.275000E-8	0.002659
9.280000E-8	0.002697
9.285000E-8	0.002700
9.290000E-8	0.002781
9.295000E-8	0.002759
9.300000E-8	0.002719
9.305000E-8	0.002716
9.310000E-8	0.002806
9.315000E-8	0.002834
9.320000E-8	0.002719
9.325000E-8	0.002794
9.330000E-8	0.002828
9.335000E-8	0.002925
9.340000E-8	0.002828
9.345000E-8	0.002831
9.350000E-8	0.002778
9.355000E-8	0.002881
9.360000E-8	0.002797
9.365000E-8	0.002728
9.370000E-8	0.002644
9.375000E-8	0.002644
9.380000E-8	0.002600
9.385000E-8	0.002587
9.390000E-8	0.002484
9.395000E-8	0.002341
9.400000E-8	0.002313
9.405000E-8	0.002444
9.410000E-8	0.002531
9.415000E-8	0.002613
9.420000E-8	0.002587
9.425000E-8	0.002772
9.430000E-8	0.002853
9.435000E-8	0.002881
9.440000E-8	0.002788
9.445000E-8	0.002875
9.450000E-8	0.002919
9.455000E-8	0.002994
9.460000E-8	0.002991
9.465000E-8	0.002916
9.470000E-8	0.002838
9.475000E-8	0.002947
9.480000E-8	0.002925
9.485000E-8	0.002963
9.490000E-8	0.002809
9.495000E-8	0.002869
9.500000E-8	0.002763
9.505000E-8	0.002784
9.510000E-8	0.002778
9.515000E-8	0.002737
9.520000E-8	0.002672
9.525000E-8	0.002675
9.530000E-8	0.002647
9.535000E-8	0.002750
9.540000E-8	0.002769
9.545000E-8	0.002856
9.550000E-8	0.002922
9.555000E-8	0.002975
9.560000E-8	0.002994
9.565000E-8	0.003109
9.570000E-8	0.002916
9.575000E-8	0.002988
9.580000E-8	0.002931
9.585000E-8	0.002878
9.590000E-8	0.002953
9.595000E-8	0.002944
9.600000E-8	0.003000
9.605000E-8	0.002897
9.610000E-8	0.002881
9.615000E-8	0.002838
9.620000E-8	0.002884
9.625000E-8	0.002928
9.630000E-8	0.002891
9.635000E-8	0.002988
9.640000E-8	0.002944
9.645000E-8	0.002931
9.650000E-8	0.002863
9.655000E-8	0.002841
9.660000E-8	0.002844
9.665000E-8	0.002966
9.670000E-8	0.002844
9.675000E-8	0.002913
9.680000E-8	0.002841
9.685000E-8	0.003063
9.690000E-8	0.003119
9.695000E-8	0.003184
9.700000E-8	0.003275
9.705000E-8	0.003325
9.710000E-8	0.003313
9.715000E-8	0.003194
9.720000E-8	0.003134
9.725000E-8	0.003103
9.730000E-8	0.003028
9.735000E-8	0.002934
9.740000E-8	0.002794
9.745000E-8	0.002772
9.750000E-8	0.002631
9.755000E-8	0.002631
9.760000E-8	0.002644
9.765000E-8	0.002578
9.770000E-8	0.002444
9.775000E-8	0.002459
9.780000E-8	0.002300
9.785000E-8	0.002359
9.790000E-8	0.002309
9.795000E-8	0.002472
9.800000E-8	0.002409
9.805000E-8	0.002525
9.810000E-8	0.002616
9.815000E-8	0.002644
9.820000E-8	0.002669
9.825000E-8	0.002784
9.830000E-8	0.002794
9.835000E-8	0.002844
9.840000E-8	0.002769
9.845000E-8	0.002662
9.850000E-8	0.002641
9.855000E-8	0.002688
9.860000E-8	0.002569
9.865000E-8	0.002753
9.870000E-8	0.002813
9.875000E-8	0.002831
9.880000E-8	0.002847
9.885000E-8	0.002906
9.890000E-8	0.002994
9.895000E-8	0.003031
9.900000E-8	0.003006
9.905000E-8	0.002938
9.910000E-8	0.002875
9.915000E-8	0.002869
9.920000E-8	0.002731
9.925000E-8	0.002744
9.930000E-8	0.002641
9.935000E-8	0.002475
9.940000E-8	0.002441
9.945000E-8	0.002416
9.950000E-8	0.002413
9.955000E-8	0.002397
9.960000E-8	0.002347
9.965000E-8	0.002475
9.970000E-8	0.002544
9.975000E-8	0.002644
9.980000E-8	0.002634
9.985000E-8	0.002737
9.990000E-8	0.002825
9.995000E-8	0.002819
