LabVIEW Measurement	
Writer_Version	2
Reader_Version	2
Separator	Tab
Decimal_Separator	.
Multi_Headings	No
X_Columns	Multi
Time_Pref	Relative
Operator	TG lab
Date	2015/03/07
Time	11:26:25.9229102134704589844
***End_of_Header***	
	
Channels	1	
Samples	2000	
Date	2015/03/07	
Time	11:26:25.9229102134704589844	
X_Dimension	Time	
X0	0.0000000000000000E+0	
Delta_X	5.000000E-11	
***End_of_Header***		
X_Value	Untitled	Comment
0.000000	0.001138
5.000000E-11	0.001125
1.000000E-10	0.001038
1.500000E-10	0.001022
2.000000E-10	0.000959
2.500000E-10	0.001006
3.000000E-10	0.001125
3.500000E-10	0.001275
4.000000E-10	0.001331
4.500000E-10	0.001400
5.000000E-10	0.001347
5.500000E-10	0.001503
6.000000E-10	0.001484
6.500000E-10	0.001550
7.000000E-10	0.001453
7.500000E-10	0.001475
8.000000E-10	0.001303
8.500000E-10	0.001266
9.000000E-10	0.001191
9.500000E-10	0.001147
1.000000E-9	0.001125
1.050000E-9	0.001263
1.100000E-9	0.001156
1.150000E-9	0.001144
1.200000E-9	0.001163
1.250000E-9	0.001200
1.300000E-9	0.001322
1.350000E-9	0.001466
1.400000E-9	0.001463
1.450000E-9	0.001384
1.500000E-9	0.001313
1.550000E-9	0.001331
1.600000E-9	0.001234
1.650000E-9	0.001209
1.700000E-9	0.001081
1.750000E-9	0.001053
1.800000E-9	0.001000
1.850000E-9	0.001034
1.900000E-9	0.001028
1.950000E-9	0.001047
2.000000E-9	0.001100
2.050000E-9	0.001203
2.100000E-9	0.001228
2.150000E-9	0.001228
2.200000E-9	0.001197
2.250000E-9	0.001147
2.300000E-9	0.001106
2.350000E-9	0.001125
2.400000E-9	0.001072
2.450000E-9	0.000994
2.500000E-9	0.001006
2.550000E-9	0.001131
2.600000E-9	0.001247
2.650000E-9	0.001259
2.700000E-9	0.001313
2.750000E-9	0.001347
2.800000E-9	0.001259
2.850000E-9	0.001247
2.900000E-9	0.001194
2.950000E-9	0.001031
3.000000E-9	0.001047
3.050000E-9	0.000975
3.100000E-9	0.000859
3.150000E-9	0.000859
3.200000E-9	0.000822
3.250000E-9	0.000809
3.300000E-9	0.000806
3.350000E-9	0.000916
3.400000E-9	0.000872
3.450000E-9	0.000881
3.500000E-9	0.000938
3.550000E-9	0.001038
3.600000E-9	0.000981
3.650000E-9	0.000959
3.700000E-9	0.000938
3.750000E-9	0.000941
3.800000E-9	0.000934
3.850000E-9	0.000997
3.900000E-9	0.000997
3.950000E-9	0.001050
4.000000E-9	0.001169
4.050000E-9	0.001319
4.100000E-9	0.001394
4.150000E-9	0.001391
4.200000E-9	0.001319
4.250000E-9	0.001341
4.300000E-9	0.001231
4.350000E-9	0.001153
4.400000E-9	0.001091
4.450000E-9	0.001075
4.500000E-9	0.000994
4.550000E-9	0.000944
4.600000E-9	0.000944
4.650000E-9	0.000903
4.700000E-9	0.000841
4.750000E-9	0.000737
4.800000E-9	0.000381
4.850000E-9	-0.000313
4.900000E-9	-0.001081
4.950000E-9	-0.001944
5.000000E-9	-0.003266
5.050000E-9	-0.004656
5.100000E-9	-0.006406
5.150000E-9	-0.008388
5.200000E-9	-0.010494
5.250000E-9	-0.012444
5.300000E-9	-0.014356
5.350000E-9	-0.016094
5.400000E-9	-0.017566
5.450000E-9	-0.018625
5.500000E-9	-0.019353
5.550000E-9	-0.019469
5.600000E-9	-0.019191
5.650000E-9	-0.018438
5.700000E-9	-0.017434
5.750000E-9	-0.016084
5.800000E-9	-0.014725
5.850000E-9	-0.013416
5.900000E-9	-0.012109
5.950000E-9	-0.010934
6.000000E-9	-0.010238
6.050000E-9	-0.009859
6.100000E-9	-0.009813
6.150000E-9	-0.010088
6.200000E-9	-0.010619
6.250000E-9	-0.011159
6.300000E-9	-0.011831
6.350000E-9	-0.012322
6.400000E-9	-0.012716
6.450000E-9	-0.012781
6.500000E-9	-0.012650
6.550000E-9	-0.012128
6.600000E-9	-0.011472
6.650000E-9	-0.010375
6.700000E-9	-0.009234
6.750000E-9	-0.007944
6.800000E-9	-0.006853
6.850000E-9	-0.005859
6.900000E-9	-0.005072
6.950000E-9	-0.004556
7.000000E-9	-0.004266
7.050000E-9	-0.004203
7.100000E-9	-0.004581
7.150000E-9	-0.005066
7.200000E-9	-0.005750
7.250000E-9	-0.006413
7.300000E-9	-0.007075
7.350000E-9	-0.007491
7.400000E-9	-0.007753
7.450000E-9	-0.007791
7.500000E-9	-0.007378
7.550000E-9	-0.006656
7.600000E-9	-0.005831
7.650000E-9	-0.004831
7.700000E-9	-0.003731
7.750000E-9	-0.002781
7.800000E-9	-0.001956
7.850000E-9	-0.001150
7.900000E-9	-0.000797
7.950000E-9	-0.000722
8.000000E-9	-0.000888
8.050000E-9	-0.001322
8.100000E-9	-0.001975
8.150000E-9	-0.002634
8.200000E-9	-0.003350
8.250000E-9	-0.003922
8.300000E-9	-0.004344
8.350000E-9	-0.004600
8.400000E-9	-0.004428
8.450000E-9	-0.004272
8.500000E-9	-0.003688
8.550000E-9	-0.002869
8.600000E-9	-0.001991
8.650000E-9	-0.001069
8.700000E-9	-0.000322
8.750000E-9	0.000388
8.800000E-9	0.001059
8.850000E-9	0.001297
8.900000E-9	0.001166
8.950000E-9	0.000831
9.000000E-9	0.000359
9.050000E-9	-0.000419
9.100000E-9	-0.001297
9.150000E-9	-0.002103
9.200000E-9	-0.002781
9.250000E-9	-0.003344
9.300000E-9	-0.003638
9.350000E-9	-0.003653
9.400000E-9	-0.003503
9.450000E-9	-0.002844
9.500000E-9	-0.002091
9.550000E-9	-0.001063
9.600000E-9	-0.000213
9.650000E-9	0.000725
9.700000E-9	0.001394
9.750000E-9	0.001872
9.800000E-9	0.001922
9.850000E-9	0.001716
9.900000E-9	0.001244
9.950000E-9	0.000519
1.000000E-8	-0.000428
1.005000E-8	-0.001241
1.010000E-8	-0.002103
1.015000E-8	-0.002622
1.020000E-8	-0.003028
1.025000E-8	-0.003128
1.030000E-8	-0.002841
1.035000E-8	-0.002162
1.040000E-8	-0.001325
1.045000E-8	-0.000469
1.050000E-8	0.000422
1.055000E-8	0.001519
1.060000E-8	0.002150
1.065000E-8	0.002647
1.070000E-8	0.002875
1.075000E-8	0.002778
1.080000E-8	0.002444
1.085000E-8	0.001953
1.090000E-8	0.001066
1.095000E-8	0.000256
1.100000E-8	-0.000541
1.105000E-8	-0.001338
1.110000E-8	-0.001816
1.115000E-8	-0.002087
1.120000E-8	-0.002019
1.125000E-8	-0.001675
1.130000E-8	-0.001203
1.135000E-8	-0.000434
1.140000E-8	0.000384
1.145000E-8	0.001359
1.150000E-8	0.002069
1.155000E-8	0.002666
1.160000E-8	0.002994
1.165000E-8	0.003097
1.170000E-8	0.002825
1.175000E-8	0.002338
1.180000E-8	0.001694
1.185000E-8	0.000919
1.190000E-8	-4.062500E-5
1.195000E-8	-0.000775
1.200000E-8	-0.001338
1.205000E-8	-0.001756
1.210000E-8	-0.001931
1.215000E-8	-0.001731
1.220000E-8	-0.001266
1.225000E-8	-0.000697
1.230000E-8	3.437500E-5
1.235000E-8	0.000847
1.240000E-8	0.001575
1.245000E-8	0.002263
1.250000E-8	0.002622
1.255000E-8	0.002784
1.260000E-8	0.002578
1.265000E-8	0.002347
1.270000E-8	0.001853
1.275000E-8	0.001275
1.280000E-8	0.000606
1.285000E-8	-8.437500E-5
1.290000E-8	-0.000609
1.295000E-8	-0.001028
1.300000E-8	-0.001359
1.305000E-8	-0.001297
1.310000E-8	-0.001022
1.315000E-8	-0.000528
1.320000E-8	-2.500000E-5
1.325000E-8	0.000800
1.330000E-8	0.001612
1.335000E-8	0.002309
1.340000E-8	0.002788
1.345000E-8	0.003300
1.350000E-8	0.003528
1.355000E-8	0.003509
1.360000E-8	0.003144
1.365000E-8	0.002547
1.370000E-8	0.001831
1.375000E-8	0.001119
1.380000E-8	0.000356
1.385000E-8	-0.000281
1.390000E-8	-0.000816
1.395000E-8	-0.001075
1.400000E-8	-0.001053
1.405000E-8	-0.000744
1.410000E-8	-0.000200
1.415000E-8	0.000481
1.420000E-8	0.001078
1.425000E-8	0.001888
1.430000E-8	0.002491
1.435000E-8	0.003050
1.440000E-8	0.003278
1.445000E-8	0.003272
1.450000E-8	0.003025
1.455000E-8	0.002544
1.460000E-8	0.001956
1.465000E-8	0.001309
1.470000E-8	0.000406
1.475000E-8	-0.000219
1.480000E-8	-0.000784
1.485000E-8	-0.001125
1.490000E-8	-0.001269
1.495000E-8	-0.001203
1.500000E-8	-0.000806
1.505000E-8	-0.000328
1.510000E-8	0.000300
1.515000E-8	0.000947
1.520000E-8	0.001663
1.525000E-8	0.002288
1.530000E-8	0.002587
1.535000E-8	0.002906
1.540000E-8	0.002909
1.545000E-8	0.002666
1.550000E-8	0.002266
1.555000E-8	0.001841
1.560000E-8	0.001259
1.565000E-8	0.000597
1.570000E-8	5.312500E-5
1.575000E-8	-0.000488
1.580000E-8	-0.000734
1.585000E-8	-0.000763
1.590000E-8	-0.000697
1.595000E-8	-0.000294
1.600000E-8	0.000159
1.605000E-8	0.000828
1.610000E-8	0.001425
1.615000E-8	0.002194
1.620000E-8	0.002638
1.625000E-8	0.003022
1.630000E-8	0.003028
1.635000E-8	0.002984
1.640000E-8	0.002678
1.645000E-8	0.002216
1.650000E-8	0.001647
1.655000E-8	0.001034
1.660000E-8	0.000484
1.665000E-8	1.250000E-5
1.670000E-8	-0.000237
1.675000E-8	-0.000363
1.680000E-8	-0.000269
1.685000E-8	-1.875000E-5
1.690000E-8	0.000303
1.695000E-8	0.000822
1.700000E-8	0.001266
1.705000E-8	0.001903
1.710000E-8	0.002437
1.715000E-8	0.002853
1.720000E-8	0.003072
1.725000E-8	0.003113
1.730000E-8	0.002891
1.735000E-8	0.002541
1.740000E-8	0.001897
1.745000E-8	0.001350
1.750000E-8	0.000763
1.755000E-8	0.000219
1.760000E-8	-0.000338
1.765000E-8	-0.000675
1.770000E-8	-0.000716
1.775000E-8	-0.000453
1.780000E-8	-0.000322
1.785000E-8	0.000278
1.790000E-8	0.000859
1.795000E-8	0.001378
1.800000E-8	0.001966
1.805000E-8	0.002522
1.810000E-8	0.002903
1.815000E-8	0.003078
1.820000E-8	0.002981
1.825000E-8	0.002722
1.830000E-8	0.002313
1.835000E-8	0.001831
1.840000E-8	0.001141
1.845000E-8	0.000406
1.850000E-8	-0.000163
1.855000E-8	-0.000537
1.860000E-8	-0.000838
1.865000E-8	-0.000872
1.870000E-8	-0.000713
1.875000E-8	-0.000400
1.880000E-8	0.000209
1.885000E-8	0.000784
1.890000E-8	0.001403
1.895000E-8	0.002006
1.900000E-8	0.002591
1.905000E-8	0.003053
1.910000E-8	0.003038
1.915000E-8	0.003041
1.920000E-8	0.002775
1.925000E-8	0.002313
1.930000E-8	0.001859
1.935000E-8	0.001328
1.940000E-8	0.000694
1.945000E-8	0.000209
1.950000E-8	-0.000194
1.955000E-8	-0.000316
1.960000E-8	-0.000347
1.965000E-8	-1.250000E-5
1.970000E-8	0.000338
1.975000E-8	0.000984
1.980000E-8	0.001588
1.985000E-8	0.002162
1.990000E-8	0.002609
1.995000E-8	0.003022
2.000000E-8	0.003228
2.005000E-8	0.003203
2.010000E-8	0.002991
2.015000E-8	0.002713
2.020000E-8	0.002197
2.025000E-8	0.001681
2.030000E-8	0.001088
2.035000E-8	0.000584
2.040000E-8	0.000203
2.045000E-8	-0.000103
2.050000E-8	-0.000341
2.055000E-8	-5.937500E-5
2.060000E-8	3.750000E-5
2.065000E-8	0.000391
2.070000E-8	0.000872
2.075000E-8	0.001619
2.080000E-8	0.002162
2.085000E-8	0.002578
2.090000E-8	0.002909
2.095000E-8	0.003156
2.100000E-8	0.003056
2.105000E-8	0.002900
2.110000E-8	0.002375
2.115000E-8	0.001866
2.120000E-8	0.001319
2.125000E-8	0.000737
2.130000E-8	0.000284
2.135000E-8	3.750000E-5
2.140000E-8	-0.000253
2.145000E-8	-9.062500E-5
2.150000E-8	1.875000E-5
2.155000E-8	0.000412
2.160000E-8	0.000875
2.165000E-8	0.001313
2.170000E-8	0.001850
2.175000E-8	0.002319
2.180000E-8	0.002666
2.185000E-8	0.002941
2.190000E-8	0.003025
2.195000E-8	0.002928
2.200000E-8	0.002563
2.205000E-8	0.002172
2.210000E-8	0.001653
2.215000E-8	0.001069
2.220000E-8	0.000500
2.225000E-8	6.250000E-5
2.230000E-8	-0.000231
2.235000E-8	-0.000253
2.240000E-8	-0.000200
2.245000E-8	3.125000E-5
2.250000E-8	0.000522
2.255000E-8	0.001069
2.260000E-8	0.001581
2.265000E-8	0.002091
2.270000E-8	0.002494
2.275000E-8	0.002819
2.280000E-8	0.002947
2.285000E-8	0.002900
2.290000E-8	0.002603
2.295000E-8	0.002375
2.300000E-8	0.001806
2.305000E-8	0.001300
2.310000E-8	0.000775
2.315000E-8	0.000366
2.320000E-8	-1.562500E-5
2.325000E-8	-0.000191
2.330000E-8	-0.000197
2.335000E-8	-0.000131
2.340000E-8	7.187500E-5
2.345000E-8	0.000456
2.350000E-8	0.000913
2.355000E-8	0.001303
2.360000E-8	0.001709
2.365000E-8	0.002094
2.370000E-8	0.002363
2.375000E-8	0.002547
2.380000E-8	0.002584
2.385000E-8	0.002272
2.390000E-8	0.001922
2.395000E-8	0.001597
2.400000E-8	0.001059
2.405000E-8	0.000531
2.410000E-8	9.687500E-5
2.415000E-8	-0.000300
2.420000E-8	-0.000513
2.425000E-8	-0.000494
2.430000E-8	-0.000409
2.435000E-8	-0.000172
2.440000E-8	0.000303
2.445000E-8	0.000869
2.450000E-8	0.001291
2.455000E-8	0.001909
2.460000E-8	0.002316
2.465000E-8	0.002556
2.470000E-8	0.002616
2.475000E-8	0.002569
2.480000E-8	0.002300
2.485000E-8	0.001953
2.490000E-8	0.001600
2.495000E-8	0.001112
2.500000E-8	0.000753
2.505000E-8	0.000366
2.510000E-8	0.000191
2.515000E-8	8.750000E-5
2.520000E-8	5.625000E-5
2.525000E-8	0.000275
2.530000E-8	0.000506
2.535000E-8	0.000984
2.540000E-8	0.001356
2.545000E-8	0.001794
2.550000E-8	0.002222
2.555000E-8	0.002563
2.560000E-8	0.002763
2.565000E-8	0.002747
2.570000E-8	0.002594
2.575000E-8	0.002241
2.580000E-8	0.001816
2.585000E-8	0.001588
2.590000E-8	0.001084
2.595000E-8	0.000606
2.600000E-8	0.000209
2.605000E-8	-6.875000E-5
2.610000E-8	-0.000200
2.615000E-8	-0.000153
2.620000E-8	6.562500E-5
2.625000E-8	0.000334
2.630000E-8	0.000647
2.635000E-8	0.001234
2.640000E-8	0.001644
2.645000E-8	0.002019
2.650000E-8	0.002237
2.655000E-8	0.002413
2.660000E-8	0.002425
2.665000E-8	0.002278
2.670000E-8	0.001894
2.675000E-8	0.001578
2.680000E-8	0.001141
2.685000E-8	0.000619
2.690000E-8	0.000116
2.695000E-8	-0.000128
2.700000E-8	-0.000341
2.705000E-8	-0.000350
2.710000E-8	-0.000284
2.715000E-8	0.000134
2.720000E-8	0.000453
2.725000E-8	0.000897
2.730000E-8	0.001466
2.735000E-8	0.001884
2.740000E-8	0.002319
2.745000E-8	0.002600
2.750000E-8	0.002662
2.755000E-8	0.002650
2.760000E-8	0.002406
2.765000E-8	0.002169
2.770000E-8	0.001703
2.775000E-8	0.001319
2.780000E-8	0.000816
2.785000E-8	0.000500
2.790000E-8	0.000272
2.795000E-8	0.000103
2.800000E-8	0.000128
2.805000E-8	0.000322
2.810000E-8	0.000559
2.815000E-8	0.000916
2.820000E-8	0.001319
2.825000E-8	0.001713
2.830000E-8	0.002216
2.835000E-8	0.002525
2.840000E-8	0.002544
2.845000E-8	0.002581
2.850000E-8	0.002406
2.855000E-8	0.002241
2.860000E-8	0.001888
2.865000E-8	0.001384
2.870000E-8	0.000938
2.875000E-8	0.000478
2.880000E-8	0.000163
2.885000E-8	-8.125000E-5
2.890000E-8	-1.875000E-5
2.895000E-8	2.500000E-5
2.900000E-8	0.000250
2.905000E-8	0.000537
2.910000E-8	0.000900
2.915000E-8	0.001269
2.920000E-8	0.001728
2.925000E-8	0.002081
2.930000E-8	0.002288
2.935000E-8	0.002459
2.940000E-8	0.002494
2.945000E-8	0.002325
2.950000E-8	0.002050
2.955000E-8	0.001841
2.960000E-8	0.001431
2.965000E-8	0.001069
2.970000E-8	0.000831
2.975000E-8	0.000722
2.980000E-8	0.000522
2.985000E-8	0.000491
2.990000E-8	0.000531
2.995000E-8	0.000713
3.000000E-8	0.000891
3.005000E-8	0.001275
3.010000E-8	0.001603
3.015000E-8	0.002028
3.020000E-8	0.002141
3.025000E-8	0.002334
3.030000E-8	0.002356
3.035000E-8	0.002397
3.040000E-8	0.002191
3.045000E-8	0.001988
3.050000E-8	0.001659
3.055000E-8	0.001269
3.060000E-8	0.000872
3.065000E-8	0.000563
3.070000E-8	0.000344
3.075000E-8	0.000181
3.080000E-8	0.000169
3.085000E-8	0.000303
3.090000E-8	0.000531
3.095000E-8	0.000791
3.100000E-8	0.001097
3.105000E-8	0.001469
3.110000E-8	0.001822
3.115000E-8	0.002119
3.120000E-8	0.002219
3.125000E-8	0.002403
3.130000E-8	0.002222
3.135000E-8	0.002138
3.140000E-8	0.001831
3.145000E-8	0.001578
3.150000E-8	0.001334
3.155000E-8	0.000934
3.160000E-8	0.000594
3.165000E-8	0.000478
3.170000E-8	0.000316
3.175000E-8	0.000375
3.180000E-8	0.000544
3.185000E-8	0.000891
3.190000E-8	0.001213
3.195000E-8	0.001513
3.200000E-8	0.001738
3.205000E-8	0.001978
3.210000E-8	0.002172
3.215000E-8	0.002331
3.220000E-8	0.002334
3.225000E-8	0.002203
3.230000E-8	0.002109
3.235000E-8	0.001841
3.240000E-8	0.001572
3.245000E-8	0.001225
3.250000E-8	0.000947
3.255000E-8	0.000819
3.260000E-8	0.000525
3.265000E-8	0.000431
3.270000E-8	0.000522
3.275000E-8	0.000722
3.280000E-8	0.000831
3.285000E-8	0.001175
3.290000E-8	0.001403
3.295000E-8	0.001678
3.300000E-8	0.001881
3.305000E-8	0.002028
3.310000E-8	0.001916
3.315000E-8	0.001884
3.320000E-8	0.001875
3.325000E-8	0.001650
3.330000E-8	0.001416
3.335000E-8	0.001225
3.340000E-8	0.000956
3.345000E-8	0.000691
3.350000E-8	0.000478
3.355000E-8	0.000484
3.360000E-8	0.000378
3.365000E-8	0.000528
3.370000E-8	0.000569
3.375000E-8	0.000813
3.380000E-8	0.001078
3.385000E-8	0.001488
3.390000E-8	0.001675
3.395000E-8	0.002019
3.400000E-8	0.002206
3.405000E-8	0.002272
3.410000E-8	0.002134
3.415000E-8	0.002056
3.420000E-8	0.001756
3.425000E-8	0.001569
3.430000E-8	0.001078
3.435000E-8	0.000828
3.440000E-8	0.000534
3.445000E-8	0.000372
3.450000E-8	0.000281
3.455000E-8	0.000219
3.460000E-8	0.000363
3.465000E-8	0.000575
3.470000E-8	0.000791
3.475000E-8	0.001088
3.480000E-8	0.001328
3.485000E-8	0.001681
3.490000E-8	0.001869
3.495000E-8	0.002056
3.500000E-8	0.001934
3.505000E-8	0.001875
3.510000E-8	0.001706
3.515000E-8	0.001522
3.520000E-8	0.001166
3.525000E-8	0.000803
3.530000E-8	0.000616
3.535000E-8	0.000356
3.540000E-8	0.000250
3.545000E-8	0.000206
3.550000E-8	0.000344
3.555000E-8	0.000531
3.560000E-8	0.000800
3.565000E-8	0.001319
3.570000E-8	0.001609
3.575000E-8	0.001925
3.580000E-8	0.002188
3.585000E-8	0.002503
3.590000E-8	0.002587
3.595000E-8	0.002666
3.600000E-8	0.002519
3.605000E-8	0.002347
3.610000E-8	0.001950
3.615000E-8	0.001669
3.620000E-8	0.001322
3.625000E-8	0.001109
3.630000E-8	0.000853
3.635000E-8	0.000744
3.640000E-8	0.000588
3.645000E-8	0.000578
3.650000E-8	0.000684
3.655000E-8	0.000781
3.660000E-8	0.000903
3.665000E-8	0.001081
3.670000E-8	0.001263
3.675000E-8	0.001569
3.680000E-8	0.001650
3.685000E-8	0.001819
3.690000E-8	0.001831
3.695000E-8	0.001850
3.700000E-8	0.001728
3.705000E-8	0.001653
3.710000E-8	0.001434
3.715000E-8	0.001084
3.720000E-8	0.000906
3.725000E-8	0.000694
3.730000E-8	0.000609
3.735000E-8	0.000522
3.740000E-8	0.000634
3.745000E-8	0.000619
3.750000E-8	0.000922
3.755000E-8	0.001366
3.760000E-8	0.001650
3.765000E-8	0.001916
3.770000E-8	0.002119
3.775000E-8	0.002363
3.780000E-8	0.002253
3.785000E-8	0.002106
3.790000E-8	0.001975
3.795000E-8	0.001759
3.800000E-8	0.001369
3.805000E-8	0.001063
3.810000E-8	0.000600
3.815000E-8	0.000537
3.820000E-8	0.000269
3.825000E-8	0.000281
3.830000E-8	0.000331
3.835000E-8	0.000625
3.840000E-8	0.000781
3.845000E-8	0.001053
3.850000E-8	0.001369
3.855000E-8	0.001819
3.860000E-8	0.002125
3.865000E-8	0.002356
3.870000E-8	0.002594
3.875000E-8	0.002625
3.880000E-8	0.002428
3.885000E-8	0.002284
3.890000E-8	0.002059
3.895000E-8	0.001731
3.900000E-8	0.001431
3.905000E-8	0.001147
3.910000E-8	0.000834
3.915000E-8	0.000684
3.920000E-8	0.000422
3.925000E-8	0.000531
3.930000E-8	0.000666
3.935000E-8	0.000838
3.940000E-8	0.001044
3.945000E-8	0.001484
3.950000E-8	0.001569
3.955000E-8	0.001800
3.960000E-8	0.001922
3.965000E-8	0.001953
3.970000E-8	0.001878
3.975000E-8	0.001953
3.980000E-8	0.001581
3.985000E-8	0.001413
3.990000E-8	0.001063
3.995000E-8	0.000906
4.000000E-8	0.000731
4.005000E-8	0.000525
4.010000E-8	0.000403
4.015000E-8	0.000497
4.020000E-8	0.000541
4.025000E-8	0.000656
4.030000E-8	0.000722
4.035000E-8	0.000941
4.040000E-8	0.001213
4.045000E-8	0.001494
4.050000E-8	0.001722
4.055000E-8	0.001853
4.060000E-8	0.001991
4.065000E-8	0.001944
4.070000E-8	0.001722
4.075000E-8	0.001691
4.080000E-8	0.001428
4.085000E-8	0.001172
4.090000E-8	0.000894
4.095000E-8	0.000697
4.100000E-8	0.000503
4.105000E-8	0.000463
4.110000E-8	0.000647
4.115000E-8	0.000806
4.120000E-8	0.000963
4.125000E-8	0.001122
4.130000E-8	0.001372
4.135000E-8	0.001678
4.140000E-8	0.001813
4.145000E-8	0.001997
4.150000E-8	0.001888
4.155000E-8	0.001906
4.160000E-8	0.001706
4.165000E-8	0.001466
4.170000E-8	0.001263
4.175000E-8	0.000981
4.180000E-8	0.000794
4.185000E-8	0.000716
4.190000E-8	0.000591
4.195000E-8	0.000484
4.200000E-8	0.000519
4.205000E-8	0.000728
4.210000E-8	0.000838
4.215000E-8	0.000994
4.220000E-8	0.001153
4.225000E-8	0.001362
4.230000E-8	0.001503
4.235000E-8	0.001728
4.240000E-8	0.001784
4.245000E-8	0.001878
4.250000E-8	0.001763
4.255000E-8	0.001616
4.260000E-8	0.001559
4.265000E-8	0.001481
4.270000E-8	0.001178
4.275000E-8	0.001063
4.280000E-8	0.000853
4.285000E-8	0.000697
4.290000E-8	0.000634
4.295000E-8	0.000684
4.300000E-8	0.000728
4.305000E-8	0.000847
4.310000E-8	0.000891
4.315000E-8	0.001125
4.320000E-8	0.001356
4.325000E-8	0.001500
4.330000E-8	0.001603
4.335000E-8	0.001778
4.340000E-8	0.001906
4.345000E-8	0.002019
4.350000E-8	0.001916
4.355000E-8	0.001722
4.360000E-8	0.001594
4.365000E-8	0.001456
4.370000E-8	0.001112
4.375000E-8	0.000978
4.380000E-8	0.000806
4.385000E-8	0.000612
4.390000E-8	0.000578
4.395000E-8	0.000716
4.400000E-8	0.000797
4.405000E-8	0.001041
4.410000E-8	0.001141
4.415000E-8	0.001453
4.420000E-8	0.001653
4.425000E-8	0.001788
4.430000E-8	0.001934
4.435000E-8	0.001988
4.440000E-8	0.001872
4.445000E-8	0.001778
4.450000E-8	0.001563
4.455000E-8	0.001491
4.460000E-8	0.001078
4.465000E-8	0.000859
4.470000E-8	0.000659
4.475000E-8	0.000556
4.480000E-8	0.000522
4.485000E-8	0.000578
4.490000E-8	0.000713
4.495000E-8	0.000881
4.500000E-8	0.001103
4.505000E-8	0.001294
4.510000E-8	0.001500
4.515000E-8	0.001781
4.520000E-8	0.001847
4.525000E-8	0.001813
4.530000E-8	0.001781
4.535000E-8	0.001769
4.540000E-8	0.001488
4.545000E-8	0.001272
4.550000E-8	0.000972
4.555000E-8	0.000769
4.560000E-8	0.000594
4.565000E-8	0.000475
4.570000E-8	0.000338
4.575000E-8	0.000388
4.580000E-8	0.000412
4.585000E-8	0.000591
4.590000E-8	0.000759
4.595000E-8	0.000903
4.600000E-8	0.001122
4.605000E-8	0.001275
4.610000E-8	0.001341
4.615000E-8	0.001628
4.620000E-8	0.001581
4.625000E-8	0.001616
4.630000E-8	0.001656
4.635000E-8	0.001641
4.640000E-8	0.001453
4.645000E-8	0.001272
4.650000E-8	0.001122
4.655000E-8	0.001094
4.660000E-8	0.000881
4.665000E-8	0.000834
4.670000E-8	0.000741
4.675000E-8	0.000703
4.680000E-8	0.000800
4.685000E-8	0.000916
4.690000E-8	0.001131
4.695000E-8	0.001331
4.700000E-8	0.001563
4.705000E-8	0.001678
4.710000E-8	0.001909
4.715000E-8	0.001981
4.720000E-8	0.001897
4.725000E-8	0.001847
4.730000E-8	0.001609
4.735000E-8	0.001425
4.740000E-8	0.001234
4.745000E-8	0.001109
4.750000E-8	0.000922
4.755000E-8	0.000778
4.760000E-8	0.000638
4.765000E-8	0.000694
4.770000E-8	0.000647
4.775000E-8	0.000800
4.780000E-8	0.000938
4.785000E-8	0.001206
4.790000E-8	0.001403
4.795000E-8	0.001716
4.800000E-8	0.001866
4.805000E-8	0.002022
4.810000E-8	0.002034
4.815000E-8	0.002094
4.820000E-8	0.001937
4.825000E-8	0.001838
4.830000E-8	0.001628
4.835000E-8	0.001434
4.840000E-8	0.001138
4.845000E-8	0.000938
4.850000E-8	0.000797
4.855000E-8	0.000713
4.860000E-8	0.000678
4.865000E-8	0.000828
4.870000E-8	0.000881
4.875000E-8	0.001009
4.880000E-8	0.001184
4.885000E-8	0.001453
4.890000E-8	0.001628
4.895000E-8	0.001828
4.900000E-8	0.001869
4.905000E-8	0.002072
4.910000E-8	0.002000
4.915000E-8	0.001763
4.920000E-8	0.001569
4.925000E-8	0.001463
4.930000E-8	0.001116
4.935000E-8	0.001116
4.940000E-8	0.000875
4.945000E-8	0.000709
4.950000E-8	0.000672
4.955000E-8	0.000778
4.960000E-8	0.000928
4.965000E-8	0.001078
4.970000E-8	0.001241
4.975000E-8	0.001491
4.980000E-8	0.001628
4.985000E-8	0.001813
4.990000E-8	0.001863
4.995000E-8	0.001909
5.000000E-8	0.001844
5.005000E-8	0.001669
5.010000E-8	0.001516
5.015000E-8	0.001347
5.020000E-8	0.001091
5.025000E-8	0.000922
5.030000E-8	0.000763
5.035000E-8	0.000853
5.040000E-8	0.000791
5.045000E-8	0.000788
5.050000E-8	0.000919
5.055000E-8	0.001125
5.060000E-8	0.001256
5.065000E-8	0.001406
5.070000E-8	0.001569
5.075000E-8	0.001500
5.080000E-8	0.001609
5.085000E-8	0.001687
5.090000E-8	0.001581
5.095000E-8	0.001569
5.100000E-8	0.001400
5.105000E-8	0.001288
5.110000E-8	0.001222
5.115000E-8	0.001250
5.120000E-8	0.001172
5.125000E-8	0.001106
5.130000E-8	0.001072
5.135000E-8	0.001075
5.140000E-8	0.000938
5.145000E-8	0.001069
5.150000E-8	0.001153
5.155000E-8	0.001309
5.160000E-8	0.001381
5.165000E-8	0.001416
5.170000E-8	0.001494
5.175000E-8	0.001563
5.180000E-8	0.001612
5.185000E-8	0.001525
5.190000E-8	0.001469
5.195000E-8	0.001359
5.200000E-8	0.001241
5.205000E-8	0.001103
5.210000E-8	0.001134
5.215000E-8	0.001056
5.220000E-8	0.000953
5.225000E-8	0.000913
5.230000E-8	0.000847
5.235000E-8	0.000931
5.240000E-8	0.000888
5.245000E-8	0.001022
5.250000E-8	0.001088
5.255000E-8	0.001322
5.260000E-8	0.001450
5.265000E-8	0.001672
5.270000E-8	0.001750
5.275000E-8	0.001763
5.280000E-8	0.001806
5.285000E-8	0.001788
5.290000E-8	0.001775
5.295000E-8	0.001716
5.300000E-8	0.001494
5.305000E-8	0.001250
5.310000E-8	0.001191
5.315000E-8	0.001081
5.320000E-8	0.001066
5.325000E-8	0.000859
5.330000E-8	0.001000
5.335000E-8	0.000994
5.340000E-8	0.000978
5.345000E-8	0.001031
5.350000E-8	0.001238
5.355000E-8	0.001362
5.360000E-8	0.001434
5.365000E-8	0.001603
5.370000E-8	0.001713
5.375000E-8	0.001725
5.380000E-8	0.001600
5.385000E-8	0.001525
5.390000E-8	0.001403
5.395000E-8	0.001119
5.400000E-8	0.000903
5.405000E-8	0.000763
5.410000E-8	0.000612
5.415000E-8	0.000594
5.420000E-8	0.000638
5.425000E-8	0.000784
5.430000E-8	0.000859
5.435000E-8	0.001094
5.440000E-8	0.001141
5.445000E-8	0.001278
5.450000E-8	0.001516
5.455000E-8	0.001672
5.460000E-8	0.001519
5.465000E-8	0.001634
5.470000E-8	0.001641
5.475000E-8	0.001541
5.480000E-8	0.001447
5.485000E-8	0.001406
5.490000E-8	0.001181
5.495000E-8	0.001259
5.500000E-8	0.001187
5.505000E-8	0.001206
5.510000E-8	0.001228
5.515000E-8	0.001300
5.520000E-8	0.001147
5.525000E-8	0.001231
5.530000E-8	0.001231
5.535000E-8	0.001259
5.540000E-8	0.001225
5.545000E-8	0.001362
5.550000E-8	0.001353
5.555000E-8	0.001434
5.560000E-8	0.001375
5.565000E-8	0.001381
5.570000E-8	0.001391
5.575000E-8	0.001228
5.580000E-8	0.001181
5.585000E-8	0.001109
5.590000E-8	0.001069
5.595000E-8	0.001000
5.600000E-8	0.000953
5.605000E-8	0.000988
5.610000E-8	0.000900
5.615000E-8	0.000997
5.620000E-8	0.001038
5.625000E-8	0.001153
5.630000E-8	0.001350
5.635000E-8	0.001553
5.640000E-8	0.001588
5.645000E-8	0.001678
5.650000E-8	0.001687
5.655000E-8	0.001663
5.660000E-8	0.001528
5.665000E-8	0.001491
5.670000E-8	0.001409
5.675000E-8	0.001250
5.680000E-8	0.001156
5.685000E-8	0.001112
5.690000E-8	0.001041
5.695000E-8	0.001044
5.700000E-8	0.001103
5.705000E-8	0.001163
5.710000E-8	0.001241
5.715000E-8	0.001362
5.720000E-8	0.001434
5.725000E-8	0.001566
5.730000E-8	0.001653
5.735000E-8	0.001753
5.740000E-8	0.001825
5.745000E-8	0.001838
5.750000E-8	0.001706
5.755000E-8	0.001678
5.760000E-8	0.001469
5.765000E-8	0.001441
5.770000E-8	0.001322
5.775000E-8	0.001372
5.780000E-8	0.001122
5.785000E-8	0.001006
5.790000E-8	0.000925
5.795000E-8	0.000925
5.800000E-8	0.000913
5.805000E-8	0.000981
5.810000E-8	0.001122
5.815000E-8	0.001394
5.820000E-8	0.001484
5.825000E-8	0.001612
5.830000E-8	0.001700
5.835000E-8	0.001778
5.840000E-8	0.001903
5.845000E-8	0.001881
5.850000E-8	0.001744
5.855000E-8	0.001797
5.860000E-8	0.001578
5.865000E-8	0.001409
5.870000E-8	0.001138
5.875000E-8	0.001025
5.880000E-8	0.000934
5.885000E-8	0.000831
5.890000E-8	0.000731
5.895000E-8	0.000737
5.900000E-8	0.000766
5.905000E-8	0.000897
5.910000E-8	0.000988
5.915000E-8	0.001191
5.920000E-8	0.001313
5.925000E-8	0.001353
5.930000E-8	0.001369
5.935000E-8	0.001488
5.940000E-8	0.001528
5.945000E-8	0.001544
5.950000E-8	0.001388
5.955000E-8	0.001338
5.960000E-8	0.001216
5.965000E-8	0.000959
5.970000E-8	0.000856
5.975000E-8	0.000769
5.980000E-8	0.000716
5.985000E-8	0.000838
5.990000E-8	0.000981
5.995000E-8	0.001166
6.000000E-8	0.001269
6.005000E-8	0.001519
6.010000E-8	0.001666
6.015000E-8	0.001816
6.020000E-8	0.001859
6.025000E-8	0.002000
6.030000E-8	0.001925
6.035000E-8	0.001891
6.040000E-8	0.001797
6.045000E-8	0.001675
6.050000E-8	0.001316
6.055000E-8	0.001259
6.060000E-8	0.001106
6.065000E-8	0.001034
6.070000E-8	0.000891
6.075000E-8	0.000953
6.080000E-8	0.001034
6.085000E-8	0.001078
6.090000E-8	0.001256
6.095000E-8	0.001366
6.100000E-8	0.001431
6.105000E-8	0.001491
6.110000E-8	0.001491
6.115000E-8	0.001513
6.120000E-8	0.001431
6.125000E-8	0.001347
6.130000E-8	0.001191
6.135000E-8	0.001181
6.140000E-8	0.001109
6.145000E-8	0.001075
6.150000E-8	0.000978
6.155000E-8	0.001009
6.160000E-8	0.001063
6.165000E-8	0.001103
6.170000E-8	0.001069
6.175000E-8	0.001284
6.180000E-8	0.001300
6.185000E-8	0.001437
6.190000E-8	0.001484
6.195000E-8	0.001650
6.200000E-8	0.001813
6.205000E-8	0.001794
6.210000E-8	0.001675
6.215000E-8	0.001806
6.220000E-8	0.001644
6.225000E-8	0.001472
6.230000E-8	0.001384
6.235000E-8	0.001278
6.240000E-8	0.001059
6.245000E-8	0.000969
6.250000E-8	0.000888
6.255000E-8	0.000869
6.260000E-8	0.000863
6.265000E-8	0.001000
6.270000E-8	0.001084
6.275000E-8	0.001231
6.280000E-8	0.001247
6.285000E-8	0.001306
6.290000E-8	0.001400
6.295000E-8	0.001694
6.300000E-8	0.001647
6.305000E-8	0.001663
6.310000E-8	0.001772
6.315000E-8	0.001656
6.320000E-8	0.001622
6.325000E-8	0.001628
6.330000E-8	0.001488
6.335000E-8	0.001403
6.340000E-8	0.001197
6.345000E-8	0.001194
6.350000E-8	0.001056
6.355000E-8	0.001175
6.360000E-8	0.001075
6.365000E-8	0.001197
6.370000E-8	0.001388
6.375000E-8	0.001409
6.380000E-8	0.001494
6.385000E-8	0.001547
6.390000E-8	0.001653
6.395000E-8	0.001650
6.400000E-8	0.001553
6.405000E-8	0.001509
6.410000E-8	0.001494
6.415000E-8	0.001394
6.420000E-8	0.001181
6.425000E-8	0.001084
6.430000E-8	0.001138
6.435000E-8	0.001141
6.440000E-8	0.001053
6.445000E-8	0.001138
6.450000E-8	0.001147
6.455000E-8	0.001278
6.460000E-8	0.001325
6.465000E-8	0.001434
6.470000E-8	0.001497
6.475000E-8	0.001597
6.480000E-8	0.001631
6.485000E-8	0.001628
6.490000E-8	0.001594
6.495000E-8	0.001619
6.500000E-8	0.001544
6.505000E-8	0.001544
6.510000E-8	0.001366
6.515000E-8	0.001394
6.520000E-8	0.001316
6.525000E-8	0.001256
6.530000E-8	0.001256
6.535000E-8	0.001169
6.540000E-8	0.001222
6.545000E-8	0.001413
6.550000E-8	0.001463
6.555000E-8	0.001575
6.560000E-8	0.001687
6.565000E-8	0.001803
6.570000E-8	0.001800
6.575000E-8	0.001825
6.580000E-8	0.001663
6.585000E-8	0.001734
6.590000E-8	0.001597
6.595000E-8	0.001469
6.600000E-8	0.001291
6.605000E-8	0.001203
6.610000E-8	0.001038
6.615000E-8	0.001100
6.620000E-8	0.000947
6.625000E-8	0.000953
6.630000E-8	0.001016
6.635000E-8	0.001109
6.640000E-8	0.001250
6.645000E-8	0.001375
6.650000E-8	0.001497
6.655000E-8	0.001484
6.660000E-8	0.001566
6.665000E-8	0.001653
6.670000E-8	0.001634
6.675000E-8	0.001700
6.680000E-8	0.001597
6.685000E-8	0.001634
6.690000E-8	0.001538
6.695000E-8	0.001503
6.700000E-8	0.001541
6.705000E-8	0.001459
6.710000E-8	0.001362
6.715000E-8	0.001409
6.720000E-8	0.001316
6.725000E-8	0.001338
6.730000E-8	0.001256
6.735000E-8	0.001269
6.740000E-8	0.001306
6.745000E-8	0.001437
6.750000E-8	0.001481
6.755000E-8	0.001612
6.760000E-8	0.001653
6.765000E-8	0.001631
6.770000E-8	0.001647
6.775000E-8	0.001669
6.780000E-8	0.001588
6.785000E-8	0.001650
6.790000E-8	0.001588
6.795000E-8	0.001434
6.800000E-8	0.001353
6.805000E-8	0.001331
6.810000E-8	0.001256
6.815000E-8	0.001178
6.820000E-8	0.001172
6.825000E-8	0.001216
6.830000E-8	0.001272
6.835000E-8	0.001288
6.840000E-8	0.001331
6.845000E-8	0.001422
6.850000E-8	0.001422
6.855000E-8	0.001569
6.860000E-8	0.001500
6.865000E-8	0.001572
6.870000E-8	0.001594
6.875000E-8	0.001600
6.880000E-8	0.001497
6.885000E-8	0.001528
6.890000E-8	0.001444
6.895000E-8	0.001384
6.900000E-8	0.001241
6.905000E-8	0.001338
6.910000E-8	0.001219
6.915000E-8	0.001256
6.920000E-8	0.001328
6.925000E-8	0.001394
6.930000E-8	0.001378
6.935000E-8	0.001534
6.940000E-8	0.001528
6.945000E-8	0.001553
6.950000E-8	0.001594
6.955000E-8	0.001634
6.960000E-8	0.001591
6.965000E-8	0.001544
6.970000E-8	0.001522
6.975000E-8	0.001500
6.980000E-8	0.001406
6.985000E-8	0.001338
6.990000E-8	0.001200
6.995000E-8	0.001247
7.000000E-8	0.001259
7.005000E-8	0.001284
7.010000E-8	0.001253
7.015000E-8	0.001350
7.020000E-8	0.001334
7.025000E-8	0.001525
7.030000E-8	0.001484
7.035000E-8	0.001509
7.040000E-8	0.001450
7.045000E-8	0.001491
7.050000E-8	0.001447
7.055000E-8	0.001437
7.060000E-8	0.001500
7.065000E-8	0.001403
7.070000E-8	0.001300
7.075000E-8	0.001191
7.080000E-8	0.001222
7.085000E-8	0.001206
7.090000E-8	0.001038
7.095000E-8	0.000994
7.100000E-8	0.001003
7.105000E-8	0.001112
7.110000E-8	0.001187
7.115000E-8	0.001400
7.120000E-8	0.001556
7.125000E-8	0.001713
7.130000E-8	0.001784
7.135000E-8	0.001966
7.140000E-8	0.001941
7.145000E-8	0.002003
7.150000E-8	0.001997
7.155000E-8	0.001891
7.160000E-8	0.001716
7.165000E-8	0.001709
7.170000E-8	0.001397
7.175000E-8	0.001216
7.180000E-8	0.001084
7.185000E-8	0.001109
7.190000E-8	0.001075
7.195000E-8	0.001053
7.200000E-8	0.001169
7.205000E-8	0.001263
7.210000E-8	0.001263
7.215000E-8	0.001506
7.220000E-8	0.001444
7.225000E-8	0.001513
7.230000E-8	0.001550
7.235000E-8	0.001591
7.240000E-8	0.001494
7.245000E-8	0.001500
7.250000E-8	0.001413
7.255000E-8	0.001409
7.260000E-8	0.001366
7.265000E-8	0.001356
7.270000E-8	0.001306
7.275000E-8	0.001225
7.280000E-8	0.001144
7.285000E-8	0.001331
7.290000E-8	0.001319
7.295000E-8	0.001263
7.300000E-8	0.001250
7.305000E-8	0.001294
7.310000E-8	0.001406
7.315000E-8	0.001328
7.320000E-8	0.001234
7.325000E-8	0.001369
7.330000E-8	0.001184
7.335000E-8	0.001216
7.340000E-8	0.001213
7.345000E-8	0.001084
7.350000E-8	0.000975
7.355000E-8	0.000959
7.360000E-8	0.000834
7.365000E-8	0.000950
7.370000E-8	0.000953
7.375000E-8	0.001063
7.380000E-8	0.001022
7.385000E-8	0.001172
7.390000E-8	0.001187
7.395000E-8	0.001256
7.400000E-8	0.001388
7.405000E-8	0.001603
7.410000E-8	0.001659
7.415000E-8	0.001603
7.420000E-8	0.001638
7.425000E-8	0.001763
7.430000E-8	0.001694
7.435000E-8	0.001628
7.440000E-8	0.001531
7.445000E-8	0.001500
7.450000E-8	0.001475
7.455000E-8	0.001334
7.460000E-8	0.001213
7.465000E-8	0.001297
7.470000E-8	0.001244
7.475000E-8	0.001278
7.480000E-8	0.001362
7.485000E-8	0.001444
7.490000E-8	0.001416
7.495000E-8	0.001612
7.500000E-8	0.001797
7.505000E-8	0.001866
7.510000E-8	0.001766
7.515000E-8	0.001781
7.520000E-8	0.001725
7.525000E-8	0.001706
7.530000E-8	0.001628
7.535000E-8	0.001538
7.540000E-8	0.001372
7.545000E-8	0.001241
7.550000E-8	0.001213
7.555000E-8	0.001119
7.560000E-8	0.001106
7.565000E-8	0.001125
7.570000E-8	0.001222
7.575000E-8	0.001206
7.580000E-8	0.001325
7.585000E-8	0.001372
7.590000E-8	0.001334
7.595000E-8	0.001434
7.600000E-8	0.001284
7.605000E-8	0.001281
7.610000E-8	0.001213
7.615000E-8	0.001306
7.620000E-8	0.001209
7.625000E-8	0.001181
7.630000E-8	0.001112
7.635000E-8	0.001175
7.640000E-8	0.001075
7.645000E-8	0.001081
7.650000E-8	0.000984
7.655000E-8	0.001044
7.660000E-8	0.001069
7.665000E-8	0.001191
7.670000E-8	0.001138
7.675000E-8	0.001313
7.680000E-8	0.001334
7.685000E-8	0.001409
7.690000E-8	0.001528
7.695000E-8	0.001641
7.700000E-8	0.001588
7.705000E-8	0.001553
7.710000E-8	0.001600
7.715000E-8	0.001450
7.720000E-8	0.001403
7.725000E-8	0.001322
7.730000E-8	0.001219
7.735000E-8	0.001219
7.740000E-8	0.001216
7.745000E-8	0.001203
7.750000E-8	0.001106
7.755000E-8	0.001178
7.760000E-8	0.001316
7.765000E-8	0.001491
7.770000E-8	0.001638
7.775000E-8	0.001653
7.780000E-8	0.001709
7.785000E-8	0.001800
7.790000E-8	0.001763
7.795000E-8	0.001728
7.800000E-8	0.001659
7.805000E-8	0.001519
7.810000E-8	0.001503
7.815000E-8	0.001453
7.820000E-8	0.001378
7.825000E-8	0.001356
7.830000E-8	0.001256
7.835000E-8	0.001303
7.840000E-8	0.001316
7.845000E-8	0.001394
7.850000E-8	0.001362
7.855000E-8	0.001516
7.860000E-8	0.001534
7.865000E-8	0.001547
7.870000E-8	0.001478
7.875000E-8	0.001653
7.880000E-8	0.001538
7.885000E-8	0.001572
7.890000E-8	0.001384
7.895000E-8	0.001437
7.900000E-8	0.001306
7.905000E-8	0.001222
7.910000E-8	0.001197
7.915000E-8	0.001166
7.920000E-8	0.001097
7.925000E-8	0.001109
7.930000E-8	0.001072
7.935000E-8	0.001109
7.940000E-8	0.001191
7.945000E-8	0.001294
7.950000E-8	0.001250
7.955000E-8	0.001325
7.960000E-8	0.001266
7.965000E-8	0.001325
7.970000E-8	0.001350
7.975000E-8	0.001391
7.980000E-8	0.001419
7.985000E-8	0.001350
7.990000E-8	0.001341
7.995000E-8	0.001375
8.000000E-8	0.001350
8.005000E-8	0.001306
8.010000E-8	0.001200
8.015000E-8	0.001250
8.020000E-8	0.001228
8.025000E-8	0.001300
8.030000E-8	0.001241
8.035000E-8	0.001319
8.040000E-8	0.001231
8.045000E-8	0.001272
8.050000E-8	0.001291
8.055000E-8	0.001259
8.060000E-8	0.001391
8.065000E-8	0.001459
8.070000E-8	0.001422
8.075000E-8	0.001591
8.080000E-8	0.001550
8.085000E-8	0.001616
8.090000E-8	0.001572
8.095000E-8	0.001656
8.100000E-8	0.001728
8.105000E-8	0.001803
8.110000E-8	0.001728
8.115000E-8	0.001700
8.120000E-8	0.001619
8.125000E-8	0.001566
8.130000E-8	0.001388
8.135000E-8	0.001328
8.140000E-8	0.001222
8.145000E-8	0.001306
8.150000E-8	0.001338
8.155000E-8	0.001406
8.160000E-8	0.001409
8.165000E-8	0.001441
8.170000E-8	0.001478
8.175000E-8	0.001528
8.180000E-8	0.001484
8.185000E-8	0.001513
8.190000E-8	0.001362
8.195000E-8	0.001356
8.200000E-8	0.001309
8.205000E-8	0.001178
8.210000E-8	0.001238
8.215000E-8	0.001125
8.220000E-8	0.001059
8.225000E-8	0.001081
8.230000E-8	0.001006
8.235000E-8	0.001131
8.240000E-8	0.001088
8.245000E-8	0.001091
8.250000E-8	0.001209
8.255000E-8	0.001197
8.260000E-8	0.001266
8.265000E-8	0.001334
8.270000E-8	0.001309
8.275000E-8	0.001381
8.280000E-8	0.001303
8.285000E-8	0.001263
8.290000E-8	0.001178
8.295000E-8	0.001328
8.300000E-8	0.001263
8.305000E-8	0.001291
8.310000E-8	0.001472
8.315000E-8	0.001609
8.320000E-8	0.001616
8.325000E-8	0.001653
8.330000E-8	0.001663
8.335000E-8	0.001694
8.340000E-8	0.001666
8.345000E-8	0.001578
8.350000E-8	0.001594
8.355000E-8	0.001456
8.360000E-8	0.001244
8.365000E-8	0.001119
8.370000E-8	0.001128
8.375000E-8	0.001006
8.380000E-8	0.000888
8.385000E-8	0.000881
8.390000E-8	0.000856
8.395000E-8	0.001019
8.400000E-8	0.001031
8.405000E-8	0.001066
8.410000E-8	0.001144
8.415000E-8	0.001334
8.420000E-8	0.001391
8.425000E-8	0.001541
8.430000E-8	0.001547
8.435000E-8	0.001466
8.440000E-8	0.001484
8.445000E-8	0.001522
8.450000E-8	0.001416
8.455000E-8	0.001459
8.460000E-8	0.001384
8.465000E-8	0.001350
8.470000E-8	0.001384
8.475000E-8	0.001478
8.480000E-8	0.001516
8.485000E-8	0.001509
8.490000E-8	0.001334
8.495000E-8	0.001338
8.500000E-8	0.001259
8.505000E-8	0.001166
8.510000E-8	0.001175
8.515000E-8	0.000984
8.520000E-8	0.001059
8.525000E-8	0.001131
8.530000E-8	0.001128
8.535000E-8	0.001128
8.540000E-8	0.001206
8.545000E-8	0.001263
8.550000E-8	0.001347
8.555000E-8	0.001366
8.560000E-8	0.001306
8.565000E-8	0.001356
8.570000E-8	0.001353
8.575000E-8	0.001269
8.580000E-8	0.001247
8.585000E-8	0.001306
8.590000E-8	0.001263
8.595000E-8	0.001350
8.600000E-8	0.001372
8.605000E-8	0.001416
8.610000E-8	0.001450
8.615000E-8	0.001575
8.620000E-8	0.001569
8.625000E-8	0.001550
8.630000E-8	0.001588
8.635000E-8	0.001719
8.640000E-8	0.001553
8.645000E-8	0.001528
8.650000E-8	0.001362
8.655000E-8	0.001406
8.660000E-8	0.001297
8.665000E-8	0.001228
8.670000E-8	0.001294
8.675000E-8	0.001303
8.680000E-8	0.001303
8.685000E-8	0.001319
8.690000E-8	0.001259
8.695000E-8	0.001316
8.700000E-8	0.001209
8.705000E-8	0.001241
8.710000E-8	0.001291
8.715000E-8	0.001325
8.720000E-8	0.001263
8.725000E-8	0.001297
8.730000E-8	0.001306
8.735000E-8	0.001294
8.740000E-8	0.001325
8.745000E-8	0.001406
8.750000E-8	0.001231
8.755000E-8	0.001372
8.760000E-8	0.001313
8.765000E-8	0.001316
8.770000E-8	0.001281
8.775000E-8	0.001356
8.780000E-8	0.001213
8.785000E-8	0.001300
8.790000E-8	0.001375
8.795000E-8	0.001538
8.800000E-8	0.001569
8.805000E-8	0.001544
8.810000E-8	0.001475
8.815000E-8	0.001503
8.820000E-8	0.001484
8.825000E-8	0.001581
8.830000E-8	0.001484
8.835000E-8	0.001362
8.840000E-8	0.001359
8.845000E-8	0.001294
8.850000E-8	0.001325
8.855000E-8	0.001344
8.860000E-8	0.001344
8.865000E-8	0.001291
8.870000E-8	0.001200
8.875000E-8	0.001281
8.880000E-8	0.001244
8.885000E-8	0.001241
8.890000E-8	0.001172
8.895000E-8	0.001091
8.900000E-8	0.001209
8.905000E-8	0.001153
8.910000E-8	0.001219
8.915000E-8	0.001253
8.920000E-8	0.001228
8.925000E-8	0.001350
8.930000E-8	0.001338
8.935000E-8	0.001503
8.940000E-8	0.001494
8.945000E-8	0.001625
8.950000E-8	0.001634
8.955000E-8	0.001797
8.960000E-8	0.001838
8.965000E-8	0.001750
8.970000E-8	0.001691
8.975000E-8	0.001616
8.980000E-8	0.001463
8.985000E-8	0.001428
8.990000E-8	0.001263
8.995000E-8	0.001241
9.000000E-8	0.001213
9.005000E-8	0.001234
9.010000E-8	0.001331
9.015000E-8	0.001422
9.020000E-8	0.001381
9.025000E-8	0.001525
9.030000E-8	0.001497
9.035000E-8	0.001591
9.040000E-8	0.001578
9.045000E-8	0.001525
9.050000E-8	0.001413
9.055000E-8	0.001319
9.060000E-8	0.001178
9.065000E-8	0.001106
9.070000E-8	0.000891
9.075000E-8	0.000938
9.080000E-8	0.000925
9.085000E-8	0.001088
9.090000E-8	0.001078
9.095000E-8	0.001166
9.100000E-8	0.001275
9.105000E-8	0.001384
9.110000E-8	0.001338
9.115000E-8	0.001309
9.120000E-8	0.001316
9.125000E-8	0.001409
9.130000E-8	0.001309
9.135000E-8	0.001338
9.140000E-8	0.001328
9.145000E-8	0.001441
9.150000E-8	0.001275
9.155000E-8	0.001316
9.160000E-8	0.001275
9.165000E-8	0.001366
9.170000E-8	0.001244
9.175000E-8	0.001322
9.180000E-8	0.001288
9.185000E-8	0.001294
9.190000E-8	0.001322
9.195000E-8	0.001372
9.200000E-8	0.001341
9.205000E-8	0.001231
9.210000E-8	0.001244
9.215000E-8	0.001384
9.220000E-8	0.001316
9.225000E-8	0.001369
9.230000E-8	0.001284
9.235000E-8	0.001297
9.240000E-8	0.001241
9.245000E-8	0.001256
9.250000E-8	0.001297
9.255000E-8	0.001259
9.260000E-8	0.001066
9.265000E-8	0.001022
9.270000E-8	0.001122
9.275000E-8	0.001075
9.280000E-8	0.001166
9.285000E-8	0.001009
9.290000E-8	0.001016
9.295000E-8	0.001153
9.300000E-8	0.001044
9.305000E-8	0.001025
9.310000E-8	0.001072
9.315000E-8	0.001166
9.320000E-8	0.001191
9.325000E-8	0.001297
9.330000E-8	0.001275
9.335000E-8	0.001381
9.340000E-8	0.001497
9.345000E-8	0.001434
9.350000E-8	0.001431
9.355000E-8	0.001497
9.360000E-8	0.001453
9.365000E-8	0.001475
9.370000E-8	0.001437
9.375000E-8	0.001547
9.380000E-8	0.001619
9.385000E-8	0.001644
9.390000E-8	0.001569
9.395000E-8	0.001578
9.400000E-8	0.001491
9.405000E-8	0.001466
9.410000E-8	0.001384
9.415000E-8	0.001466
9.420000E-8	0.001334
9.425000E-8	0.001272
9.430000E-8	0.001216
9.435000E-8	0.001169
9.440000E-8	0.001063
9.445000E-8	0.001078
9.450000E-8	0.001009
9.455000E-8	0.000994
9.460000E-8	0.000941
9.465000E-8	0.001063
9.470000E-8	0.001091
9.475000E-8	0.001134
9.480000E-8	0.001091
9.485000E-8	0.001231
9.490000E-8	0.001322
9.495000E-8	0.001456
9.500000E-8	0.001425
9.505000E-8	0.001400
9.510000E-8	0.001372
9.515000E-8	0.001394
9.520000E-8	0.001341
9.525000E-8	0.001397
9.530000E-8	0.001297
9.535000E-8	0.001269
9.540000E-8	0.001284
9.545000E-8	0.001281
9.550000E-8	0.001203
9.555000E-8	0.001334
9.560000E-8	0.001381
9.565000E-8	0.001450
9.570000E-8	0.001378
9.575000E-8	0.001506
9.580000E-8	0.001522
9.585000E-8	0.001525
9.590000E-8	0.001350
9.595000E-8	0.001203
9.600000E-8	0.001206
9.605000E-8	0.001222
9.610000E-8	0.001272
9.615000E-8	0.001328
9.620000E-8	0.001288
9.625000E-8	0.001369
9.630000E-8	0.001491
9.635000E-8	0.001488
9.640000E-8	0.001538
9.645000E-8	0.001434
9.650000E-8	0.001394
9.655000E-8	0.001353
9.660000E-8	0.001269
9.665000E-8	0.001306
9.670000E-8	0.001178
9.675000E-8	0.001153
9.680000E-8	0.001119
9.685000E-8	0.001131
9.690000E-8	0.001016
9.695000E-8	0.001053
9.700000E-8	0.000991
9.705000E-8	0.000875
9.710000E-8	0.000816
9.715000E-8	0.001012
9.720000E-8	0.001078
9.725000E-8	0.001081
9.730000E-8	0.001291
9.735000E-8	0.001344
9.740000E-8	0.001369
9.745000E-8	0.001397
9.750000E-8	0.001313
9.755000E-8	0.001409
9.760000E-8	0.001428
9.765000E-8	0.001391
9.770000E-8	0.001172
9.775000E-8	0.001125
9.780000E-8	0.001178
9.785000E-8	0.001191
9.790000E-8	0.001150
9.795000E-8	0.001275
9.800000E-8	0.001325
9.805000E-8	0.001353
9.810000E-8	0.001475
9.815000E-8	0.001591
9.820000E-8	0.001550
9.825000E-8	0.001609
9.830000E-8	0.001513
9.835000E-8	0.001491
9.840000E-8	0.001375
9.845000E-8	0.001344
9.850000E-8	0.001288
9.855000E-8	0.001325
9.860000E-8	0.001225
9.865000E-8	0.001153
9.870000E-8	0.001209
9.875000E-8	0.001291
9.880000E-8	0.001216
9.885000E-8	0.001313
9.890000E-8	0.001372
9.895000E-8	0.001516
9.900000E-8	0.001450
9.905000E-8	0.001581
9.910000E-8	0.001634
9.915000E-8	0.001656
9.920000E-8	0.001694
9.925000E-8	0.001697
9.930000E-8	0.001647
9.935000E-8	0.001719
9.940000E-8	0.001578
9.945000E-8	0.001616
9.950000E-8	0.001513
9.955000E-8	0.001475
9.960000E-8	0.001437
9.965000E-8	0.001388
9.970000E-8	0.001409
9.975000E-8	0.001294
9.980000E-8	0.001297
9.985000E-8	0.001325
9.990000E-8	0.001169
9.995000E-8	0.001366
