LabVIEW Measurement	
Writer_Version	2
Reader_Version	2
Separator	Tab
Decimal_Separator	.
Multi_Headings	No
X_Columns	Multi
Time_Pref	Relative
Operator	TG lab
Date	2015/03/07
Time	10:47:16.3285207748413085937
***End_of_Header***	
	
Channels	1	
Samples	2000	
Date	1903/12/31	
Time	19:00:00	
X_Dimension	Time	
X0	0.0000000000000000E+0	
Delta_X	5.000000E-11	
***End_of_Header***		
X_Value	Untitled	Comment
0.000000	0.002012
5.000000E-11	0.001906
1.000000E-10	0.001886
1.500000E-10	0.001838
2.000000E-10	0.001834
2.500000E-10	0.001863
3.000000E-10	0.001780
3.500000E-10	0.001791
4.000000E-10	0.001806
4.500000E-10	0.001842
5.000000E-10	0.001931
5.500000E-10	0.002023
6.000000E-10	0.002027
6.500000E-10	0.002106
7.000000E-10	0.002170
7.500000E-10	0.002191
8.000000E-10	0.002152
8.500000E-10	0.002080
9.000000E-10	0.001989
9.500000E-10	0.001905
1.000000E-9	0.001772
1.050000E-9	0.001703
1.100000E-9	0.001592
1.150000E-9	0.001558
1.200000E-9	0.001513
1.250000E-9	0.001564
1.300000E-9	0.001581
1.350000E-9	0.001602
1.400000E-9	0.001723
1.450000E-9	0.001739
1.500000E-9	0.001759
1.550000E-9	0.001798
1.600000E-9	0.001800
1.650000E-9	0.001809
1.700000E-9	0.001805
1.750000E-9	0.001813
1.800000E-9	0.001722
1.850000E-9	0.001744
1.900000E-9	0.001638
1.950000E-9	0.001600
2.000000E-9	0.001595
2.050000E-9	0.001561
2.100000E-9	0.001570
2.150000E-9	0.001609
2.200000E-9	0.001592
2.250000E-9	0.001619
2.300000E-9	0.001622
2.350000E-9	0.001728
2.400000E-9	0.001691
2.450000E-9	0.001717
2.500000E-9	0.001791
2.550000E-9	0.001770
2.600000E-9	0.001742
2.650000E-9	0.001784
2.700000E-9	0.001809
2.750000E-9	0.001877
2.800000E-9	0.001878
2.850000E-9	0.001869
2.900000E-9	0.001864
2.950000E-9	0.001870
3.000000E-9	0.001800
3.050000E-9	0.001745
3.100000E-9	0.001744
3.150000E-9	0.001744
3.200000E-9	0.001627
3.250000E-9	0.001600
3.300000E-9	0.001611
3.350000E-9	0.001602
3.400000E-9	0.001677
3.450000E-9	0.001619
3.500000E-9	0.001644
3.550000E-9	0.001694
3.600000E-9	0.001689
3.650000E-9	0.001706
3.700000E-9	0.001723
3.750000E-9	0.001658
3.800000E-9	0.001597
3.850000E-9	0.001519
3.900000E-9	0.001527
3.950000E-9	0.001528
4.000000E-9	0.001534
4.050000E-9	0.001561
4.100000E-9	0.001638
4.150000E-9	0.001716
4.200000E-9	0.001772
4.250000E-9	0.001933
4.300000E-9	0.001913
4.350000E-9	0.001989
4.400000E-9	0.002067
4.450000E-9	0.002073
4.500000E-9	0.002122
4.550000E-9	0.002222
4.600000E-9	0.002322
4.650000E-9	0.002370
4.700000E-9	0.002297
4.750000E-9	0.002222
4.800000E-9	0.001894
4.850000E-9	0.001442
4.900000E-9	0.000727
4.950000E-9	-0.000173
5.000000E-9	-0.001297
5.050000E-9	-0.002666
5.100000E-9	-0.004227
5.150000E-9	-0.005891
5.200000E-9	-0.007572
5.250000E-9	-0.009288
5.300000E-9	-0.010852
5.350000E-9	-0.012209
5.400000E-9	-0.013398
5.450000E-9	-0.014222
5.500000E-9	-0.014733
5.550000E-9	-0.014930
5.600000E-9	-0.014778
5.650000E-9	-0.014294
5.700000E-9	-0.013539
5.750000E-9	-0.012609
5.800000E-9	-0.011575
5.850000E-9	-0.010448
5.900000E-9	-0.009372
5.950000E-9	-0.008508
6.000000E-9	-0.007764
6.050000E-9	-0.007311
6.100000E-9	-0.007167
6.150000E-9	-0.007156
6.200000E-9	-0.007397
6.250000E-9	-0.007841
6.300000E-9	-0.008245
6.350000E-9	-0.008592
6.400000E-9	-0.008914
6.450000E-9	-0.009063
6.500000E-9	-0.008984
6.550000E-9	-0.008653
6.600000E-9	-0.008239
6.650000E-9	-0.007530
6.700000E-9	-0.006727
6.750000E-9	-0.005847
6.800000E-9	-0.005002
6.850000E-9	-0.004269
6.900000E-9	-0.003675
6.950000E-9	-0.003188
7.000000E-9	-0.002998
7.050000E-9	-0.002984
7.100000E-9	-0.003122
7.150000E-9	-0.003392
7.200000E-9	-0.003820
7.250000E-9	-0.004297
7.300000E-9	-0.004761
7.350000E-9	-0.005122
7.400000E-9	-0.005331
7.450000E-9	-0.005439
7.500000E-9	-0.005266
7.550000E-9	-0.004823
7.600000E-9	-0.004241
7.650000E-9	-0.003503
7.700000E-9	-0.002692
7.750000E-9	-0.001833
7.800000E-9	-0.001091
7.850000E-9	-0.000436
7.900000E-9	-3.281250E-5
7.950000E-9	0.000186
8.000000E-9	8.906250E-5
8.050000E-9	-0.000180
8.100000E-9	-0.000647
8.150000E-9	-0.001225
8.200000E-9	-0.001780
8.250000E-9	-0.002334
8.300000E-9	-0.002795
8.350000E-9	-0.002995
8.400000E-9	-0.002983
8.450000E-9	-0.002741
8.500000E-9	-0.002259
8.550000E-9	-0.001614
8.600000E-9	-0.000930
8.650000E-9	-0.000123
8.700000E-9	0.000573
8.750000E-9	0.001230
8.800000E-9	0.001612
8.850000E-9	0.001767
8.900000E-9	0.001747
8.950000E-9	0.001498
9.000000E-9	0.001022
9.050000E-9	0.000397
9.100000E-9	-0.000236
9.150000E-9	-0.000886
9.200000E-9	-0.001531
9.250000E-9	-0.001925
9.300000E-9	-0.002173
9.350000E-9	-0.002144
9.400000E-9	-0.001919
9.450000E-9	-0.001525
9.500000E-9	-0.000895
9.550000E-9	-0.000195
9.600000E-9	0.000523
9.650000E-9	0.001123
9.700000E-9	0.001642
9.750000E-9	0.002061
9.800000E-9	0.002202
9.850000E-9	0.002064
9.900000E-9	0.001781
9.950000E-9	0.001294
1.000000E-8	0.000775
1.005000E-8	0.000172
1.010000E-8	-0.000388
1.015000E-8	-0.000756
1.020000E-8	-0.001014
1.025000E-8	-0.001097
1.030000E-8	-0.000980
1.035000E-8	-0.000525
1.040000E-8	-3.125000E-6
1.045000E-8	0.000636
1.050000E-8	0.001339
1.055000E-8	0.001992
1.060000E-8	0.002528
1.065000E-8	0.002909
1.070000E-8	0.003028
1.075000E-8	0.002967
1.080000E-8	0.002681
1.085000E-8	0.002167
1.090000E-8	0.001586
1.095000E-8	0.001044
1.100000E-8	0.000409
1.105000E-8	-4.687500E-5
1.110000E-8	-0.000400
1.115000E-8	-0.000620
1.120000E-8	-0.000580
1.125000E-8	-0.000313
1.130000E-8	4.531250E-5
1.135000E-8	0.000566
1.140000E-8	0.001080
1.145000E-8	0.001653
1.150000E-8	0.002162
1.155000E-8	0.002584
1.160000E-8	0.002809
1.165000E-8	0.002859
1.170000E-8	0.002722
1.175000E-8	0.002436
1.180000E-8	0.001966
1.185000E-8	0.001405
1.190000E-8	0.000820
1.195000E-8	0.000291
1.200000E-8	-0.000141
1.205000E-8	-0.000498
1.210000E-8	-0.000698
1.215000E-8	-0.000605
1.220000E-8	-0.000400
1.225000E-8	6.250000E-6
1.230000E-8	0.000595
1.235000E-8	0.001238
1.240000E-8	0.001889
1.245000E-8	0.002445
1.250000E-8	0.002823
1.255000E-8	0.003095
1.260000E-8	0.003080
1.265000E-8	0.002934
1.270000E-8	0.002619
1.275000E-8	0.002083
1.280000E-8	0.001416
1.285000E-8	0.000880
1.290000E-8	0.000287
1.295000E-8	-8.437500E-5
1.300000E-8	-0.000353
1.305000E-8	-0.000445
1.310000E-8	-0.000320
1.315000E-8	-1.562500E-5
1.320000E-8	0.000470
1.325000E-8	0.001033
1.330000E-8	0.001647
1.335000E-8	0.002180
1.340000E-8	0.002744
1.345000E-8	0.003123
1.350000E-8	0.003347
1.355000E-8	0.003433
1.360000E-8	0.003272
1.365000E-8	0.002975
1.370000E-8	0.002453
1.375000E-8	0.001941
1.380000E-8	0.001392
1.385000E-8	0.000850
1.390000E-8	0.000411
1.395000E-8	0.000136
1.400000E-8	4.218750E-5
1.405000E-8	0.000191
1.410000E-8	0.000511
1.415000E-8	0.000992
1.420000E-8	0.001559
1.425000E-8	0.002098
1.430000E-8	0.002669
1.435000E-8	0.003167
1.440000E-8	0.003450
1.445000E-8	0.003563
1.450000E-8	0.003344
1.455000E-8	0.003092
1.460000E-8	0.002647
1.465000E-8	0.002147
1.470000E-8	0.001442
1.475000E-8	0.000933
1.480000E-8	0.000514
1.485000E-8	0.000153
1.490000E-8	-5.781250E-5
1.495000E-8	3.125000E-5
1.500000E-8	0.000222
1.505000E-8	0.000653
1.510000E-8	0.001120
1.515000E-8	0.001617
1.520000E-8	0.002148
1.525000E-8	0.002547
1.530000E-8	0.002898
1.535000E-8	0.003086
1.540000E-8	0.003064
1.545000E-8	0.002919
1.550000E-8	0.002645
1.555000E-8	0.002164
1.560000E-8	0.001620
1.565000E-8	0.001045
1.570000E-8	0.000555
1.575000E-8	0.000142
1.580000E-8	-0.000173
1.585000E-8	-0.000347
1.590000E-8	-0.000286
1.595000E-8	1.250000E-5
1.600000E-8	0.000445
1.605000E-8	0.001034
1.610000E-8	0.001547
1.615000E-8	0.002230
1.620000E-8	0.002711
1.625000E-8	0.003031
1.630000E-8	0.003194
1.635000E-8	0.003255
1.640000E-8	0.003033
1.645000E-8	0.002705
1.650000E-8	0.002270
1.655000E-8	0.001783
1.660000E-8	0.001300
1.665000E-8	0.000859
1.670000E-8	0.000513
1.675000E-8	0.000342
1.680000E-8	0.000303
1.685000E-8	0.000425
1.690000E-8	0.000730
1.695000E-8	0.001112
1.700000E-8	0.001577
1.705000E-8	0.002036
1.710000E-8	0.002494
1.715000E-8	0.002878
1.720000E-8	0.003086
1.725000E-8	0.003108
1.730000E-8	0.003097
1.735000E-8	0.002858
1.740000E-8	0.002423
1.745000E-8	0.001930
1.750000E-8	0.001409
1.755000E-8	0.000908
1.760000E-8	0.000438
1.765000E-8	7.656250E-5
1.770000E-8	-7.500000E-5
1.775000E-8	-6.406250E-5
1.780000E-8	0.000142
1.785000E-8	0.000608
1.790000E-8	0.001025
1.795000E-8	0.001656
1.800000E-8	0.002220
1.805000E-8	0.002736
1.810000E-8	0.003105
1.815000E-8	0.003316
1.820000E-8	0.003306
1.825000E-8	0.003152
1.830000E-8	0.002736
1.835000E-8	0.002239
1.840000E-8	0.001698
1.845000E-8	0.001163
1.850000E-8	0.000659
1.855000E-8	0.000333
1.860000E-8	0.000117
1.865000E-8	0.000147
1.870000E-8	0.000358
1.875000E-8	0.000747
1.880000E-8	0.001214
1.885000E-8	0.001767
1.890000E-8	0.002283
1.895000E-8	0.002786
1.900000E-8	0.003045
1.905000E-8	0.003314
1.910000E-8	0.003297
1.915000E-8	0.003266
1.920000E-8	0.002988
1.925000E-8	0.002563
1.930000E-8	0.002061
1.935000E-8	0.001695
1.940000E-8	0.001206
1.945000E-8	0.000877
1.950000E-8	0.000573
1.955000E-8	0.000461
1.960000E-8	0.000419
1.965000E-8	0.000556
1.970000E-8	0.000830
1.975000E-8	0.001166
1.980000E-8	0.001595
1.985000E-8	0.002002
1.990000E-8	0.002431
1.995000E-8	0.002797
2.000000E-8	0.002963
2.005000E-8	0.003047
2.010000E-8	0.002983
2.015000E-8	0.002773
2.020000E-8	0.002434
2.025000E-8	0.002055
2.030000E-8	0.001650
2.035000E-8	0.001211
2.040000E-8	0.000823
2.045000E-8	0.000563
2.050000E-8	0.000345
2.055000E-8	0.000361
2.060000E-8	0.000520
2.065000E-8	0.000795
2.070000E-8	0.001169
2.075000E-8	0.001738
2.080000E-8	0.002133
2.085000E-8	0.002558
2.090000E-8	0.002895
2.095000E-8	0.003073
2.100000E-8	0.003128
2.105000E-8	0.002944
2.110000E-8	0.002708
2.115000E-8	0.002273
2.120000E-8	0.001814
2.125000E-8	0.001330
2.130000E-8	0.000934
2.135000E-8	0.000553
2.140000E-8	0.000400
2.145000E-8	0.000397
2.150000E-8	0.000539
2.155000E-8	0.000842
2.160000E-8	0.001280
2.165000E-8	0.001813
2.170000E-8	0.002297
2.175000E-8	0.002780
2.180000E-8	0.003152
2.185000E-8	0.003398
2.190000E-8	0.003464
2.195000E-8	0.003439
2.200000E-8	0.003150
2.205000E-8	0.002828
2.210000E-8	0.002373
2.215000E-8	0.001922
2.220000E-8	0.001486
2.225000E-8	0.001070
2.230000E-8	0.000769
2.235000E-8	0.000716
2.240000E-8	0.000734
2.245000E-8	0.000916
2.250000E-8	0.001244
2.255000E-8	0.001667
2.260000E-8	0.002117
2.265000E-8	0.002538
2.270000E-8	0.002897
2.275000E-8	0.003186
2.280000E-8	0.003292
2.285000E-8	0.003278
2.290000E-8	0.003117
2.295000E-8	0.002850
2.300000E-8	0.002383
2.305000E-8	0.001964
2.310000E-8	0.001469
2.315000E-8	0.001070
2.320000E-8	0.000731
2.325000E-8	0.000597
2.330000E-8	0.000537
2.335000E-8	0.000656
2.340000E-8	0.000942
2.345000E-8	0.001355
2.350000E-8	0.001678
2.355000E-8	0.002127
2.360000E-8	0.002480
2.365000E-8	0.002748
2.370000E-8	0.002913
2.375000E-8	0.002938
2.380000E-8	0.002853
2.385000E-8	0.002630
2.390000E-8	0.002366
2.395000E-8	0.002103
2.400000E-8	0.001792
2.405000E-8	0.001445
2.410000E-8	0.001197
2.415000E-8	0.000997
2.420000E-8	0.000789
2.425000E-8	0.000806
2.430000E-8	0.000769
2.435000E-8	0.000956
2.440000E-8	0.001094
2.445000E-8	0.001370
2.450000E-8	0.001592
2.455000E-8	0.001872
2.460000E-8	0.002089
2.465000E-8	0.002413
2.470000E-8	0.002545
2.475000E-8	0.002617
2.480000E-8	0.002597
2.485000E-8	0.002508
2.490000E-8	0.002230
2.495000E-8	0.001997
2.500000E-8	0.001738
2.505000E-8	0.001445
2.510000E-8	0.001225
2.515000E-8	0.001039
2.520000E-8	0.001006
2.525000E-8	0.001092
2.530000E-8	0.001223
2.535000E-8	0.001497
2.540000E-8	0.001834
2.545000E-8	0.002172
2.550000E-8	0.002466
2.555000E-8	0.002748
2.560000E-8	0.002941
2.565000E-8	0.003034
2.570000E-8	0.002975
2.575000E-8	0.002844
2.580000E-8	0.002622
2.585000E-8	0.002281
2.590000E-8	0.001948
2.595000E-8	0.001605
2.600000E-8	0.001289
2.605000E-8	0.001128
2.610000E-8	0.001020
2.615000E-8	0.000969
2.620000E-8	0.001128
2.625000E-8	0.001289
2.630000E-8	0.001570
2.635000E-8	0.001947
2.640000E-8	0.002295
2.645000E-8	0.002541
2.650000E-8	0.002719
2.655000E-8	0.002845
2.660000E-8	0.002872
2.665000E-8	0.002814
2.670000E-8	0.002539
2.675000E-8	0.002223
2.680000E-8	0.001916
2.685000E-8	0.001597
2.690000E-8	0.001213
2.695000E-8	0.001016
2.700000E-8	0.000775
2.705000E-8	0.000780
2.710000E-8	0.000825
2.715000E-8	0.001011
2.720000E-8	0.001302
2.725000E-8	0.001653
2.730000E-8	0.002017
2.735000E-8	0.002338
2.740000E-8	0.002544
2.745000E-8	0.002697
2.750000E-8	0.002817
2.755000E-8	0.002656
2.760000E-8	0.002497
2.765000E-8	0.002277
2.770000E-8	0.002031
2.775000E-8	0.001659
2.780000E-8	0.001395
2.785000E-8	0.001125
2.790000E-8	0.001017
2.795000E-8	0.000958
2.800000E-8	0.000920
2.805000E-8	0.001153
2.810000E-8	0.001352
2.815000E-8	0.001600
2.820000E-8	0.001864
2.825000E-8	0.002202
2.830000E-8	0.002408
2.835000E-8	0.002669
2.840000E-8	0.002700
2.845000E-8	0.002737
2.850000E-8	0.002709
2.855000E-8	0.002577
2.860000E-8	0.002320
2.865000E-8	0.002042
2.870000E-8	0.001773
2.875000E-8	0.001477
2.880000E-8	0.001259
2.885000E-8	0.001089
2.890000E-8	0.001028
2.895000E-8	0.001144
2.900000E-8	0.001219
2.905000E-8	0.001425
2.910000E-8	0.001744
2.915000E-8	0.002148
2.920000E-8	0.002470
2.925000E-8	0.002794
2.930000E-8	0.002992
2.935000E-8	0.003105
2.940000E-8	0.003075
2.945000E-8	0.002914
2.950000E-8	0.002673
2.955000E-8	0.002350
2.960000E-8	0.002012
2.965000E-8	0.001550
2.970000E-8	0.001209
2.975000E-8	0.000906
2.980000E-8	0.000758
2.985000E-8	0.000727
2.990000E-8	0.000791
2.995000E-8	0.000983
3.000000E-8	0.001331
3.005000E-8	0.001602
3.010000E-8	0.001961
3.015000E-8	0.002291
3.020000E-8	0.002484
3.025000E-8	0.002716
3.030000E-8	0.002731
3.035000E-8	0.002722
3.040000E-8	0.002517
3.045000E-8	0.002314
3.050000E-8	0.001978
3.055000E-8	0.001634
3.060000E-8	0.001272
3.065000E-8	0.000973
3.070000E-8	0.000822
3.075000E-8	0.000711
3.080000E-8	0.000656
3.085000E-8	0.000748
3.090000E-8	0.000927
3.095000E-8	0.001187
3.100000E-8	0.001506
3.105000E-8	0.001886
3.110000E-8	0.002214
3.115000E-8	0.002531
3.120000E-8	0.002661
3.125000E-8	0.002773
3.130000E-8	0.002763
3.135000E-8	0.002703
3.140000E-8	0.002445
3.145000E-8	0.002233
3.150000E-8	0.001970
3.155000E-8	0.001677
3.160000E-8	0.001456
3.165000E-8	0.001283
3.170000E-8	0.001255
3.175000E-8	0.001272
3.180000E-8	0.001406
3.185000E-8	0.001636
3.190000E-8	0.001813
3.195000E-8	0.002047
3.200000E-8	0.002273
3.205000E-8	0.002512
3.210000E-8	0.002659
3.215000E-8	0.002727
3.220000E-8	0.002717
3.225000E-8	0.002691
3.230000E-8	0.002497
3.235000E-8	0.002297
3.240000E-8	0.002069
3.245000E-8	0.001859
3.250000E-8	0.001588
3.255000E-8	0.001433
3.260000E-8	0.001230
3.265000E-8	0.001139
3.270000E-8	0.001205
3.275000E-8	0.001297
3.280000E-8	0.001428
3.285000E-8	0.001623
3.290000E-8	0.001861
3.295000E-8	0.002145
3.300000E-8	0.002319
3.305000E-8	0.002527
3.310000E-8	0.002611
3.315000E-8	0.002653
3.320000E-8	0.002561
3.325000E-8	0.002383
3.330000E-8	0.002087
3.335000E-8	0.001803
3.340000E-8	0.001519
3.345000E-8	0.001300
3.350000E-8	0.001128
3.355000E-8	0.000994
3.360000E-8	0.000997
3.365000E-8	0.001063
3.370000E-8	0.001194
3.375000E-8	0.001452
3.380000E-8	0.001661
3.385000E-8	0.001905
3.390000E-8	0.002050
3.395000E-8	0.002289
3.400000E-8	0.002434
3.405000E-8	0.002461
3.410000E-8	0.002409
3.415000E-8	0.002239
3.420000E-8	0.002034
3.425000E-8	0.001798
3.430000E-8	0.001555
3.435000E-8	0.001213
3.440000E-8	0.000986
3.445000E-8	0.000806
3.450000E-8	0.000644
3.455000E-8	0.000650
3.460000E-8	0.000728
3.465000E-8	0.000950
3.470000E-8	0.001189
3.475000E-8	0.001539
3.480000E-8	0.001822
3.485000E-8	0.002138
3.490000E-8	0.002322
3.495000E-8	0.002523
3.500000E-8	0.002534
3.505000E-8	0.002520
3.510000E-8	0.002456
3.515000E-8	0.002259
3.520000E-8	0.002075
3.525000E-8	0.001900
3.530000E-8	0.001723
3.535000E-8	0.001525
3.540000E-8	0.001477
3.545000E-8	0.001456
3.550000E-8	0.001538
3.555000E-8	0.001667
3.560000E-8	0.001817
3.565000E-8	0.002106
3.570000E-8	0.002392
3.575000E-8	0.002550
3.580000E-8	0.002631
3.585000E-8	0.002778
3.590000E-8	0.002844
3.595000E-8	0.002788
3.600000E-8	0.002631
3.605000E-8	0.002448
3.610000E-8	0.002223
3.615000E-8	0.001989
3.620000E-8	0.001670
3.625000E-8	0.001473
3.630000E-8	0.001288
3.635000E-8	0.001167
3.640000E-8	0.001155
3.645000E-8	0.001216
3.650000E-8	0.001322
3.655000E-8	0.001525
3.660000E-8	0.001736
3.665000E-8	0.001988
3.670000E-8	0.002209
3.675000E-8	0.002469
3.680000E-8	0.002606
3.685000E-8	0.002666
3.690000E-8	0.002625
3.695000E-8	0.002573
3.700000E-8	0.002409
3.705000E-8	0.002220
3.710000E-8	0.001913
3.715000E-8	0.001691
3.720000E-8	0.001391
3.725000E-8	0.001147
3.730000E-8	0.001105
3.735000E-8	0.001052
3.740000E-8	0.001002
3.745000E-8	0.001163
3.750000E-8	0.001378
3.755000E-8	0.001669
3.760000E-8	0.001973
3.765000E-8	0.002230
3.770000E-8	0.002509
3.775000E-8	0.002728
3.780000E-8	0.002755
3.785000E-8	0.002811
3.790000E-8	0.002691
3.795000E-8	0.002508
3.800000E-8	0.002291
3.805000E-8	0.002033
3.810000E-8	0.001745
3.815000E-8	0.001494
3.820000E-8	0.001336
3.825000E-8	0.001300
3.830000E-8	0.001294
3.835000E-8	0.001355
3.840000E-8	0.001505
3.845000E-8	0.001684
3.850000E-8	0.001905
3.855000E-8	0.002125
3.860000E-8	0.002213
3.865000E-8	0.002380
3.870000E-8	0.002509
3.875000E-8	0.002538
3.880000E-8	0.002398
3.885000E-8	0.002263
3.890000E-8	0.002086
3.895000E-8	0.001955
3.900000E-8	0.001739
3.905000E-8	0.001559
3.910000E-8	0.001441
3.915000E-8	0.001353
3.920000E-8	0.001280
3.925000E-8	0.001278
3.930000E-8	0.001334
3.935000E-8	0.001486
3.940000E-8	0.001597
3.945000E-8	0.001856
3.950000E-8	0.001980
3.955000E-8	0.002228
3.960000E-8	0.002448
3.965000E-8	0.002570
3.970000E-8	0.002648
3.975000E-8	0.002627
3.980000E-8	0.002591
3.985000E-8	0.002466
3.990000E-8	0.002264
3.995000E-8	0.001981
4.000000E-8	0.001791
4.005000E-8	0.001478
4.010000E-8	0.001284
4.015000E-8	0.001181
4.020000E-8	0.001169
4.025000E-8	0.001255
4.030000E-8	0.001450
4.035000E-8	0.001725
4.040000E-8	0.002011
4.045000E-8	0.002302
4.050000E-8	0.002538
4.055000E-8	0.002717
4.060000E-8	0.002814
4.065000E-8	0.002775
4.070000E-8	0.002658
4.075000E-8	0.002505
4.080000E-8	0.002216
4.085000E-8	0.001914
4.090000E-8	0.001619
4.095000E-8	0.001345
4.100000E-8	0.001286
4.105000E-8	0.001178
4.110000E-8	0.001142
4.115000E-8	0.001269
4.120000E-8	0.001488
4.125000E-8	0.001678
4.130000E-8	0.001872
4.135000E-8	0.002087
4.140000E-8	0.002209
4.145000E-8	0.002305
4.150000E-8	0.002341
4.155000E-8	0.002319
4.160000E-8	0.002286
4.165000E-8	0.002192
4.170000E-8	0.002036
4.175000E-8	0.001892
4.180000E-8	0.001716
4.185000E-8	0.001550
4.190000E-8	0.001408
4.195000E-8	0.001325
4.200000E-8	0.001195
4.205000E-8	0.001203
4.210000E-8	0.001220
4.215000E-8	0.001341
4.220000E-8	0.001492
4.225000E-8	0.001661
4.230000E-8	0.001825
4.235000E-8	0.002003
4.240000E-8	0.002113
4.245000E-8	0.002247
4.250000E-8	0.002253
4.255000E-8	0.002211
4.260000E-8	0.002066
4.265000E-8	0.001917
4.270000E-8	0.001628
4.275000E-8	0.001441
4.280000E-8	0.001252
4.285000E-8	0.001092
4.290000E-8	0.000925
4.295000E-8	0.000983
4.300000E-8	0.000992
4.305000E-8	0.001238
4.310000E-8	0.001439
4.315000E-8	0.001745
4.320000E-8	0.001992
4.325000E-8	0.002327
4.330000E-8	0.002489
4.335000E-8	0.002695
4.340000E-8	0.002686
4.345000E-8	0.002684
4.350000E-8	0.002605
4.355000E-8	0.002425
4.360000E-8	0.002219
4.365000E-8	0.001941
4.370000E-8	0.001673
4.375000E-8	0.001486
4.380000E-8	0.001361
4.385000E-8	0.001247
4.390000E-8	0.001277
4.395000E-8	0.001394
4.400000E-8	0.001592
4.405000E-8	0.001747
4.410000E-8	0.001980
4.415000E-8	0.002216
4.420000E-8	0.002359
4.425000E-8	0.002500
4.430000E-8	0.002528
4.435000E-8	0.002506
4.440000E-8	0.002416
4.445000E-8	0.002270
4.450000E-8	0.002066
4.455000E-8	0.001891
4.460000E-8	0.001716
4.465000E-8	0.001519
4.470000E-8	0.001402
4.475000E-8	0.001273
4.480000E-8	0.001278
4.485000E-8	0.001339
4.490000E-8	0.001402
4.495000E-8	0.001580
4.500000E-8	0.001783
4.505000E-8	0.001981
4.510000E-8	0.002048
4.515000E-8	0.002150
4.520000E-8	0.002200
4.525000E-8	0.002258
4.530000E-8	0.002170
4.535000E-8	0.002045
4.540000E-8	0.001850
4.545000E-8	0.001716
4.550000E-8	0.001523
4.555000E-8	0.001411
4.560000E-8	0.001288
4.565000E-8	0.001202
4.570000E-8	0.001133
4.575000E-8	0.001208
4.580000E-8	0.001231
4.585000E-8	0.001416
4.590000E-8	0.001627
4.595000E-8	0.001906
4.600000E-8	0.001972
4.605000E-8	0.002203
4.610000E-8	0.002352
4.615000E-8	0.002527
4.620000E-8	0.002539
4.625000E-8	0.002619
4.630000E-8	0.002575
4.635000E-8	0.002492
4.640000E-8	0.002339
4.645000E-8	0.002123
4.650000E-8	0.001805
4.655000E-8	0.001570
4.660000E-8	0.001355
4.665000E-8	0.001233
4.670000E-8	0.001145
4.675000E-8	0.001136
4.680000E-8	0.001117
4.685000E-8	0.001275
4.690000E-8	0.001423
4.695000E-8	0.001648
4.700000E-8	0.001870
4.705000E-8	0.002030
4.710000E-8	0.002200
4.715000E-8	0.002270
4.720000E-8	0.002245
4.725000E-8	0.002186
4.730000E-8	0.002059
4.735000E-8	0.001891
4.740000E-8	0.001738
4.745000E-8	0.001595
4.750000E-8	0.001448
4.755000E-8	0.001402
4.760000E-8	0.001355
4.765000E-8	0.001406
4.770000E-8	0.001520
4.775000E-8	0.001770
4.780000E-8	0.001878
4.785000E-8	0.002111
4.790000E-8	0.002298
4.795000E-8	0.002391
4.800000E-8	0.002463
4.805000E-8	0.002478
4.810000E-8	0.002348
4.815000E-8	0.002284
4.820000E-8	0.002086
4.825000E-8	0.001858
4.830000E-8	0.001673
4.835000E-8	0.001444
4.840000E-8	0.001298
4.845000E-8	0.001225
4.850000E-8	0.001198
4.855000E-8	0.001348
4.860000E-8	0.001461
4.865000E-8	0.001597
4.870000E-8	0.001777
4.875000E-8	0.002006
4.880000E-8	0.002141
4.885000E-8	0.002325
4.890000E-8	0.002520
4.895000E-8	0.002591
4.900000E-8	0.002555
4.905000E-8	0.002589
4.910000E-8	0.002488
4.915000E-8	0.002414
4.920000E-8	0.002239
4.925000E-8	0.002066
4.930000E-8	0.001894
4.935000E-8	0.001664
4.940000E-8	0.001445
4.945000E-8	0.001350
4.950000E-8	0.001286
4.955000E-8	0.001330
4.960000E-8	0.001417
4.965000E-8	0.001595
4.970000E-8	0.001763
4.975000E-8	0.002047
4.980000E-8	0.002283
4.985000E-8	0.002578
4.990000E-8	0.002684
4.995000E-8	0.002786
5.000000E-8	0.002723
5.005000E-8	0.002617
5.010000E-8	0.002389
5.015000E-8	0.002139
5.020000E-8	0.001895
5.025000E-8	0.001692
5.030000E-8	0.001527
5.035000E-8	0.001437
5.040000E-8	0.001398
5.045000E-8	0.001459
5.050000E-8	0.001614
5.055000E-8	0.001708
5.060000E-8	0.001897
5.065000E-8	0.002081
5.070000E-8	0.002130
5.075000E-8	0.002280
5.080000E-8	0.002259
5.085000E-8	0.002317
5.090000E-8	0.002325
5.095000E-8	0.002230
5.100000E-8	0.002138
5.105000E-8	0.002031
5.110000E-8	0.001892
5.115000E-8	0.001772
5.120000E-8	0.001670
5.125000E-8	0.001634
5.130000E-8	0.001483
5.135000E-8	0.001516
5.140000E-8	0.001427
5.145000E-8	0.001517
5.150000E-8	0.001578
5.155000E-8	0.001783
5.160000E-8	0.001831
5.165000E-8	0.002023
5.170000E-8	0.002123
5.175000E-8	0.002266
5.180000E-8	0.002288
5.185000E-8	0.002295
5.190000E-8	0.002181
5.195000E-8	0.002086
5.200000E-8	0.001867
5.205000E-8	0.001725
5.210000E-8	0.001469
5.215000E-8	0.001322
5.220000E-8	0.001128
5.225000E-8	0.001053
5.230000E-8	0.001033
5.235000E-8	0.001105
5.240000E-8	0.001239
5.245000E-8	0.001434
5.250000E-8	0.001686
5.255000E-8	0.001933
5.260000E-8	0.002133
5.265000E-8	0.002292
5.270000E-8	0.002350
5.275000E-8	0.002355
5.280000E-8	0.002286
5.285000E-8	0.002127
5.290000E-8	0.001939
5.295000E-8	0.001747
5.300000E-8	0.001502
5.305000E-8	0.001388
5.310000E-8	0.001288
5.315000E-8	0.001259
5.320000E-8	0.001214
5.325000E-8	0.001261
5.330000E-8	0.001316
5.335000E-8	0.001383
5.340000E-8	0.001534
5.345000E-8	0.001689
5.350000E-8	0.001708
5.355000E-8	0.001827
5.360000E-8	0.001923
5.365000E-8	0.002014
5.370000E-8	0.001986
5.375000E-8	0.001922
5.380000E-8	0.001877
5.385000E-8	0.001858
5.390000E-8	0.001769
5.395000E-8	0.001691
5.400000E-8	0.001584
5.405000E-8	0.001542
5.410000E-8	0.001581
5.415000E-8	0.001602
5.420000E-8	0.001645
5.425000E-8	0.001648
5.430000E-8	0.001761
5.435000E-8	0.001817
5.440000E-8	0.001902
5.445000E-8	0.001963
5.450000E-8	0.002000
5.455000E-8	0.002095
5.460000E-8	0.002125
5.465000E-8	0.002173
5.470000E-8	0.002116
5.475000E-8	0.002087
5.480000E-8	0.002022
5.485000E-8	0.001967
5.490000E-8	0.001819
5.495000E-8	0.001788
5.500000E-8	0.001645
5.505000E-8	0.001673
5.510000E-8	0.001600
5.515000E-8	0.001586
5.520000E-8	0.001669
5.525000E-8	0.001752
5.530000E-8	0.001875
5.535000E-8	0.002078
5.540000E-8	0.002166
5.545000E-8	0.002347
5.550000E-8	0.002450
5.555000E-8	0.002478
5.560000E-8	0.002520
5.565000E-8	0.002319
5.570000E-8	0.002248
5.575000E-8	0.002003
5.580000E-8	0.001811
5.585000E-8	0.001670
5.590000E-8	0.001517
5.595000E-8	0.001420
5.600000E-8	0.001397
5.605000E-8	0.001459
5.610000E-8	0.001545
5.615000E-8	0.001713
5.620000E-8	0.001909
5.625000E-8	0.002063
5.630000E-8	0.002275
5.635000E-8	0.002375
5.640000E-8	0.002459
5.645000E-8	0.002483
5.650000E-8	0.002423
5.655000E-8	0.002389
5.660000E-8	0.002213
5.665000E-8	0.002031
5.670000E-8	0.001858
5.675000E-8	0.001686
5.680000E-8	0.001511
5.685000E-8	0.001486
5.690000E-8	0.001434
5.695000E-8	0.001547
5.700000E-8	0.001609
5.705000E-8	0.001733
5.710000E-8	0.001928
5.715000E-8	0.002025
5.720000E-8	0.002195
5.725000E-8	0.002306
5.730000E-8	0.002363
5.735000E-8	0.002356
5.740000E-8	0.002328
5.745000E-8	0.002213
5.750000E-8	0.002039
5.755000E-8	0.001917
5.760000E-8	0.001702
5.765000E-8	0.001612
5.770000E-8	0.001463
5.775000E-8	0.001467
5.780000E-8	0.001347
5.785000E-8	0.001322
5.790000E-8	0.001428
5.795000E-8	0.001611
5.800000E-8	0.001641
5.805000E-8	0.001709
5.810000E-8	0.001866
5.815000E-8	0.002047
5.820000E-8	0.002070
5.825000E-8	0.002167
5.830000E-8	0.002230
5.835000E-8	0.002198
5.840000E-8	0.002122
5.845000E-8	0.002092
5.850000E-8	0.001911
5.855000E-8	0.001878
5.860000E-8	0.001716
5.865000E-8	0.001573
5.870000E-8	0.001480
5.875000E-8	0.001442
5.880000E-8	0.001413
5.885000E-8	0.001417
5.890000E-8	0.001489
5.895000E-8	0.001570
5.900000E-8	0.001706
5.905000E-8	0.001861
5.910000E-8	0.001958
5.915000E-8	0.002098
5.920000E-8	0.002155
5.925000E-8	0.002291
5.930000E-8	0.002286
5.935000E-8	0.002286
5.940000E-8	0.002214
5.945000E-8	0.002063
5.950000E-8	0.001905
5.955000E-8	0.001764
5.960000E-8	0.001650
5.965000E-8	0.001531
5.970000E-8	0.001458
5.975000E-8	0.001469
5.980000E-8	0.001472
5.985000E-8	0.001575
5.990000E-8	0.001667
5.995000E-8	0.001777
6.000000E-8	0.001933
6.005000E-8	0.001973
6.010000E-8	0.002045
6.015000E-8	0.002117
6.020000E-8	0.002155
6.025000E-8	0.002122
6.030000E-8	0.002080
6.035000E-8	0.002016
6.040000E-8	0.001942
6.045000E-8	0.001855
6.050000E-8	0.001805
6.055000E-8	0.001775
6.060000E-8	0.001852
6.065000E-8	0.001814
6.070000E-8	0.001850
6.075000E-8	0.001945
6.080000E-8	0.001956
6.085000E-8	0.002022
6.090000E-8	0.002055
6.095000E-8	0.002092
6.100000E-8	0.002100
6.105000E-8	0.002206
6.110000E-8	0.002192
6.115000E-8	0.002219
6.120000E-8	0.002205
6.125000E-8	0.002214
6.130000E-8	0.002183
6.135000E-8	0.002083
6.140000E-8	0.001986
6.145000E-8	0.001936
6.150000E-8	0.001847
6.155000E-8	0.001792
6.160000E-8	0.001816
6.165000E-8	0.001777
6.170000E-8	0.001803
6.175000E-8	0.001833
6.180000E-8	0.001923
6.185000E-8	0.001995
6.190000E-8	0.002030
6.195000E-8	0.002134
6.200000E-8	0.002189
6.205000E-8	0.002175
6.210000E-8	0.002127
6.215000E-8	0.002084
6.220000E-8	0.001967
6.225000E-8	0.001894
6.230000E-8	0.001723
6.235000E-8	0.001695
6.240000E-8	0.001570
6.245000E-8	0.001538
6.250000E-8	0.001511
6.255000E-8	0.001577
6.260000E-8	0.001623
6.265000E-8	0.001777
6.270000E-8	0.001884
6.275000E-8	0.002012
6.280000E-8	0.002122
6.285000E-8	0.002314
6.290000E-8	0.002377
6.295000E-8	0.002392
6.300000E-8	0.002419
6.305000E-8	0.002394
6.310000E-8	0.002345
6.315000E-8	0.002247
6.320000E-8	0.002233
6.325000E-8	0.002081
6.330000E-8	0.001923
6.335000E-8	0.001814
6.340000E-8	0.001742
6.345000E-8	0.001753
6.350000E-8	0.001648
6.355000E-8	0.001698
6.360000E-8	0.001680
6.365000E-8	0.001789
6.370000E-8	0.001806
6.375000E-8	0.001941
6.380000E-8	0.001998
6.385000E-8	0.002097
6.390000E-8	0.002114
6.395000E-8	0.002158
6.400000E-8	0.002170
6.405000E-8	0.002086
6.410000E-8	0.001942
6.415000E-8	0.001820
6.420000E-8	0.001659
6.425000E-8	0.001570
6.430000E-8	0.001434
6.435000E-8	0.001359
6.440000E-8	0.001402
6.445000E-8	0.001461
6.450000E-8	0.001519
6.455000E-8	0.001706
6.460000E-8	0.001878
6.465000E-8	0.002081
6.470000E-8	0.002180
6.475000E-8	0.002267
6.480000E-8	0.002313
6.485000E-8	0.002306
6.490000E-8	0.002148
6.495000E-8	0.002025
6.500000E-8	0.001889
6.505000E-8	0.001723
6.510000E-8	0.001605
6.515000E-8	0.001442
6.520000E-8	0.001409
6.525000E-8	0.001447
6.530000E-8	0.001506
6.535000E-8	0.001648
6.540000E-8	0.001744
6.545000E-8	0.001914
6.550000E-8	0.001973
6.555000E-8	0.002089
6.560000E-8	0.002111
6.565000E-8	0.002138
6.570000E-8	0.002147
6.575000E-8	0.002133
6.580000E-8	0.002030
6.585000E-8	0.002022
6.590000E-8	0.001980
6.595000E-8	0.001927
6.600000E-8	0.001886
6.605000E-8	0.001831
6.610000E-8	0.001714
6.615000E-8	0.001788
6.620000E-8	0.001820
6.625000E-8	0.001884
6.630000E-8	0.001914
6.635000E-8	0.001945
6.640000E-8	0.002058
6.645000E-8	0.002183
6.650000E-8	0.002237
6.655000E-8	0.002320
6.660000E-8	0.002402
6.665000E-8	0.002409
6.670000E-8	0.002303
6.675000E-8	0.002342
6.680000E-8	0.002202
6.685000E-8	0.002092
6.690000E-8	0.001966
6.695000E-8	0.001878
6.700000E-8	0.001811
6.705000E-8	0.001677
6.710000E-8	0.001555
6.715000E-8	0.001495
6.720000E-8	0.001475
6.725000E-8	0.001608
6.730000E-8	0.001664
6.735000E-8	0.001795
6.740000E-8	0.001863
6.745000E-8	0.001948
6.750000E-8	0.002047
6.755000E-8	0.002144
6.760000E-8	0.002109
6.765000E-8	0.002148
6.770000E-8	0.002084
6.775000E-8	0.001986
6.780000E-8	0.001919
6.785000E-8	0.001828
6.790000E-8	0.001806
6.795000E-8	0.001747
6.800000E-8	0.001559
6.805000E-8	0.001600
6.810000E-8	0.001558
6.815000E-8	0.001656
6.820000E-8	0.001652
6.825000E-8	0.001666
6.830000E-8	0.001755
6.835000E-8	0.001822
6.840000E-8	0.001992
6.845000E-8	0.002070
6.850000E-8	0.002177
6.855000E-8	0.002197
6.860000E-8	0.002270
6.865000E-8	0.002289
6.870000E-8	0.002292
6.875000E-8	0.002202
6.880000E-8	0.002102
6.885000E-8	0.002000
6.890000E-8	0.001888
6.895000E-8	0.001766
6.900000E-8	0.001756
6.905000E-8	0.001786
6.910000E-8	0.001847
6.915000E-8	0.002027
6.920000E-8	0.002113
6.925000E-8	0.002250
6.930000E-8	0.002427
6.935000E-8	0.002442
6.940000E-8	0.002441
6.945000E-8	0.002389
6.950000E-8	0.002236
6.955000E-8	0.002138
6.960000E-8	0.001961
6.965000E-8	0.001855
6.970000E-8	0.001697
6.975000E-8	0.001691
6.980000E-8	0.001623
6.985000E-8	0.001709
6.990000E-8	0.001831
6.995000E-8	0.001945
7.000000E-8	0.002100
7.005000E-8	0.002139
7.010000E-8	0.002230
7.015000E-8	0.002305
7.020000E-8	0.002233
7.025000E-8	0.002236
7.030000E-8	0.002227
7.035000E-8	0.002153
7.040000E-8	0.002128
7.045000E-8	0.002136
7.050000E-8	0.002019
7.055000E-8	0.001994
7.060000E-8	0.001945
7.065000E-8	0.001883
7.070000E-8	0.001942
7.075000E-8	0.001825
7.080000E-8	0.001777
7.085000E-8	0.001706
7.090000E-8	0.001638
7.095000E-8	0.001656
7.100000E-8	0.001639
7.105000E-8	0.001686
7.110000E-8	0.001766
7.115000E-8	0.001888
7.120000E-8	0.001941
7.125000E-8	0.002056
7.130000E-8	0.002073
7.135000E-8	0.002156
7.140000E-8	0.002100
7.145000E-8	0.002050
7.150000E-8	0.002055
7.155000E-8	0.002014
7.160000E-8	0.001886
7.165000E-8	0.001823
7.170000E-8	0.001702
7.175000E-8	0.001727
7.180000E-8	0.001625
7.185000E-8	0.001663
7.190000E-8	0.001681
7.195000E-8	0.001794
7.200000E-8	0.001814
7.205000E-8	0.001997
7.210000E-8	0.002113
7.215000E-8	0.002253
7.220000E-8	0.002361
7.225000E-8	0.002439
7.230000E-8	0.002530
7.235000E-8	0.002539
7.240000E-8	0.002531
7.245000E-8	0.002459
7.250000E-8	0.002377
7.255000E-8	0.002305
7.260000E-8	0.002087
7.265000E-8	0.002003
7.270000E-8	0.001813
7.275000E-8	0.001720
7.280000E-8	0.001591
7.285000E-8	0.001589
7.290000E-8	0.001577
7.295000E-8	0.001683
7.300000E-8	0.001703
7.305000E-8	0.001822
7.310000E-8	0.001853
7.315000E-8	0.001937
7.320000E-8	0.002047
7.325000E-8	0.002078
7.330000E-8	0.002097
7.335000E-8	0.002087
7.340000E-8	0.002031
7.345000E-8	0.002005
7.350000E-8	0.001895
7.355000E-8	0.001863
7.360000E-8	0.001786
7.365000E-8	0.001766
7.370000E-8	0.001742
7.375000E-8	0.001709
7.380000E-8	0.001717
7.385000E-8	0.001748
7.390000E-8	0.001733
7.395000E-8	0.001820
7.400000E-8	0.001875
7.405000E-8	0.001964
7.410000E-8	0.002036
7.415000E-8	0.002109
7.420000E-8	0.002100
7.425000E-8	0.002197
7.430000E-8	0.002150
7.435000E-8	0.002113
7.440000E-8	0.002028
7.445000E-8	0.001895
7.450000E-8	0.001748
7.455000E-8	0.001692
7.460000E-8	0.001703
7.465000E-8	0.001631
7.470000E-8	0.001658
7.475000E-8	0.001692
7.480000E-8	0.001778
7.485000E-8	0.001836
7.490000E-8	0.001908
7.495000E-8	0.001967
7.500000E-8	0.001948
7.505000E-8	0.002067
7.510000E-8	0.002083
7.515000E-8	0.002081
7.520000E-8	0.002078
7.525000E-8	0.002097
7.530000E-8	0.002033
7.535000E-8	0.001948
7.540000E-8	0.001839
7.545000E-8	0.001784
7.550000E-8	0.001711
7.555000E-8	0.001744
7.560000E-8	0.001670
7.565000E-8	0.001706
7.570000E-8	0.001697
7.575000E-8	0.001775
7.580000E-8	0.001802
7.585000E-8	0.001930
7.590000E-8	0.001972
7.595000E-8	0.002092
7.600000E-8	0.002114
7.605000E-8	0.002147
7.610000E-8	0.002147
7.615000E-8	0.002184
7.620000E-8	0.002078
7.625000E-8	0.002100
7.630000E-8	0.002044
7.635000E-8	0.002005
7.640000E-8	0.001945
7.645000E-8	0.001819
7.650000E-8	0.001687
7.655000E-8	0.001658
7.660000E-8	0.001611
7.665000E-8	0.001588
7.670000E-8	0.001555
7.675000E-8	0.001608
7.680000E-8	0.001659
7.685000E-8	0.001673
7.690000E-8	0.001727
7.695000E-8	0.001767
7.700000E-8	0.001808
7.705000E-8	0.001838
7.710000E-8	0.001842
7.715000E-8	0.001830
7.720000E-8	0.001869
7.725000E-8	0.001772
7.730000E-8	0.001730
7.735000E-8	0.001686
7.740000E-8	0.001622
7.745000E-8	0.001664
7.750000E-8	0.001700
7.755000E-8	0.001820
7.760000E-8	0.001895
7.765000E-8	0.001945
7.770000E-8	0.002067
7.775000E-8	0.002145
7.780000E-8	0.002092
7.785000E-8	0.002188
7.790000E-8	0.002233
7.795000E-8	0.002159
7.800000E-8	0.002159
7.805000E-8	0.002128
7.810000E-8	0.002086
7.815000E-8	0.002053
7.820000E-8	0.002041
7.825000E-8	0.002069
7.830000E-8	0.002092
7.835000E-8	0.002102
7.840000E-8	0.002116
7.845000E-8	0.002045
7.850000E-8	0.001969
7.855000E-8	0.001947
7.860000E-8	0.001950
7.865000E-8	0.001967
7.870000E-8	0.001975
7.875000E-8	0.002030
7.880000E-8	0.002016
7.885000E-8	0.002145
7.890000E-8	0.002248
7.895000E-8	0.002364
7.900000E-8	0.002408
7.905000E-8	0.002397
7.910000E-8	0.002392
7.915000E-8	0.002263
7.920000E-8	0.002111
7.925000E-8	0.002052
7.930000E-8	0.001838
7.935000E-8	0.001792
7.940000E-8	0.001659
7.945000E-8	0.001600
7.950000E-8	0.001648
7.955000E-8	0.001730
7.960000E-8	0.001769
7.965000E-8	0.001927
7.970000E-8	0.002019
7.975000E-8	0.002080
7.980000E-8	0.002117
7.985000E-8	0.002063
7.990000E-8	0.002063
7.995000E-8	0.001950
8.000000E-8	0.001845
8.005000E-8	0.001777
8.010000E-8	0.001703
8.015000E-8	0.001697
8.020000E-8	0.001581
8.025000E-8	0.001552
8.030000E-8	0.001602
8.035000E-8	0.001591
8.040000E-8	0.001644
8.045000E-8	0.001800
8.050000E-8	0.001823
8.055000E-8	0.001909
8.060000E-8	0.001867
8.065000E-8	0.001930
8.070000E-8	0.001866
8.075000E-8	0.001861
8.080000E-8	0.001873
8.085000E-8	0.001864
8.090000E-8	0.001784
8.095000E-8	0.001834
8.100000E-8	0.001884
8.105000E-8	0.001895
8.110000E-8	0.002008
8.115000E-8	0.002044
8.120000E-8	0.002059
8.125000E-8	0.002133
8.130000E-8	0.002108
8.135000E-8	0.002142
8.140000E-8	0.002134
8.145000E-8	0.002041
8.150000E-8	0.001980
8.155000E-8	0.002009
8.160000E-8	0.002027
8.165000E-8	0.002098
8.170000E-8	0.002025
8.175000E-8	0.002077
8.180000E-8	0.002145
8.185000E-8	0.002028
8.190000E-8	0.001970
8.195000E-8	0.001959
8.200000E-8	0.001803
8.205000E-8	0.001703
8.210000E-8	0.001653
8.215000E-8	0.001578
8.220000E-8	0.001539
8.225000E-8	0.001567
8.230000E-8	0.001597
8.235000E-8	0.001666
8.240000E-8	0.001756
8.245000E-8	0.001927
8.250000E-8	0.002014
8.255000E-8	0.002152
8.260000E-8	0.002230
8.265000E-8	0.002259
8.270000E-8	0.002323
8.275000E-8	0.002392
8.280000E-8	0.002295
8.285000E-8	0.002313
8.290000E-8	0.002253
8.295000E-8	0.002258
8.300000E-8	0.002241
8.305000E-8	0.002213
8.310000E-8	0.002198
8.315000E-8	0.002223
8.320000E-8	0.002166
8.325000E-8	0.002209
8.330000E-8	0.002202
8.335000E-8	0.002245
8.340000E-8	0.002286
8.345000E-8	0.002328
8.350000E-8	0.002300
8.355000E-8	0.002381
8.360000E-8	0.002289
8.365000E-8	0.002263
8.370000E-8	0.002153
8.375000E-8	0.002109
8.380000E-8	0.001970
8.385000E-8	0.001888
8.390000E-8	0.001795
8.395000E-8	0.001745
8.400000E-8	0.001723
8.405000E-8	0.001741
8.410000E-8	0.001798
8.415000E-8	0.001872
8.420000E-8	0.001911
8.425000E-8	0.001948
8.430000E-8	0.001958
8.435000E-8	0.002034
8.440000E-8	0.002022
8.445000E-8	0.002064
8.450000E-8	0.002042
8.455000E-8	0.002070
8.460000E-8	0.001997
8.465000E-8	0.001992
8.470000E-8	0.001923
8.475000E-8	0.001958
8.480000E-8	0.001988
8.485000E-8	0.001947
8.490000E-8	0.001894
8.495000E-8	0.001927
8.500000E-8	0.001958
8.505000E-8	0.001953
8.510000E-8	0.001852
8.515000E-8	0.001866
8.520000E-8	0.001839
8.525000E-8	0.001795
8.530000E-8	0.001867
8.535000E-8	0.001870
8.540000E-8	0.001898
8.545000E-8	0.001897
8.550000E-8	0.001958
8.555000E-8	0.002022
8.560000E-8	0.002006
8.565000E-8	0.001961
8.570000E-8	0.001945
8.575000E-8	0.001822
8.580000E-8	0.001742
8.585000E-8	0.001628
8.590000E-8	0.001533
8.595000E-8	0.001509
8.600000E-8	0.001448
8.605000E-8	0.001455
8.610000E-8	0.001519
8.615000E-8	0.001642
8.620000E-8	0.001775
8.625000E-8	0.001839
8.630000E-8	0.002008
8.635000E-8	0.002134
8.640000E-8	0.002219
8.645000E-8	0.002250
8.650000E-8	0.002234
8.655000E-8	0.002205
8.660000E-8	0.002105
8.665000E-8	0.001995
8.670000E-8	0.001866
8.675000E-8	0.001767
8.680000E-8	0.001608
8.685000E-8	0.001544
8.690000E-8	0.001483
8.695000E-8	0.001473
8.700000E-8	0.001486
8.705000E-8	0.001564
8.710000E-8	0.001606
8.715000E-8	0.001739
8.720000E-8	0.001867
8.725000E-8	0.001955
8.730000E-8	0.002006
8.735000E-8	0.002089
8.740000E-8	0.002058
8.745000E-8	0.002045
8.750000E-8	0.001909
8.755000E-8	0.001853
8.760000E-8	0.001806
8.765000E-8	0.001713
8.770000E-8	0.001686
8.775000E-8	0.001630
8.780000E-8	0.001659
8.785000E-8	0.001723
8.790000E-8	0.001758
8.795000E-8	0.001839
8.800000E-8	0.001891
8.805000E-8	0.001928
8.810000E-8	0.001945
8.815000E-8	0.001983
8.820000E-8	0.001947
8.825000E-8	0.001923
8.830000E-8	0.001967
8.835000E-8	0.001967
8.840000E-8	0.001958
8.845000E-8	0.001992
8.850000E-8	0.002077
8.855000E-8	0.002087
8.860000E-8	0.002084
8.865000E-8	0.002063
8.870000E-8	0.002058
8.875000E-8	0.002102
8.880000E-8	0.002039
8.885000E-8	0.002059
8.890000E-8	0.002045
8.895000E-8	0.002098
8.900000E-8	0.002155
8.905000E-8	0.002177
8.910000E-8	0.002192
8.915000E-8	0.002188
8.920000E-8	0.002194
8.925000E-8	0.002150
8.930000E-8	0.002022
8.935000E-8	0.002058
8.940000E-8	0.002033
8.945000E-8	0.001937
8.950000E-8	0.001884
8.955000E-8	0.001844
8.960000E-8	0.001780
8.965000E-8	0.001766
8.970000E-8	0.001816
8.975000E-8	0.001852
8.980000E-8	0.001961
8.985000E-8	0.002075
8.990000E-8	0.002139
8.995000E-8	0.002264
9.000000E-8	0.002217
9.005000E-8	0.002255
9.010000E-8	0.002097
9.015000E-8	0.002041
9.020000E-8	0.001989
9.025000E-8	0.001934
9.030000E-8	0.001916
9.035000E-8	0.001892
9.040000E-8	0.001869
9.045000E-8	0.001863
9.050000E-8	0.001870
9.055000E-8	0.001920
9.060000E-8	0.001991
9.065000E-8	0.001964
9.070000E-8	0.002019
9.075000E-8	0.002006
9.080000E-8	0.002038
9.085000E-8	0.002047
9.090000E-8	0.001973
9.095000E-8	0.001934
9.100000E-8	0.001953
9.105000E-8	0.001877
9.110000E-8	0.001897
9.115000E-8	0.001845
9.120000E-8	0.001863
9.125000E-8	0.001811
9.130000E-8	0.001809
9.135000E-8	0.001747
9.140000E-8	0.001738
9.145000E-8	0.001734
9.150000E-8	0.001750
9.155000E-8	0.001758
9.160000E-8	0.001783
9.165000E-8	0.001827
9.170000E-8	0.001909
9.175000E-8	0.001992
9.180000E-8	0.001995
9.185000E-8	0.002094
9.190000E-8	0.002073
9.195000E-8	0.002108
9.200000E-8	0.002053
9.205000E-8	0.002061
9.210000E-8	0.001975
9.215000E-8	0.001889
9.220000E-8	0.001991
9.225000E-8	0.001919
9.230000E-8	0.001919
9.235000E-8	0.001898
9.240000E-8	0.001945
9.245000E-8	0.001908
9.250000E-8	0.001917
9.255000E-8	0.001950
9.260000E-8	0.001872
9.265000E-8	0.001878
9.270000E-8	0.001873
9.275000E-8	0.001922
9.280000E-8	0.001944
9.285000E-8	0.002044
9.290000E-8	0.002095
9.295000E-8	0.002122
9.300000E-8	0.002059
9.305000E-8	0.002089
9.310000E-8	0.002058
9.315000E-8	0.002016
9.320000E-8	0.001950
9.325000E-8	0.001914
9.330000E-8	0.001814
9.335000E-8	0.001791
9.340000E-8	0.001761
9.345000E-8	0.001723
9.350000E-8	0.001692
9.355000E-8	0.001680
9.360000E-8	0.001655
9.365000E-8	0.001689
9.370000E-8	0.001639
9.375000E-8	0.001619
9.380000E-8	0.001652
9.385000E-8	0.001692
9.390000E-8	0.001723
9.395000E-8	0.001788
9.400000E-8	0.001753
9.405000E-8	0.001739
9.410000E-8	0.001717
9.415000E-8	0.001689
9.420000E-8	0.001642
9.425000E-8	0.001584
9.430000E-8	0.001553
9.435000E-8	0.001588
9.440000E-8	0.001592
9.445000E-8	0.001722
9.450000E-8	0.001708
9.455000E-8	0.001855
9.460000E-8	0.001883
9.465000E-8	0.002003
9.470000E-8	0.002009
9.475000E-8	0.001988
9.480000E-8	0.001964
9.485000E-8	0.001873
9.490000E-8	0.001834
9.495000E-8	0.001808
9.500000E-8	0.001695
9.505000E-8	0.001706
9.510000E-8	0.001608
9.515000E-8	0.001559
9.520000E-8	0.001614
9.525000E-8	0.001677
9.530000E-8	0.001739
9.535000E-8	0.001814
9.540000E-8	0.001888
9.545000E-8	0.001933
9.550000E-8	0.001977
9.555000E-8	0.001988
9.560000E-8	0.001894
9.565000E-8	0.001911
9.570000E-8	0.001863
9.575000E-8	0.001866
9.580000E-8	0.001828
9.585000E-8	0.001825
9.590000E-8	0.001769
9.595000E-8	0.001784
9.600000E-8	0.001772
9.605000E-8	0.001764
9.610000E-8	0.001719
9.615000E-8	0.001772
9.620000E-8	0.001800
9.625000E-8	0.001855
9.630000E-8	0.001884
9.635000E-8	0.001906
9.640000E-8	0.001937
9.645000E-8	0.001984
9.650000E-8	0.002008
9.655000E-8	0.002014
9.660000E-8	0.001973
9.665000E-8	0.002016
9.670000E-8	0.002073
9.675000E-8	0.002114
9.680000E-8	0.002167
9.685000E-8	0.002155
9.690000E-8	0.002170
9.695000E-8	0.002234
9.700000E-8	0.002255
9.705000E-8	0.002259
9.710000E-8	0.002339
9.715000E-8	0.002419
9.720000E-8	0.002447
9.725000E-8	0.002427
9.730000E-8	0.002366
9.735000E-8	0.002355
9.740000E-8	0.002220
9.745000E-8	0.002153
9.750000E-8	0.002113
9.755000E-8	0.002044
9.760000E-8	0.001855
9.765000E-8	0.001742
9.770000E-8	0.001670
9.775000E-8	0.001563
9.780000E-8	0.001550
9.785000E-8	0.001541
9.790000E-8	0.001566
9.795000E-8	0.001509
9.800000E-8	0.001603
9.805000E-8	0.001623
9.810000E-8	0.001653
9.815000E-8	0.001763
9.820000E-8	0.001697
9.825000E-8	0.001788
9.830000E-8	0.001808
9.835000E-8	0.001867
9.840000E-8	0.001931
9.845000E-8	0.001917
9.850000E-8	0.001872
9.855000E-8	0.001923
9.860000E-8	0.001850
9.865000E-8	0.001828
9.870000E-8	0.001758
9.875000E-8	0.001708
9.880000E-8	0.001684
9.885000E-8	0.001636
9.890000E-8	0.001655
9.895000E-8	0.001708
9.900000E-8	0.001783
9.905000E-8	0.001813
9.910000E-8	0.001977
9.915000E-8	0.001986
9.920000E-8	0.002078
9.925000E-8	0.002111
9.930000E-8	0.002141
9.935000E-8	0.002134
9.940000E-8	0.002123
9.945000E-8	0.002059
9.950000E-8	0.002075
9.955000E-8	0.002023
9.960000E-8	0.001973
9.965000E-8	0.001988
9.970000E-8	0.001989
9.975000E-8	0.001984
9.980000E-8	0.001966
9.985000E-8	0.002025
9.990000E-8	0.001945
9.995000E-8	0.002025
