LabVIEW Measurement	
Writer_Version	2
Reader_Version	2
Separator	Tab
Decimal_Separator	.
Multi_Headings	No
X_Columns	Multi
Time_Pref	Relative
Operator	TG lab
Date	2015/03/07
Time	10:49:24.3578438758850097656
***End_of_Header***	
	
Channels	1	
Samples	2000	
Date	2015/03/07	
Time	10:49:24.3578438758850097656	
X_Dimension	Time	
X0	0.0000000000000000E+0	
Delta_X	5.000000E-11	
***End_of_Header***		
X_Value	Untitled	Comment
0.000000	0.001627
5.000000E-11	0.001594
1.000000E-10	0.001508
1.500000E-10	0.001513
2.000000E-10	0.001456
2.500000E-10	0.001458
3.000000E-10	0.001437
3.500000E-10	0.001477
4.000000E-10	0.001447
4.500000E-10	0.001469
5.000000E-10	0.001459
5.500000E-10	0.001483
6.000000E-10	0.001445
6.500000E-10	0.001377
7.000000E-10	0.001350
7.500000E-10	0.001336
8.000000E-10	0.001291
8.500000E-10	0.001355
9.000000E-10	0.001267
9.500000E-10	0.001328
1.000000E-9	0.001281
1.050000E-9	0.001200
1.100000E-9	0.001225
1.150000E-9	0.001170
1.200000E-9	0.001197
1.250000E-9	0.001217
1.300000E-9	0.001236
1.350000E-9	0.001264
1.400000E-9	0.001330
1.450000E-9	0.001419
1.500000E-9	0.001447
1.550000E-9	0.001472
1.600000E-9	0.001559
1.650000E-9	0.001536
1.700000E-9	0.001564
1.750000E-9	0.001489
1.800000E-9	0.001455
1.850000E-9	0.001427
1.900000E-9	0.001372
1.950000E-9	0.001395
2.000000E-9	0.001397
2.050000E-9	0.001361
2.100000E-9	0.001336
2.150000E-9	0.001339
2.200000E-9	0.001216
2.250000E-9	0.001250
2.300000E-9	0.001122
2.350000E-9	0.001088
2.400000E-9	0.001067
2.450000E-9	0.001048
2.500000E-9	0.001061
2.550000E-9	0.001064
2.600000E-9	0.001070
2.650000E-9	0.001198
2.700000E-9	0.001316
2.750000E-9	0.001359
2.800000E-9	0.001342
2.850000E-9	0.001433
2.900000E-9	0.001342
2.950000E-9	0.001345
3.000000E-9	0.001295
3.050000E-9	0.001159
3.100000E-9	0.001047
3.150000E-9	0.000967
3.200000E-9	0.000952
3.250000E-9	0.000902
3.300000E-9	0.000797
3.350000E-9	0.000847
3.400000E-9	0.000811
3.450000E-9	0.000898
3.500000E-9	0.000911
3.550000E-9	0.000963
3.600000E-9	0.000956
3.650000E-9	0.000995
3.700000E-9	0.001025
3.750000E-9	0.000952
3.800000E-9	0.000920
3.850000E-9	0.000931
3.900000E-9	0.000895
3.950000E-9	0.000844
4.000000E-9	0.000880
4.050000E-9	0.000959
4.100000E-9	0.001056
4.150000E-9	0.001152
4.200000E-9	0.001238
4.250000E-9	0.001311
4.300000E-9	0.001333
4.350000E-9	0.001416
4.400000E-9	0.001395
4.450000E-9	0.001361
4.500000E-9	0.001291
4.550000E-9	0.001219
4.600000E-9	0.001183
4.650000E-9	0.001042
4.700000E-9	0.000852
4.750000E-9	0.000602
4.800000E-9	0.000141
4.850000E-9	-0.000459
4.900000E-9	-0.001294
4.950000E-9	-0.002377
5.000000E-9	-0.003691
5.050000E-9	-0.005266
5.100000E-9	-0.007095
5.150000E-9	-0.009072
5.200000E-9	-0.011166
5.250000E-9	-0.013217
5.300000E-9	-0.015150
5.350000E-9	-0.016856
5.400000E-9	-0.018270
5.450000E-9	-0.019339
5.500000E-9	-0.019977
5.550000E-9	-0.020145
5.600000E-9	-0.019919
5.650000E-9	-0.019209
5.700000E-9	-0.018208
5.750000E-9	-0.016923
5.800000E-9	-0.015569
5.850000E-9	-0.014195
5.900000E-9	-0.012908
5.950000E-9	-0.011689
6.000000E-9	-0.010866
6.050000E-9	-0.010281
6.100000E-9	-0.010125
6.150000E-9	-0.010197
6.200000E-9	-0.010566
6.250000E-9	-0.011048
6.300000E-9	-0.011641
6.350000E-9	-0.012189
6.400000E-9	-0.012563
6.450000E-9	-0.012702
6.500000E-9	-0.012670
6.550000E-9	-0.012241
6.600000E-9	-0.011620
6.650000E-9	-0.010645
6.700000E-9	-0.009589
6.750000E-9	-0.008397
6.800000E-9	-0.007233
6.850000E-9	-0.006237
6.900000E-9	-0.005339
6.950000E-9	-0.004706
7.000000E-9	-0.004339
7.050000E-9	-0.004302
7.100000E-9	-0.004533
7.150000E-9	-0.004930
7.200000E-9	-0.005525
7.250000E-9	-0.006172
7.300000E-9	-0.006803
7.350000E-9	-0.007158
7.400000E-9	-0.007494
7.450000E-9	-0.007525
7.500000E-9	-0.007269
7.550000E-9	-0.006717
7.600000E-9	-0.006002
7.650000E-9	-0.005075
7.700000E-9	-0.004116
7.750000E-9	-0.003159
7.800000E-9	-0.002233
7.850000E-9	-0.001525
7.900000E-9	-0.001077
7.950000E-9	-0.000842
8.000000E-9	-0.000909
8.050000E-9	-0.001281
8.100000E-9	-0.001769
8.150000E-9	-0.002436
8.200000E-9	-0.003134
8.250000E-9	-0.003741
8.300000E-9	-0.004231
8.350000E-9	-0.004488
8.400000E-9	-0.004542
8.450000E-9	-0.004267
8.500000E-9	-0.003750
8.550000E-9	-0.002930
8.600000E-9	-0.002028
8.650000E-9	-0.001002
8.700000E-9	-7.656250E-5
8.750000E-9	0.000691
8.800000E-9	0.001170
8.850000E-9	0.001431
8.900000E-9	0.001367
8.950000E-9	0.001034
9.000000E-9	0.000361
9.050000E-9	-0.000408
9.100000E-9	-0.001264
9.150000E-9	-0.002091
9.200000E-9	-0.002853
9.250000E-9	-0.003355
9.300000E-9	-0.003638
9.350000E-9	-0.003575
9.400000E-9	-0.003278
9.450000E-9	-0.002684
9.500000E-9	-0.001948
9.550000E-9	-0.001048
9.600000E-9	-0.000186
9.650000E-9	0.000634
9.700000E-9	0.001272
9.750000E-9	0.001764
9.800000E-9	0.001892
9.850000E-9	0.001781
9.900000E-9	0.001437
9.950000E-9	0.000892
1.000000E-8	0.000206
1.005000E-8	-0.000541
1.010000E-8	-0.001283
1.015000E-8	-0.001820
1.020000E-8	-0.002331
1.025000E-8	-0.002478
1.030000E-8	-0.002419
1.035000E-8	-0.002069
1.040000E-8	-0.001517
1.045000E-8	-0.000784
1.050000E-8	0.000122
1.055000E-8	0.001023
1.060000E-8	0.001814
1.065000E-8	0.002422
1.070000E-8	0.002817
1.075000E-8	0.002947
1.080000E-8	0.002647
1.085000E-8	0.002181
1.090000E-8	0.001473
1.095000E-8	0.000666
1.100000E-8	-0.000209
1.105000E-8	-0.001025
1.110000E-8	-0.001659
1.115000E-8	-0.001977
1.120000E-8	-0.002069
1.125000E-8	-0.001805
1.130000E-8	-0.001291
1.135000E-8	-0.000558
1.140000E-8	0.000309
1.145000E-8	0.001194
1.150000E-8	0.002047
1.155000E-8	0.002670
1.160000E-8	0.003053
1.165000E-8	0.003275
1.170000E-8	0.003138
1.175000E-8	0.002772
1.180000E-8	0.002175
1.185000E-8	0.001398
1.190000E-8	0.000583
1.195000E-8	-0.000250
1.200000E-8	-0.000938
1.205000E-8	-0.001477
1.210000E-8	-0.001738
1.215000E-8	-0.001709
1.220000E-8	-0.001420
1.225000E-8	-0.000895
1.230000E-8	-0.000194
1.235000E-8	0.000638
1.240000E-8	0.001489
1.245000E-8	0.002203
1.250000E-8	0.002822
1.255000E-8	0.003111
1.260000E-8	0.003280
1.265000E-8	0.003091
1.270000E-8	0.002695
1.275000E-8	0.002041
1.280000E-8	0.001244
1.285000E-8	0.000489
1.290000E-8	-0.000272
1.295000E-8	-0.000784
1.300000E-8	-0.001239
1.305000E-8	-0.001305
1.310000E-8	-0.001163
1.315000E-8	-0.000758
1.320000E-8	-0.000163
1.325000E-8	0.000705
1.330000E-8	0.001452
1.335000E-8	0.002266
1.340000E-8	0.002894
1.345000E-8	0.003423
1.350000E-8	0.003630
1.355000E-8	0.003634
1.360000E-8	0.003381
1.365000E-8	0.002895
1.370000E-8	0.002198
1.375000E-8	0.001441
1.380000E-8	0.000650
1.385000E-8	2.343750E-5
1.390000E-8	-0.000455
1.395000E-8	-0.000716
1.400000E-8	-0.000775
1.405000E-8	-0.000542
1.410000E-8	-0.000136
1.415000E-8	0.000441
1.420000E-8	0.001100
1.425000E-8	0.001777
1.430000E-8	0.002463
1.435000E-8	0.002947
1.440000E-8	0.003233
1.445000E-8	0.003233
1.450000E-8	0.003066
1.455000E-8	0.002714
1.460000E-8	0.002117
1.465000E-8	0.001450
1.470000E-8	0.000642
1.475000E-8	-1.718750E-5
1.480000E-8	-0.000638
1.485000E-8	-0.001131
1.490000E-8	-0.001306
1.495000E-8	-0.001320
1.500000E-8	-0.000945
1.505000E-8	-0.000483
1.510000E-8	0.000114
1.515000E-8	0.000925
1.520000E-8	0.001764
1.525000E-8	0.002441
1.530000E-8	0.002942
1.535000E-8	0.003272
1.540000E-8	0.003325
1.545000E-8	0.003178
1.550000E-8	0.002697
1.555000E-8	0.002103
1.560000E-8	0.001356
1.565000E-8	0.000647
1.570000E-8	-9.843750E-5
1.575000E-8	-0.000617
1.580000E-8	-0.000981
1.585000E-8	-0.001019
1.590000E-8	-0.000902
1.595000E-8	-0.000537
1.600000E-8	6.875000E-5
1.605000E-8	0.000750
1.610000E-8	0.001417
1.615000E-8	0.002108
1.620000E-8	0.002602
1.625000E-8	0.002986
1.630000E-8	0.003147
1.635000E-8	0.003117
1.640000E-8	0.002805
1.645000E-8	0.002400
1.650000E-8	0.001828
1.655000E-8	0.001184
1.660000E-8	0.000623
1.665000E-8	8.281250E-5
1.670000E-8	-0.000258
1.675000E-8	-0.000483
1.680000E-8	-0.000503
1.685000E-8	-0.000338
1.690000E-8	-2.031250E-5
1.695000E-8	0.000522
1.700000E-8	0.001128
1.705000E-8	0.001789
1.710000E-8	0.002389
1.715000E-8	0.002844
1.720000E-8	0.003223
1.725000E-8	0.003355
1.730000E-8	0.003231
1.735000E-8	0.002956
1.740000E-8	0.002470
1.745000E-8	0.001861
1.750000E-8	0.001114
1.755000E-8	0.000414
1.760000E-8	-0.000159
1.765000E-8	-0.000517
1.770000E-8	-0.000794
1.775000E-8	-0.000742
1.780000E-8	-0.000442
1.785000E-8	-7.031250E-5
1.790000E-8	0.000508
1.795000E-8	0.001208
1.800000E-8	0.001878
1.805000E-8	0.002423
1.810000E-8	0.002881
1.815000E-8	0.003102
1.820000E-8	0.003111
1.825000E-8	0.002889
1.830000E-8	0.002531
1.835000E-8	0.002022
1.840000E-8	0.001417
1.845000E-8	0.000817
1.850000E-8	0.000267
1.855000E-8	-0.000164
1.860000E-8	-0.000417
1.865000E-8	-0.000469
1.870000E-8	-0.000402
1.875000E-8	-0.000181
1.880000E-8	0.000237
1.885000E-8	0.000742
1.890000E-8	0.001339
1.895000E-8	0.002005
1.900000E-8	0.002486
1.905000E-8	0.002911
1.910000E-8	0.003169
1.915000E-8	0.003206
1.920000E-8	0.002950
1.925000E-8	0.002620
1.930000E-8	0.002166
1.935000E-8	0.001494
1.940000E-8	0.000895
1.945000E-8	0.000325
1.950000E-8	-0.000150
1.955000E-8	-0.000422
1.960000E-8	-0.000463
1.965000E-8	-0.000306
1.970000E-8	6.562500E-5
1.975000E-8	0.000559
1.980000E-8	0.001095
1.985000E-8	0.001697
1.990000E-8	0.002313
1.995000E-8	0.002778
2.000000E-8	0.003086
2.005000E-8	0.003181
2.010000E-8	0.003086
2.015000E-8	0.002938
2.020000E-8	0.002469
2.025000E-8	0.001914
2.030000E-8	0.001356
2.035000E-8	0.000767
2.040000E-8	0.000248
2.045000E-8	-0.000145
2.050000E-8	-0.000320
2.055000E-8	-0.000361
2.060000E-8	-0.000233
2.065000E-8	0.000147
2.070000E-8	0.000594
2.075000E-8	0.001094
2.080000E-8	0.001647
2.085000E-8	0.002069
2.090000E-8	0.002477
2.095000E-8	0.002703
2.100000E-8	0.002709
2.105000E-8	0.002586
2.110000E-8	0.002319
2.115000E-8	0.001973
2.120000E-8	0.001492
2.125000E-8	0.001000
2.130000E-8	0.000588
2.135000E-8	0.000292
2.140000E-8	-7.812500E-6
2.145000E-8	-9.531250E-5
2.150000E-8	3.750000E-5
2.155000E-8	0.000309
2.160000E-8	0.000656
2.165000E-8	0.001088
2.170000E-8	0.001550
2.175000E-8	0.002017
2.180000E-8	0.002361
2.185000E-8	0.002788
2.190000E-8	0.002967
2.195000E-8	0.002978
2.200000E-8	0.002922
2.205000E-8	0.002669
2.210000E-8	0.002358
2.215000E-8	0.001956
2.220000E-8	0.001447
2.225000E-8	0.001014
2.230000E-8	0.000577
2.235000E-8	0.000202
2.240000E-8	7.656250E-5
2.245000E-8	0.000105
2.250000E-8	0.000269
2.255000E-8	0.000680
2.260000E-8	0.001077
2.265000E-8	0.001755
2.270000E-8	0.002289
2.275000E-8	0.002744
2.280000E-8	0.003116
2.285000E-8	0.003302
2.290000E-8	0.003291
2.295000E-8	0.003103
2.300000E-8	0.002702
2.305000E-8	0.002205
2.310000E-8	0.001725
2.315000E-8	0.001144
2.320000E-8	0.000680
2.325000E-8	0.000347
2.330000E-8	0.000267
2.335000E-8	0.000294
2.340000E-8	0.000470
2.345000E-8	0.000852
2.350000E-8	0.001192
2.355000E-8	0.001700
2.360000E-8	0.002216
2.365000E-8	0.002616
2.370000E-8	0.002863
2.375000E-8	0.003014
2.380000E-8	0.003003
2.385000E-8	0.002877
2.390000E-8	0.002544
2.395000E-8	0.002156
2.400000E-8	0.001630
2.405000E-8	0.001145
2.410000E-8	0.000644
2.415000E-8	0.000345
2.420000E-8	7.656250E-5
2.425000E-8	4.062500E-5
2.430000E-8	0.000148
2.435000E-8	0.000373
2.440000E-8	0.000775
2.445000E-8	0.001317
2.450000E-8	0.001794
2.455000E-8	0.002164
2.460000E-8	0.002534
2.465000E-8	0.002745
2.470000E-8	0.002808
2.475000E-8	0.002725
2.480000E-8	0.002442
2.485000E-8	0.002119
2.490000E-8	0.001755
2.495000E-8	0.001327
2.500000E-8	0.000898
2.505000E-8	0.000548
2.510000E-8	0.000314
2.515000E-8	0.000173
2.520000E-8	0.000173
2.525000E-8	0.000273
2.530000E-8	0.000573
2.535000E-8	0.000889
2.540000E-8	0.001217
2.545000E-8	0.001609
2.550000E-8	0.001981
2.555000E-8	0.002342
2.560000E-8	0.002616
2.565000E-8	0.002739
2.570000E-8	0.002675
2.575000E-8	0.002602
2.580000E-8	0.002353
2.585000E-8	0.002012
2.590000E-8	0.001602
2.595000E-8	0.001256
2.600000E-8	0.000811
2.605000E-8	0.000461
2.610000E-8	0.000236
2.615000E-8	0.000208
2.620000E-8	0.000266
2.625000E-8	0.000545
2.630000E-8	0.000895
2.635000E-8	0.001309
2.640000E-8	0.001798
2.645000E-8	0.002227
2.650000E-8	0.002561
2.655000E-8	0.002841
2.660000E-8	0.002886
2.665000E-8	0.002889
2.670000E-8	0.002761
2.675000E-8	0.002434
2.680000E-8	0.002025
2.685000E-8	0.001648
2.690000E-8	0.001233
2.695000E-8	0.000892
2.700000E-8	0.000656
2.705000E-8	0.000534
2.710000E-8	0.000509
2.715000E-8	0.000697
2.720000E-8	0.000873
2.725000E-8	0.001189
2.730000E-8	0.001586
2.735000E-8	0.001972
2.740000E-8	0.002319
2.745000E-8	0.002655
2.750000E-8	0.002766
2.755000E-8	0.002841
2.760000E-8	0.002744
2.765000E-8	0.002548
2.770000E-8	0.002272
2.775000E-8	0.001894
2.780000E-8	0.001388
2.785000E-8	0.001009
2.790000E-8	0.000691
2.795000E-8	0.000427
2.800000E-8	0.000203
2.805000E-8	0.000203
2.810000E-8	0.000216
2.815000E-8	0.000564
2.820000E-8	0.000955
2.825000E-8	0.001439
2.830000E-8	0.001839
2.835000E-8	0.002286
2.840000E-8	0.002577
2.845000E-8	0.002736
2.850000E-8	0.002730
2.855000E-8	0.002577
2.860000E-8	0.002391
2.865000E-8	0.001986
2.870000E-8	0.001561
2.875000E-8	0.001134
2.880000E-8	0.000659
2.885000E-8	0.000453
2.890000E-8	0.000275
2.895000E-8	0.000336
2.900000E-8	0.000509
2.905000E-8	0.000734
2.910000E-8	0.001094
2.915000E-8	0.001439
2.920000E-8	0.001819
2.925000E-8	0.002200
2.930000E-8	0.002397
2.935000E-8	0.002541
2.940000E-8	0.002614
2.945000E-8	0.002502
2.950000E-8	0.002323
2.955000E-8	0.002016
2.960000E-8	0.001753
2.965000E-8	0.001392
2.970000E-8	0.001089
2.975000E-8	0.000773
2.980000E-8	0.000475
2.985000E-8	0.000325
2.990000E-8	0.000309
2.995000E-8	0.000428
3.000000E-8	0.000620
3.005000E-8	0.000919
3.010000E-8	0.001292
3.015000E-8	0.001689
3.020000E-8	0.002017
3.025000E-8	0.002405
3.030000E-8	0.002553
3.035000E-8	0.002697
3.040000E-8	0.002647
3.045000E-8	0.002506
3.050000E-8	0.002155
3.055000E-8	0.001805
3.060000E-8	0.001441
3.065000E-8	0.001023
3.070000E-8	0.000664
3.075000E-8	0.000483
3.080000E-8	0.000428
3.085000E-8	0.000508
3.090000E-8	0.000681
3.095000E-8	0.000938
3.100000E-8	0.001342
3.105000E-8	0.001723
3.110000E-8	0.002070
3.115000E-8	0.002414
3.120000E-8	0.002666
3.125000E-8	0.002861
3.130000E-8	0.002806
3.135000E-8	0.002752
3.140000E-8	0.002536
3.145000E-8	0.002202
3.150000E-8	0.001875
3.155000E-8	0.001561
3.160000E-8	0.001203
3.165000E-8	0.000925
3.170000E-8	0.000736
3.175000E-8	0.000669
3.180000E-8	0.000733
3.185000E-8	0.000945
3.190000E-8	0.001092
3.195000E-8	0.001406
3.200000E-8	0.001709
3.205000E-8	0.002012
3.210000E-8	0.002223
3.215000E-8	0.002364
3.220000E-8	0.002383
3.225000E-8	0.002313
3.230000E-8	0.002113
3.235000E-8	0.001947
3.240000E-8	0.001617
3.245000E-8	0.001231
3.250000E-8	0.000988
3.255000E-8	0.000697
3.260000E-8	0.000525
3.265000E-8	0.000434
3.270000E-8	0.000372
3.275000E-8	0.000552
3.280000E-8	0.000766
3.285000E-8	0.000959
3.290000E-8	0.001284
3.295000E-8	0.001608
3.300000E-8	0.001859
3.305000E-8	0.002064
3.310000E-8	0.002113
3.315000E-8	0.002125
3.320000E-8	0.002063
3.325000E-8	0.001909
3.330000E-8	0.001711
3.335000E-8	0.001542
3.340000E-8	0.001300
3.345000E-8	0.001094
3.350000E-8	0.000995
3.355000E-8	0.000847
3.360000E-8	0.000866
3.365000E-8	0.000950
3.370000E-8	0.001063
3.375000E-8	0.001258
3.380000E-8	0.001513
3.385000E-8	0.001705
3.390000E-8	0.001942
3.395000E-8	0.002114
3.400000E-8	0.002225
3.405000E-8	0.002339
3.410000E-8	0.002266
3.415000E-8	0.002220
3.420000E-8	0.001972
3.425000E-8	0.001792
3.430000E-8	0.001528
3.435000E-8	0.001225
3.440000E-8	0.000945
3.445000E-8	0.000781
3.450000E-8	0.000627
3.455000E-8	0.000567
3.460000E-8	0.000552
3.465000E-8	0.000722
3.470000E-8	0.000892
3.475000E-8	0.001166
3.480000E-8	0.001505
3.485000E-8	0.001873
3.490000E-8	0.002145
3.495000E-8	0.002378
3.500000E-8	0.002541
3.505000E-8	0.002666
3.510000E-8	0.002553
3.515000E-8	0.002414
3.520000E-8	0.002144
3.525000E-8	0.001922
3.530000E-8	0.001509
3.535000E-8	0.001222
3.540000E-8	0.000977
3.545000E-8	0.000819
3.550000E-8	0.000725
3.555000E-8	0.000811
3.560000E-8	0.000909
3.565000E-8	0.001139
3.570000E-8	0.001445
3.575000E-8	0.001744
3.580000E-8	0.002008
3.585000E-8	0.002300
3.590000E-8	0.002427
3.595000E-8	0.002502
3.600000E-8	0.002436
3.605000E-8	0.002295
3.610000E-8	0.002059
3.615000E-8	0.001811
3.620000E-8	0.001511
3.625000E-8	0.001213
3.630000E-8	0.000928
3.635000E-8	0.000811
3.640000E-8	0.000667
3.645000E-8	0.000602
3.650000E-8	0.000733
3.655000E-8	0.000916
3.660000E-8	0.001086
3.665000E-8	0.001359
3.670000E-8	0.001630
3.675000E-8	0.001888
3.680000E-8	0.002036
3.685000E-8	0.002155
3.690000E-8	0.002172
3.695000E-8	0.002114
3.700000E-8	0.001964
3.705000E-8	0.001730
3.710000E-8	0.001455
3.715000E-8	0.001261
3.720000E-8	0.001011
3.725000E-8	0.000800
3.730000E-8	0.000728
3.735000E-8	0.000753
3.740000E-8	0.000872
3.745000E-8	0.001059
3.750000E-8	0.001306
3.755000E-8	0.001625
3.760000E-8	0.001978
3.765000E-8	0.002294
3.770000E-8	0.002478
3.775000E-8	0.002622
3.780000E-8	0.002662
3.785000E-8	0.002567
3.790000E-8	0.002450
3.795000E-8	0.002245
3.800000E-8	0.001892
3.805000E-8	0.001639
3.810000E-8	0.001328
3.815000E-8	0.001052
3.820000E-8	0.000803
3.825000E-8	0.000742
3.830000E-8	0.000672
3.835000E-8	0.000678
3.840000E-8	0.000847
3.845000E-8	0.001000
3.850000E-8	0.001245
3.855000E-8	0.001483
3.860000E-8	0.001664
3.865000E-8	0.001903
3.870000E-8	0.002070
3.875000E-8	0.002091
3.880000E-8	0.002097
3.885000E-8	0.002020
3.890000E-8	0.001805
3.895000E-8	0.001584
3.900000E-8	0.001348
3.905000E-8	0.001141
3.910000E-8	0.000891
3.915000E-8	0.000745
3.920000E-8	0.000714
3.925000E-8	0.000711
3.930000E-8	0.000803
3.935000E-8	0.000952
3.940000E-8	0.001161
3.945000E-8	0.001389
3.950000E-8	0.001559
3.955000E-8	0.001753
3.960000E-8	0.001902
3.965000E-8	0.002003
3.970000E-8	0.001889
3.975000E-8	0.001845
3.980000E-8	0.001758
3.985000E-8	0.001541
3.990000E-8	0.001311
3.995000E-8	0.001078
4.000000E-8	0.000866
4.005000E-8	0.000808
4.010000E-8	0.000741
4.015000E-8	0.000727
4.020000E-8	0.000744
4.025000E-8	0.000936
4.030000E-8	0.001213
4.035000E-8	0.001464
4.040000E-8	0.001689
4.045000E-8	0.001953
4.050000E-8	0.002202
4.055000E-8	0.002297
4.060000E-8	0.002348
4.065000E-8	0.002366
4.070000E-8	0.002205
4.075000E-8	0.002039
4.080000E-8	0.001766
4.085000E-8	0.001445
4.090000E-8	0.001133
4.095000E-8	0.000967
4.100000E-8	0.000755
4.105000E-8	0.000683
4.110000E-8	0.000656
4.115000E-8	0.000767
4.120000E-8	0.000955
4.125000E-8	0.001152
4.130000E-8	0.001389
4.135000E-8	0.001627
4.140000E-8	0.001858
4.145000E-8	0.002072
4.150000E-8	0.002153
4.155000E-8	0.002281
4.160000E-8	0.002175
4.165000E-8	0.002028
4.170000E-8	0.001741
4.175000E-8	0.001577
4.180000E-8	0.001328
4.185000E-8	0.001109
4.190000E-8	0.000877
4.195000E-8	0.000761
4.200000E-8	0.000686
4.205000E-8	0.000742
4.210000E-8	0.000825
4.215000E-8	0.001012
4.220000E-8	0.001231
4.225000E-8	0.001506
4.230000E-8	0.001725
4.235000E-8	0.001905
4.240000E-8	0.002058
4.245000E-8	0.002156
4.250000E-8	0.002064
4.255000E-8	0.002005
4.260000E-8	0.001775
4.265000E-8	0.001625
4.270000E-8	0.001344
4.275000E-8	0.001117
4.280000E-8	0.000973
4.285000E-8	0.000791
4.290000E-8	0.000695
4.295000E-8	0.000644
4.300000E-8	0.000692
4.305000E-8	0.000856
4.310000E-8	0.001012
4.315000E-8	0.001252
4.320000E-8	0.001420
4.325000E-8	0.001700
4.330000E-8	0.001881
4.335000E-8	0.001966
4.340000E-8	0.002045
4.345000E-8	0.002114
4.350000E-8	0.002036
4.355000E-8	0.001961
4.360000E-8	0.001763
4.365000E-8	0.001603
4.370000E-8	0.001417
4.375000E-8	0.001225
4.380000E-8	0.001045
4.385000E-8	0.000923
4.390000E-8	0.000823
4.395000E-8	0.000814
4.400000E-8	0.000866
4.405000E-8	0.001028
4.410000E-8	0.001191
4.415000E-8	0.001344
4.420000E-8	0.001566
4.425000E-8	0.001780
4.430000E-8	0.001869
4.435000E-8	0.001977
4.440000E-8	0.001947
4.445000E-8	0.001917
4.450000E-8	0.001750
4.455000E-8	0.001591
4.460000E-8	0.001386
4.465000E-8	0.001163
4.470000E-8	0.000992
4.475000E-8	0.000864
4.480000E-8	0.000755
4.485000E-8	0.000816
4.490000E-8	0.000861
4.495000E-8	0.000991
4.500000E-8	0.001180
4.505000E-8	0.001455
4.510000E-8	0.001653
4.515000E-8	0.001867
4.520000E-8	0.002059
4.525000E-8	0.002194
4.530000E-8	0.002158
4.535000E-8	0.002111
4.540000E-8	0.001983
4.545000E-8	0.001763
4.550000E-8	0.001531
4.555000E-8	0.001269
4.560000E-8	0.000927
4.565000E-8	0.000773
4.570000E-8	0.000608
4.575000E-8	0.000478
4.580000E-8	0.000492
4.585000E-8	0.000552
4.590000E-8	0.000656
4.595000E-8	0.000891
4.600000E-8	0.001097
4.605000E-8	0.001297
4.610000E-8	0.001467
4.615000E-8	0.001617
4.620000E-8	0.001722
4.625000E-8	0.001722
4.630000E-8	0.001716
4.635000E-8	0.001650
4.640000E-8	0.001441
4.645000E-8	0.001325
4.650000E-8	0.001067
4.655000E-8	0.000930
4.660000E-8	0.000880
4.665000E-8	0.000853
4.670000E-8	0.000930
4.675000E-8	0.000991
4.680000E-8	0.001163
4.685000E-8	0.001477
4.690000E-8	0.001658
4.695000E-8	0.001920
4.700000E-8	0.002128
4.705000E-8	0.002245
4.710000E-8	0.002355
4.715000E-8	0.002342
4.720000E-8	0.002270
4.725000E-8	0.002217
4.730000E-8	0.002005
4.735000E-8	0.001772
4.740000E-8	0.001572
4.745000E-8	0.001352
4.750000E-8	0.001183
4.755000E-8	0.001112
4.760000E-8	0.001016
4.765000E-8	0.000961
4.770000E-8	0.000986
4.775000E-8	0.001038
4.780000E-8	0.001122
4.785000E-8	0.001216
4.790000E-8	0.001314
4.795000E-8	0.001411
4.800000E-8	0.001516
4.805000E-8	0.001630
4.810000E-8	0.001606
4.815000E-8	0.001630
4.820000E-8	0.001628
4.825000E-8	0.001652
4.830000E-8	0.001584
4.835000E-8	0.001461
4.840000E-8	0.001348
4.845000E-8	0.001248
4.850000E-8	0.001150
4.855000E-8	0.001081
4.860000E-8	0.001111
4.865000E-8	0.001167
4.870000E-8	0.001244
4.875000E-8	0.001361
4.880000E-8	0.001467
4.885000E-8	0.001617
4.890000E-8	0.001792
4.895000E-8	0.001872
4.900000E-8	0.002006
4.905000E-8	0.002105
4.910000E-8	0.002059
4.915000E-8	0.002075
4.920000E-8	0.001945
4.925000E-8	0.001844
4.930000E-8	0.001677
4.935000E-8	0.001498
4.940000E-8	0.001377
4.945000E-8	0.001295
4.950000E-8	0.001175
4.955000E-8	0.001161
4.960000E-8	0.001187
4.965000E-8	0.001258
4.970000E-8	0.001395
4.975000E-8	0.001577
4.980000E-8	0.001692
4.985000E-8	0.001811
4.990000E-8	0.001869
4.995000E-8	0.001902
5.000000E-8	0.001850
5.005000E-8	0.001752
5.010000E-8	0.001656
5.015000E-8	0.001594
5.020000E-8	0.001455
5.025000E-8	0.001291
5.030000E-8	0.001178
5.035000E-8	0.001155
5.040000E-8	0.001063
5.045000E-8	0.001102
5.050000E-8	0.001128
5.055000E-8	0.001187
5.060000E-8	0.001284
5.065000E-8	0.001428
5.070000E-8	0.001528
5.075000E-8	0.001616
5.080000E-8	0.001741
5.085000E-8	0.001786
5.090000E-8	0.001813
5.095000E-8	0.001823
5.100000E-8	0.001748
5.105000E-8	0.001614
5.110000E-8	0.001545
5.115000E-8	0.001402
5.120000E-8	0.001216
5.125000E-8	0.001195
5.130000E-8	0.001100
5.135000E-8	0.001111
5.140000E-8	0.001139
5.145000E-8	0.001166
5.150000E-8	0.001181
5.155000E-8	0.001267
5.160000E-8	0.001409
5.165000E-8	0.001566
5.170000E-8	0.001628
5.175000E-8	0.001697
5.180000E-8	0.001694
5.185000E-8	0.001845
5.190000E-8	0.001839
5.195000E-8	0.001777
5.200000E-8	0.001728
5.205000E-8	0.001661
5.210000E-8	0.001513
5.215000E-8	0.001377
5.220000E-8	0.001306
5.225000E-8	0.001255
5.230000E-8	0.001183
5.235000E-8	0.001192
5.240000E-8	0.001219
5.245000E-8	0.001316
5.250000E-8	0.001367
5.255000E-8	0.001536
5.260000E-8	0.001666
5.265000E-8	0.001728
5.270000E-8	0.001795
5.275000E-8	0.001798
5.280000E-8	0.001838
5.285000E-8	0.001825
5.290000E-8	0.001708
5.295000E-8	0.001597
5.300000E-8	0.001406
5.305000E-8	0.001225
5.310000E-8	0.001027
5.315000E-8	0.000920
5.320000E-8	0.000830
5.325000E-8	0.000780
5.330000E-8	0.000814
5.335000E-8	0.000952
5.340000E-8	0.001066
5.345000E-8	0.001294
5.350000E-8	0.001531
5.355000E-8	0.001673
5.360000E-8	0.001861
5.365000E-8	0.001988
5.370000E-8	0.002041
5.375000E-8	0.001984
5.380000E-8	0.001881
5.385000E-8	0.001808
5.390000E-8	0.001589
5.395000E-8	0.001402
5.400000E-8	0.001156
5.405000E-8	0.000966
5.410000E-8	0.000747
5.415000E-8	0.000730
5.420000E-8	0.000714
5.425000E-8	0.000737
5.430000E-8	0.000922
5.435000E-8	0.001106
5.440000E-8	0.001242
5.445000E-8	0.001391
5.450000E-8	0.001523
5.455000E-8	0.001672
5.460000E-8	0.001658
5.465000E-8	0.001717
5.470000E-8	0.001689
5.475000E-8	0.001661
5.480000E-8	0.001645
5.485000E-8	0.001566
5.490000E-8	0.001481
5.495000E-8	0.001394
5.500000E-8	0.001264
5.505000E-8	0.001270
5.510000E-8	0.001206
5.515000E-8	0.001200
5.520000E-8	0.001148
5.525000E-8	0.001223
5.530000E-8	0.001234
5.535000E-8	0.001316
5.540000E-8	0.001467
5.545000E-8	0.001630
5.550000E-8	0.001686
5.555000E-8	0.001759
5.560000E-8	0.001792
5.565000E-8	0.001767
5.570000E-8	0.001687
5.575000E-8	0.001536
5.580000E-8	0.001364
5.585000E-8	0.001320
5.590000E-8	0.001166
5.595000E-8	0.001036
5.600000E-8	0.001044
5.605000E-8	0.001009
5.610000E-8	0.001025
5.615000E-8	0.001158
5.620000E-8	0.001292
5.625000E-8	0.001437
5.630000E-8	0.001609
5.635000E-8	0.001767
5.640000E-8	0.001836
5.645000E-8	0.001891
5.650000E-8	0.001845
5.655000E-8	0.001764
5.660000E-8	0.001656
5.665000E-8	0.001509
5.670000E-8	0.001445
5.675000E-8	0.001255
5.680000E-8	0.001169
5.685000E-8	0.001095
5.690000E-8	0.001089
5.695000E-8	0.001119
5.700000E-8	0.001105
5.705000E-8	0.001163
5.710000E-8	0.001270
5.715000E-8	0.001503
5.720000E-8	0.001595
5.725000E-8	0.001778
5.730000E-8	0.001925
5.735000E-8	0.002122
5.740000E-8	0.002170
5.745000E-8	0.002203
5.750000E-8	0.002109
5.755000E-8	0.002033
5.760000E-8	0.001884
5.765000E-8	0.001733
5.770000E-8	0.001511
5.775000E-8	0.001428
5.780000E-8	0.001277
5.785000E-8	0.001225
5.790000E-8	0.001225
5.795000E-8	0.001277
5.800000E-8	0.001366
5.805000E-8	0.001472
5.810000E-8	0.001564
5.815000E-8	0.001606
5.820000E-8	0.001731
5.825000E-8	0.001786
5.830000E-8	0.001884
5.835000E-8	0.001913
5.840000E-8	0.001931
5.845000E-8	0.001991
5.850000E-8	0.001856
5.855000E-8	0.001792
5.860000E-8	0.001669
5.865000E-8	0.001564
5.870000E-8	0.001455
5.875000E-8	0.001330
5.880000E-8	0.001259
5.885000E-8	0.001234
5.890000E-8	0.001192
5.895000E-8	0.001292
5.900000E-8	0.001333
5.905000E-8	0.001481
5.910000E-8	0.001625
5.915000E-8	0.001827
5.920000E-8	0.001906
5.925000E-8	0.001997
5.930000E-8	0.002047
5.935000E-8	0.002017
5.940000E-8	0.002022
5.945000E-8	0.002017
5.950000E-8	0.001878
5.955000E-8	0.001792
5.960000E-8	0.001716
5.965000E-8	0.001566
5.970000E-8	0.001528
5.975000E-8	0.001413
5.980000E-8	0.001383
5.985000E-8	0.001366
5.990000E-8	0.001383
5.995000E-8	0.001455
6.000000E-8	0.001591
6.005000E-8	0.001709
6.010000E-8	0.001792
6.015000E-8	0.001911
6.020000E-8	0.001980
6.025000E-8	0.002003
6.030000E-8	0.001994
6.035000E-8	0.001973
6.040000E-8	0.001903
6.045000E-8	0.001869
6.050000E-8	0.001745
6.055000E-8	0.001625
6.060000E-8	0.001544
6.065000E-8	0.001548
6.070000E-8	0.001542
6.075000E-8	0.001548
6.080000E-8	0.001505
6.085000E-8	0.001594
6.090000E-8	0.001609
6.095000E-8	0.001692
6.100000E-8	0.001747
6.105000E-8	0.001917
6.110000E-8	0.001928
6.115000E-8	0.001963
6.120000E-8	0.001956
6.125000E-8	0.001937
6.130000E-8	0.001831
6.135000E-8	0.001806
6.140000E-8	0.001663
6.145000E-8	0.001569
6.150000E-8	0.001442
6.155000E-8	0.001348
6.160000E-8	0.001306
6.165000E-8	0.001295
6.170000E-8	0.001325
6.175000E-8	0.001347
6.180000E-8	0.001434
6.185000E-8	0.001566
6.190000E-8	0.001669
6.195000E-8	0.001788
6.200000E-8	0.001800
6.205000E-8	0.001803
6.210000E-8	0.001842
6.215000E-8	0.001866
6.220000E-8	0.001744
6.225000E-8	0.001630
6.230000E-8	0.001525
6.235000E-8	0.001464
6.240000E-8	0.001386
6.245000E-8	0.001439
6.250000E-8	0.001347
6.255000E-8	0.001430
6.260000E-8	0.001495
6.265000E-8	0.001578
6.270000E-8	0.001670
6.275000E-8	0.001806
6.280000E-8	0.001858
6.285000E-8	0.001884
6.290000E-8	0.001878
6.295000E-8	0.001897
6.300000E-8	0.001861
6.305000E-8	0.001778
6.310000E-8	0.001758
6.315000E-8	0.001731
6.320000E-8	0.001748
6.325000E-8	0.001658
6.330000E-8	0.001602
6.335000E-8	0.001573
6.340000E-8	0.001581
6.345000E-8	0.001636
6.350000E-8	0.001577
6.355000E-8	0.001589
6.360000E-8	0.001628
6.365000E-8	0.001722
6.370000E-8	0.001730
6.375000E-8	0.001839
6.380000E-8	0.001916
6.385000E-8	0.001970
6.390000E-8	0.001972
6.395000E-8	0.001973
6.400000E-8	0.001980
6.405000E-8	0.001963
6.410000E-8	0.001930
6.415000E-8	0.001936
6.420000E-8	0.001817
6.425000E-8	0.001772
6.430000E-8	0.001705
6.435000E-8	0.001677
6.440000E-8	0.001453
6.445000E-8	0.001383
6.450000E-8	0.001289
6.455000E-8	0.001289
6.460000E-8	0.001189
6.465000E-8	0.001211
6.470000E-8	0.001252
6.475000E-8	0.001334
6.480000E-8	0.001422
6.485000E-8	0.001453
6.490000E-8	0.001448
6.495000E-8	0.001548
6.500000E-8	0.001502
6.505000E-8	0.001520
6.510000E-8	0.001378
6.515000E-8	0.001259
6.520000E-8	0.001208
6.525000E-8	0.001086
6.530000E-8	0.001017
6.535000E-8	0.000984
6.540000E-8	0.000967
6.545000E-8	0.001030
6.550000E-8	0.001139
6.555000E-8	0.001250
6.560000E-8	0.001478
6.565000E-8	0.001670
6.570000E-8	0.001802
6.575000E-8	0.001886
6.580000E-8	0.001892
6.585000E-8	0.001933
6.590000E-8	0.001809
6.595000E-8	0.001681
6.600000E-8	0.001542
6.605000E-8	0.001452
6.610000E-8	0.001333
6.615000E-8	0.001284
6.620000E-8	0.001256
6.625000E-8	0.001333
6.630000E-8	0.001358
6.635000E-8	0.001469
6.640000E-8	0.001553
6.645000E-8	0.001692
6.650000E-8	0.001719
6.655000E-8	0.001778
6.660000E-8	0.001838
6.665000E-8	0.001838
6.670000E-8	0.001836
6.675000E-8	0.001805
6.680000E-8	0.001781
6.685000E-8	0.001698
6.690000E-8	0.001687
6.695000E-8	0.001655
6.700000E-8	0.001570
6.705000E-8	0.001628
6.710000E-8	0.001578
6.715000E-8	0.001536
6.720000E-8	0.001513
6.725000E-8	0.001519
6.730000E-8	0.001461
6.735000E-8	0.001509
6.740000E-8	0.001391
6.745000E-8	0.001367
6.750000E-8	0.001367
6.755000E-8	0.001356
6.760000E-8	0.001323
6.765000E-8	0.001361
6.770000E-8	0.001350
6.775000E-8	0.001392
6.780000E-8	0.001448
6.785000E-8	0.001520
6.790000E-8	0.001534
6.795000E-8	0.001598
6.800000E-8	0.001684
6.805000E-8	0.001720
6.810000E-8	0.001666
6.815000E-8	0.001683
6.820000E-8	0.001606
6.825000E-8	0.001620
6.830000E-8	0.001553
6.835000E-8	0.001588
6.840000E-8	0.001580
6.845000E-8	0.001645
6.850000E-8	0.001642
6.855000E-8	0.001716
6.860000E-8	0.001695
6.865000E-8	0.001716
6.870000E-8	0.001741
6.875000E-8	0.001713
6.880000E-8	0.001673
6.885000E-8	0.001605
6.890000E-8	0.001569
6.895000E-8	0.001531
6.900000E-8	0.001455
6.905000E-8	0.001470
6.910000E-8	0.001384
6.915000E-8	0.001333
6.920000E-8	0.001394
6.925000E-8	0.001469
6.930000E-8	0.001520
6.935000E-8	0.001566
6.940000E-8	0.001603
6.945000E-8	0.001639
6.950000E-8	0.001663
6.955000E-8	0.001725
6.960000E-8	0.001633
6.965000E-8	0.001559
6.970000E-8	0.001469
6.975000E-8	0.001383
6.980000E-8	0.001261
6.985000E-8	0.001202
6.990000E-8	0.001116
6.995000E-8	0.001100
7.000000E-8	0.001194
7.005000E-8	0.001266
7.010000E-8	0.001378
7.015000E-8	0.001473
7.020000E-8	0.001623
7.025000E-8	0.001763
7.030000E-8	0.001872
7.035000E-8	0.001900
7.040000E-8	0.001937
7.045000E-8	0.001963
7.050000E-8	0.001863
7.055000E-8	0.001819
7.060000E-8	0.001698
7.065000E-8	0.001645
7.070000E-8	0.001480
7.075000E-8	0.001428
7.080000E-8	0.001203
7.085000E-8	0.001175
7.090000E-8	0.001133
7.095000E-8	0.001103
7.100000E-8	0.001102
7.105000E-8	0.001184
7.110000E-8	0.001283
7.115000E-8	0.001384
7.120000E-8	0.001516
7.125000E-8	0.001695
7.130000E-8	0.001813
7.135000E-8	0.001927
7.140000E-8	0.002022
7.145000E-8	0.002078
7.150000E-8	0.002100
7.155000E-8	0.002084
7.160000E-8	0.001988
7.165000E-8	0.001828
7.170000E-8	0.001647
7.175000E-8	0.001534
7.180000E-8	0.001328
7.185000E-8	0.001338
7.190000E-8	0.001280
7.195000E-8	0.001247
7.200000E-8	0.001355
7.205000E-8	0.001398
7.210000E-8	0.001456
7.215000E-8	0.001561
7.220000E-8	0.001655
7.225000E-8	0.001794
7.230000E-8	0.001903
7.235000E-8	0.002031
7.240000E-8	0.002113
7.245000E-8	0.002103
7.250000E-8	0.002069
7.255000E-8	0.002003
7.260000E-8	0.001864
7.265000E-8	0.001736
7.270000E-8	0.001644
7.275000E-8	0.001516
7.280000E-8	0.001414
7.285000E-8	0.001334
7.290000E-8	0.001400
7.295000E-8	0.001467
7.300000E-8	0.001522
7.305000E-8	0.001597
7.310000E-8	0.001722
7.315000E-8	0.001838
7.320000E-8	0.001823
7.325000E-8	0.001813
7.330000E-8	0.001705
7.335000E-8	0.001709
7.340000E-8	0.001567
7.345000E-8	0.001514
7.350000E-8	0.001375
7.355000E-8	0.001245
7.360000E-8	0.001233
7.365000E-8	0.001150
7.370000E-8	0.001073
7.375000E-8	0.001077
7.380000E-8	0.001070
7.385000E-8	0.001155
7.390000E-8	0.001231
7.395000E-8	0.001306
7.400000E-8	0.001398
7.405000E-8	0.001489
7.410000E-8	0.001563
7.415000E-8	0.001661
7.420000E-8	0.001655
7.425000E-8	0.001659
7.430000E-8	0.001620
7.435000E-8	0.001598
7.440000E-8	0.001528
7.445000E-8	0.001519
7.450000E-8	0.001452
7.455000E-8	0.001448
7.460000E-8	0.001386
7.465000E-8	0.001428
7.470000E-8	0.001455
7.475000E-8	0.001497
7.480000E-8	0.001563
7.485000E-8	0.001639
7.490000E-8	0.001678
7.495000E-8	0.001713
7.500000E-8	0.001775
7.505000E-8	0.001791
7.510000E-8	0.001861
7.515000E-8	0.001848
7.520000E-8	0.001816
7.525000E-8	0.001823
7.530000E-8	0.001769
7.535000E-8	0.001709
7.540000E-8	0.001600
7.545000E-8	0.001488
7.550000E-8	0.001392
7.555000E-8	0.001350
7.560000E-8	0.001294
7.565000E-8	0.001308
7.570000E-8	0.001339
7.575000E-8	0.001384
7.580000E-8	0.001338
7.585000E-8	0.001367
7.590000E-8	0.001425
7.595000E-8	0.001417
7.600000E-8	0.001411
7.605000E-8	0.001470
7.610000E-8	0.001445
7.615000E-8	0.001527
7.620000E-8	0.001544
7.625000E-8	0.001552
7.630000E-8	0.001550
7.635000E-8	0.001561
7.640000E-8	0.001519
7.645000E-8	0.001472
7.650000E-8	0.001308
7.655000E-8	0.001320
7.660000E-8	0.001252
7.665000E-8	0.001211
7.670000E-8	0.001142
7.675000E-8	0.001130
7.680000E-8	0.001128
7.685000E-8	0.001292
7.690000E-8	0.001347
7.695000E-8	0.001445
7.700000E-8	0.001559
7.705000E-8	0.001681
7.710000E-8	0.001687
7.715000E-8	0.001750
7.720000E-8	0.001608
7.725000E-8	0.001530
7.730000E-8	0.001355
7.735000E-8	0.001252
7.740000E-8	0.001098
7.745000E-8	0.001036
7.750000E-8	0.000944
7.755000E-8	0.001017
7.760000E-8	0.000981
7.765000E-8	0.001161
7.770000E-8	0.001206
7.775000E-8	0.001453
7.780000E-8	0.001534
7.785000E-8	0.001686
7.790000E-8	0.001692
7.795000E-8	0.001745
7.800000E-8	0.001628
7.805000E-8	0.001580
7.810000E-8	0.001506
7.815000E-8	0.001408
7.820000E-8	0.001253
7.825000E-8	0.001222
7.830000E-8	0.001173
7.835000E-8	0.001187
7.840000E-8	0.001169
7.845000E-8	0.001245
7.850000E-8	0.001302
7.855000E-8	0.001405
7.860000E-8	0.001473
7.865000E-8	0.001580
7.870000E-8	0.001659
7.875000E-8	0.001727
7.880000E-8	0.001795
7.885000E-8	0.001791
7.890000E-8	0.001711
7.895000E-8	0.001630
7.900000E-8	0.001597
7.905000E-8	0.001538
7.910000E-8	0.001538
7.915000E-8	0.001431
7.920000E-8	0.001408
7.925000E-8	0.001419
7.930000E-8	0.001356
7.935000E-8	0.001267
7.940000E-8	0.001256
7.945000E-8	0.001303
7.950000E-8	0.001269
7.955000E-8	0.001283
7.960000E-8	0.001381
7.965000E-8	0.001444
7.970000E-8	0.001522
7.975000E-8	0.001606
7.980000E-8	0.001586
7.985000E-8	0.001619
7.990000E-8	0.001633
7.995000E-8	0.001623
8.000000E-8	0.001556
8.005000E-8	0.001464
8.010000E-8	0.001403
8.015000E-8	0.001300
8.020000E-8	0.001258
8.025000E-8	0.001214
8.030000E-8	0.001173
8.035000E-8	0.001116
8.040000E-8	0.001197
8.045000E-8	0.001266
8.050000E-8	0.001341
8.055000E-8	0.001484
8.060000E-8	0.001563
8.065000E-8	0.001733
8.070000E-8	0.001795
8.075000E-8	0.001878
8.080000E-8	0.001933
8.085000E-8	0.001961
8.090000E-8	0.001863
8.095000E-8	0.001811
8.100000E-8	0.001728
8.105000E-8	0.001648
8.110000E-8	0.001525
8.115000E-8	0.001458
8.120000E-8	0.001402
8.125000E-8	0.001367
8.130000E-8	0.001369
8.135000E-8	0.001362
8.140000E-8	0.001433
8.145000E-8	0.001503
8.150000E-8	0.001527
8.155000E-8	0.001509
8.160000E-8	0.001573
8.165000E-8	0.001687
8.170000E-8	0.001619
8.175000E-8	0.001727
8.180000E-8	0.001719
8.185000E-8	0.001713
8.190000E-8	0.001687
8.195000E-8	0.001666
8.200000E-8	0.001666
8.205000E-8	0.001592
8.210000E-8	0.001489
8.215000E-8	0.001495
8.220000E-8	0.001434
8.225000E-8	0.001342
8.230000E-8	0.001345
8.235000E-8	0.001391
8.240000E-8	0.001419
8.245000E-8	0.001527
8.250000E-8	0.001541
8.255000E-8	0.001578
8.260000E-8	0.001691
8.265000E-8	0.001705
8.270000E-8	0.001698
8.275000E-8	0.001617
8.280000E-8	0.001553
8.285000E-8	0.001431
8.290000E-8	0.001253
8.295000E-8	0.001244
8.300000E-8	0.001205
8.305000E-8	0.001198
8.310000E-8	0.001170
8.315000E-8	0.001309
8.320000E-8	0.001441
8.325000E-8	0.001556
8.330000E-8	0.001672
8.335000E-8	0.001769
8.340000E-8	0.001789
8.345000E-8	0.001836
8.350000E-8	0.001792
8.355000E-8	0.001859
8.360000E-8	0.001681
8.365000E-8	0.001664
8.370000E-8	0.001473
8.375000E-8	0.001380
8.380000E-8	0.001362
8.385000E-8	0.001328
8.390000E-8	0.001250
8.395000E-8	0.001241
8.400000E-8	0.001288
8.405000E-8	0.001330
8.410000E-8	0.001317
8.415000E-8	0.001366
8.420000E-8	0.001411
8.425000E-8	0.001478
8.430000E-8	0.001514
8.435000E-8	0.001475
8.440000E-8	0.001552
8.445000E-8	0.001558
8.450000E-8	0.001622
8.455000E-8	0.001670
8.460000E-8	0.001634
8.465000E-8	0.001639
8.470000E-8	0.001617
8.475000E-8	0.001548
8.480000E-8	0.001408
8.485000E-8	0.001427
8.490000E-8	0.001295
8.495000E-8	0.001348
8.500000E-8	0.001275
8.505000E-8	0.001303
8.510000E-8	0.001336
8.515000E-8	0.001425
8.520000E-8	0.001463
8.525000E-8	0.001528
8.530000E-8	0.001559
8.535000E-8	0.001620
8.540000E-8	0.001642
8.545000E-8	0.001702
8.550000E-8	0.001670
8.555000E-8	0.001645
8.560000E-8	0.001664
8.565000E-8	0.001642
8.570000E-8	0.001673
8.575000E-8	0.001731
8.580000E-8	0.001609
8.585000E-8	0.001634
8.590000E-8	0.001602
8.595000E-8	0.001609
8.600000E-8	0.001583
8.605000E-8	0.001598
8.610000E-8	0.001663
8.615000E-8	0.001720
8.620000E-8	0.001756
8.625000E-8	0.001788
8.630000E-8	0.001773
8.635000E-8	0.001725
8.640000E-8	0.001708
8.645000E-8	0.001694
8.650000E-8	0.001667
8.655000E-8	0.001638
8.660000E-8	0.001539
8.665000E-8	0.001555
8.670000E-8	0.001498
8.675000E-8	0.001480
8.680000E-8	0.001467
8.685000E-8	0.001448
8.690000E-8	0.001341
8.695000E-8	0.001327
8.700000E-8	0.001322
8.705000E-8	0.001323
8.710000E-8	0.001300
8.715000E-8	0.001255
8.720000E-8	0.001238
8.725000E-8	0.001348
8.730000E-8	0.001317
8.735000E-8	0.001361
8.740000E-8	0.001294
8.745000E-8	0.001308
8.750000E-8	0.001291
8.755000E-8	0.001288
8.760000E-8	0.001298
8.765000E-8	0.001327
8.770000E-8	0.001367
8.775000E-8	0.001383
8.780000E-8	0.001478
8.785000E-8	0.001522
8.790000E-8	0.001550
8.795000E-8	0.001558
8.800000E-8	0.001642
8.805000E-8	0.001627
8.810000E-8	0.001620
8.815000E-8	0.001708
8.820000E-8	0.001734
8.825000E-8	0.001747
8.830000E-8	0.001791
8.835000E-8	0.001850
8.840000E-8	0.001784
8.845000E-8	0.001767
8.850000E-8	0.001747
8.855000E-8	0.001700
8.860000E-8	0.001600
8.865000E-8	0.001522
8.870000E-8	0.001486
8.875000E-8	0.001445
8.880000E-8	0.001419
8.885000E-8	0.001431
8.890000E-8	0.001378
8.895000E-8	0.001389
8.900000E-8	0.001430
8.905000E-8	0.001473
8.910000E-8	0.001488
8.915000E-8	0.001548
8.920000E-8	0.001541
8.925000E-8	0.001566
8.930000E-8	0.001559
8.935000E-8	0.001623
8.940000E-8	0.001612
8.945000E-8	0.001597
8.950000E-8	0.001634
8.955000E-8	0.001572
8.960000E-8	0.001538
8.965000E-8	0.001534
8.970000E-8	0.001533
8.975000E-8	0.001547
8.980000E-8	0.001498
8.985000E-8	0.001441
8.990000E-8	0.001431
8.995000E-8	0.001481
9.000000E-8	0.001402
9.005000E-8	0.001434
9.010000E-8	0.001483
9.015000E-8	0.001584
9.020000E-8	0.001494
9.025000E-8	0.001569
9.030000E-8	0.001658
9.035000E-8	0.001641
9.040000E-8	0.001595
9.045000E-8	0.001619
9.050000E-8	0.001644
9.055000E-8	0.001689
9.060000E-8	0.001673
9.065000E-8	0.001772
9.070000E-8	0.001745
9.075000E-8	0.001788
9.080000E-8	0.001806
9.085000E-8	0.001848
9.090000E-8	0.001795
9.095000E-8	0.001856
9.100000E-8	0.001828
9.105000E-8	0.001830
9.110000E-8	0.001800
9.115000E-8	0.001713
9.120000E-8	0.001605
9.125000E-8	0.001536
9.130000E-8	0.001444
9.135000E-8	0.001403
9.140000E-8	0.001280
9.145000E-8	0.001281
9.150000E-8	0.001192
9.155000E-8	0.001213
9.160000E-8	0.001253
9.165000E-8	0.001308
9.170000E-8	0.001391
9.175000E-8	0.001442
9.180000E-8	0.001455
9.185000E-8	0.001545
9.190000E-8	0.001595
9.195000E-8	0.001622
9.200000E-8	0.001533
9.205000E-8	0.001575
9.210000E-8	0.001497
9.215000E-8	0.001533
9.220000E-8	0.001509
9.225000E-8	0.001547
9.230000E-8	0.001578
9.235000E-8	0.001597
9.240000E-8	0.001661
9.245000E-8	0.001663
9.250000E-8	0.001697
9.255000E-8	0.001842
9.260000E-8	0.001795
9.265000E-8	0.001913
9.270000E-8	0.001828
9.275000E-8	0.001839
9.280000E-8	0.001828
9.285000E-8	0.001856
9.290000E-8	0.001820
9.295000E-8	0.001872
9.300000E-8	0.001764
9.305000E-8	0.001759
9.310000E-8	0.001739
9.315000E-8	0.001667
9.320000E-8	0.001642
9.325000E-8	0.001573
9.330000E-8	0.001489
9.335000E-8	0.001534
9.340000E-8	0.001583
9.345000E-8	0.001608
9.350000E-8	0.001589
9.355000E-8	0.001697
9.360000E-8	0.001694
9.365000E-8	0.001780
9.370000E-8	0.001759
9.375000E-8	0.001898
9.380000E-8	0.001842
9.385000E-8	0.001839
9.390000E-8	0.001750
9.395000E-8	0.001733
9.400000E-8	0.001647
9.405000E-8	0.001620
9.410000E-8	0.001567
9.415000E-8	0.001509
9.420000E-8	0.001542
9.425000E-8	0.001552
9.430000E-8	0.001592
9.435000E-8	0.001642
9.440000E-8	0.001692
9.445000E-8	0.001767
9.450000E-8	0.001761
9.455000E-8	0.001745
9.460000E-8	0.001731
9.465000E-8	0.001650
9.470000E-8	0.001586
9.475000E-8	0.001520
9.480000E-8	0.001558
9.485000E-8	0.001577
9.490000E-8	0.001581
9.495000E-8	0.001697
9.500000E-8	0.001684
9.505000E-8	0.001773
9.510000E-8	0.001780
9.515000E-8	0.001816
9.520000E-8	0.001775
9.525000E-8	0.001741
9.530000E-8	0.001769
9.535000E-8	0.001717
9.540000E-8	0.001672
9.545000E-8	0.001619
9.550000E-8	0.001492
9.555000E-8	0.001508
9.560000E-8	0.001328
9.565000E-8	0.001344
9.570000E-8	0.001239
9.575000E-8	0.001220
9.580000E-8	0.001184
9.585000E-8	0.001147
9.590000E-8	0.001172
9.595000E-8	0.001225
9.600000E-8	0.001278
9.605000E-8	0.001298
9.610000E-8	0.001380
9.615000E-8	0.001455
9.620000E-8	0.001506
9.625000E-8	0.001594
9.630000E-8	0.001550
9.635000E-8	0.001580
9.640000E-8	0.001516
9.645000E-8	0.001466
9.650000E-8	0.001430
9.655000E-8	0.001388
9.660000E-8	0.001316
9.665000E-8	0.001303
9.670000E-8	0.001291
9.675000E-8	0.001341
9.680000E-8	0.001314
9.685000E-8	0.001331
9.690000E-8	0.001292
9.695000E-8	0.001300
9.700000E-8	0.001319
9.705000E-8	0.001355
9.710000E-8	0.001336
9.715000E-8	0.001297
9.720000E-8	0.001281
9.725000E-8	0.001306
9.730000E-8	0.001350
9.735000E-8	0.001377
9.740000E-8	0.001403
9.745000E-8	0.001509
9.750000E-8	0.001553
9.755000E-8	0.001575
9.760000E-8	0.001538
9.765000E-8	0.001594
9.770000E-8	0.001577
9.775000E-8	0.001523
9.780000E-8	0.001466
9.785000E-8	0.001358
9.790000E-8	0.001317
9.795000E-8	0.001298
9.800000E-8	0.001236
9.805000E-8	0.001209
9.810000E-8	0.001250
9.815000E-8	0.001239
9.820000E-8	0.001305
9.825000E-8	0.001402
9.830000E-8	0.001447
9.835000E-8	0.001548
9.840000E-8	0.001638
9.845000E-8	0.001647
9.850000E-8	0.001663
9.855000E-8	0.001633
9.860000E-8	0.001658
9.865000E-8	0.001720
9.870000E-8	0.001686
9.875000E-8	0.001616
9.880000E-8	0.001642
9.885000E-8	0.001592
9.890000E-8	0.001606
9.895000E-8	0.001661
9.900000E-8	0.001594
9.905000E-8	0.001566
9.910000E-8	0.001478
9.915000E-8	0.001413
9.920000E-8	0.001425
9.925000E-8	0.001423
9.930000E-8	0.001445
9.935000E-8	0.001453
9.940000E-8	0.001419
9.945000E-8	0.001420
9.950000E-8	0.001408
9.955000E-8	0.001484
9.960000E-8	0.001538
9.965000E-8	0.001492
9.970000E-8	0.001464
9.975000E-8	0.001447
9.980000E-8	0.001477
9.985000E-8	0.001417
9.990000E-8	0.001347
9.995000E-8	0.001398
