LabVIEW Measurement	
Writer_Version	2
Reader_Version	2
Separator	Tab
Decimal_Separator	.
Multi_Headings	No
X_Columns	Multi
Time_Pref	Relative
Operator	TG lab
Date	2015/03/07
Time	10:51:16.1182360649108886719
***End_of_Header***	
	
Channels	1	
Samples	2000	
Date	1903/12/31	
Time	19:00:00	
X_Dimension	Time	
X0	0.0000000000000000E+0	
Delta_X	5.000000E-11	
***End_of_Header***		
X_Value	Untitled	Comment
0.000000	0.001813
5.000000E-11	0.001834
1.000000E-10	0.001769
1.500000E-10	0.001769
2.000000E-10	0.001791
2.500000E-10	0.001856
3.000000E-10	0.001888
3.500000E-10	0.002063
4.000000E-10	0.001991
4.500000E-10	0.001966
5.000000E-10	0.001784
5.500000E-10	0.001750
6.000000E-10	0.001709
6.500000E-10	0.001819
7.000000E-10	0.001759
7.500000E-10	0.001788
8.000000E-10	0.001788
8.500000E-10	0.001813
9.000000E-10	0.001878
9.500000E-10	0.002003
1.000000E-9	0.001894
1.050000E-9	0.002031
1.100000E-9	0.001978
1.150000E-9	0.002047
1.200000E-9	0.001953
1.250000E-9	0.001916
1.300000E-9	0.001816
1.350000E-9	0.001816
1.400000E-9	0.001641
1.450000E-9	0.001809
1.500000E-9	0.001778
1.550000E-9	0.001716
1.600000E-9	0.001672
1.650000E-9	0.001719
1.700000E-9	0.001719
1.750000E-9	0.001819
1.800000E-9	0.001738
1.850000E-9	0.001878
1.900000E-9	0.001913
1.950000E-9	0.002078
2.000000E-9	0.002022
2.050000E-9	0.002100
2.100000E-9	0.002087
2.150000E-9	0.002147
2.200000E-9	0.002144
2.250000E-9	0.002250
2.300000E-9	0.002369
2.350000E-9	0.002350
2.400000E-9	0.002331
2.450000E-9	0.002441
2.500000E-9	0.002403
2.550000E-9	0.002366
2.600000E-9	0.002209
2.650000E-9	0.002153
2.700000E-9	0.002047
2.750000E-9	0.002078
2.800000E-9	0.002053
2.850000E-9	0.002069
2.900000E-9	0.002087
2.950000E-9	0.002138
3.000000E-9	0.002059
3.050000E-9	0.002228
3.100000E-9	0.002213
3.150000E-9	0.002241
3.200000E-9	0.002334
3.250000E-9	0.002369
3.300000E-9	0.002428
3.350000E-9	0.002400
3.400000E-9	0.002441
3.450000E-9	0.002519
3.500000E-9	0.002488
3.550000E-9	0.002431
3.600000E-9	0.002394
3.650000E-9	0.002444
3.700000E-9	0.002381
3.750000E-9	0.002391
3.800000E-9	0.002350
3.850000E-9	0.002378
3.900000E-9	0.002425
3.950000E-9	0.002491
4.000000E-9	0.002569
4.050000E-9	0.002681
4.100000E-9	0.002875
4.150000E-9	0.003128
4.200000E-9	0.003275
4.250000E-9	0.003625
4.300000E-9	0.003900
4.350000E-9	0.004347
4.400000E-9	0.004638
4.450000E-9	0.005109
4.500000E-9	0.005672
4.550000E-9	0.006263
4.600000E-9	0.006728
4.650000E-9	0.007531
4.700000E-9	0.008325
4.750000E-9	0.009175
4.800000E-9	0.010156
4.850000E-9	0.011172
4.900000E-9	0.012091
4.950000E-9	0.013194
5.000000E-9	0.014419
5.050000E-9	0.015662
5.100000E-9	0.016913
5.150000E-9	0.018378
5.200000E-9	0.019991
5.250000E-9	0.021447
5.300000E-9	0.022759
5.350000E-9	0.024066
5.400000E-9	0.025003
5.450000E-9	0.025750
5.500000E-9	0.026075
5.550000E-9	0.026034
5.600000E-9	0.025503
5.650000E-9	0.024516
5.700000E-9	0.023241
5.750000E-9	0.021741
5.800000E-9	0.020091
5.850000E-9	0.018509
5.900000E-9	0.016934
5.950000E-9	0.015622
6.000000E-9	0.014631
6.050000E-9	0.014156
6.100000E-9	0.014016
6.150000E-9	0.014303
6.200000E-9	0.014616
6.250000E-9	0.015128
6.300000E-9	0.015831
6.350000E-9	0.016384
6.400000E-9	0.016703
6.450000E-9	0.016847
6.500000E-9	0.016503
6.550000E-9	0.016091
6.600000E-9	0.015272
6.650000E-9	0.014316
6.700000E-9	0.013100
6.750000E-9	0.011894
6.800000E-9	0.010556
6.850000E-9	0.009434
6.900000E-9	0.008556
6.950000E-9	0.008053
7.000000E-9	0.007719
7.050000E-9	0.007875
7.100000E-9	0.008072
7.150000E-9	0.008591
7.200000E-9	0.009297
7.250000E-9	0.010050
7.300000E-9	0.010647
7.350000E-9	0.011213
7.400000E-9	0.011378
7.450000E-9	0.011400
7.500000E-9	0.011034
7.550000E-9	0.010534
7.600000E-9	0.009741
7.650000E-9	0.008794
7.700000E-9	0.007747
7.750000E-9	0.006722
7.800000E-9	0.005722
7.850000E-9	0.004959
7.900000E-9	0.004466
7.950000E-9	0.004322
8.000000E-9	0.004372
8.050000E-9	0.004903
8.100000E-9	0.005513
8.150000E-9	0.006328
8.200000E-9	0.007106
8.250000E-9	0.007828
8.300000E-9	0.008338
8.350000E-9	0.008653
8.400000E-9	0.008547
8.450000E-9	0.008322
8.500000E-9	0.007553
8.550000E-9	0.006653
8.600000E-9	0.005488
8.650000E-9	0.004434
8.700000E-9	0.003472
8.750000E-9	0.002709
8.800000E-9	0.002119
8.850000E-9	0.001744
8.900000E-9	0.001800
8.950000E-9	0.002213
9.000000E-9	0.002775
9.050000E-9	0.003669
9.100000E-9	0.004537
9.150000E-9	0.005253
9.200000E-9	0.006056
9.250000E-9	0.006656
9.300000E-9	0.006838
9.350000E-9	0.006825
9.400000E-9	0.006391
9.450000E-9	0.005756
9.500000E-9	0.004903
9.550000E-9	0.003969
9.600000E-9	0.003009
9.650000E-9	0.002228
9.700000E-9	0.001581
9.750000E-9	0.001119
9.800000E-9	0.000931
9.850000E-9	0.001097
9.900000E-9	0.001478
9.950000E-9	0.002094
1.000000E-8	0.002819
1.005000E-8	0.003591
1.010000E-8	0.004375
1.015000E-8	0.004975
1.020000E-8	0.005328
1.025000E-8	0.005472
1.030000E-8	0.005272
1.035000E-8	0.004944
1.040000E-8	0.004341
1.045000E-8	0.003547
1.050000E-8	0.002678
1.055000E-8	0.001794
1.060000E-8	0.001238
1.065000E-8	0.000594
1.070000E-8	0.000263
1.075000E-8	0.000191
1.080000E-8	0.000556
1.085000E-8	0.001166
1.090000E-8	0.001838
1.095000E-8	0.002672
1.100000E-8	0.003578
1.105000E-8	0.004316
1.110000E-8	0.004866
1.115000E-8	0.005237
1.120000E-8	0.005278
1.125000E-8	0.005131
1.130000E-8	0.004647
1.135000E-8	0.003978
1.140000E-8	0.003113
1.145000E-8	0.002234
1.150000E-8	0.001375
1.155000E-8	0.000772
1.160000E-8	0.000188
1.165000E-8	8.750000E-5
1.170000E-8	6.875000E-5
1.175000E-8	0.000447
1.180000E-8	0.001106
1.185000E-8	0.001847
1.190000E-8	0.002753
1.195000E-8	0.003581
1.200000E-8	0.004219
1.205000E-8	0.004700
1.210000E-8	0.004828
1.215000E-8	0.004881
1.220000E-8	0.004603
1.225000E-8	0.003863
1.230000E-8	0.003100
1.235000E-8	0.002266
1.240000E-8	0.001434
1.245000E-8	0.000681
1.250000E-8	0.000131
1.255000E-8	-0.000178
1.260000E-8	-0.000191
1.265000E-8	7.187500E-5
1.270000E-8	0.000563
1.275000E-8	0.001250
1.280000E-8	0.002075
1.285000E-8	0.002872
1.290000E-8	0.003503
1.295000E-8	0.004144
1.300000E-8	0.004519
1.305000E-8	0.004631
1.310000E-8	0.004359
1.315000E-8	0.004053
1.320000E-8	0.003369
1.325000E-8	0.002659
1.330000E-8	0.001859
1.335000E-8	0.001094
1.340000E-8	0.000444
1.345000E-8	-1.250000E-5
1.350000E-8	-0.000366
1.355000E-8	-0.000234
1.360000E-8	8.437500E-5
1.365000E-8	0.000669
1.370000E-8	0.001313
1.375000E-8	0.002106
1.380000E-8	0.002953
1.385000E-8	0.003678
1.390000E-8	0.004053
1.395000E-8	0.004516
1.400000E-8	0.004553
1.405000E-8	0.004425
1.410000E-8	0.003850
1.415000E-8	0.003250
1.420000E-8	0.002503
1.425000E-8	0.001747
1.430000E-8	0.001081
1.435000E-8	0.000453
1.440000E-8	3.125000E-5
1.445000E-8	-0.000153
1.450000E-8	-0.000184
1.455000E-8	0.000147
1.460000E-8	0.000647
1.465000E-8	0.001397
1.470000E-8	0.002053
1.475000E-8	0.002806
1.480000E-8	0.003325
1.485000E-8	0.003866
1.490000E-8	0.003928
1.495000E-8	0.004038
1.500000E-8	0.003725
1.505000E-8	0.003206
1.510000E-8	0.002494
1.515000E-8	0.001728
1.520000E-8	0.000966
1.525000E-8	0.000319
1.530000E-8	-0.000113
1.535000E-8	-0.000394
1.540000E-8	-0.000509
1.545000E-8	-0.000237
1.550000E-8	0.000116
1.555000E-8	0.000750
1.560000E-8	0.001369
1.565000E-8	0.002175
1.570000E-8	0.002791
1.575000E-8	0.003213
1.580000E-8	0.003644
1.585000E-8	0.003803
1.590000E-8	0.003638
1.595000E-8	0.003431
1.600000E-8	0.002975
1.605000E-8	0.002356
1.610000E-8	0.001684
1.615000E-8	0.001169
1.620000E-8	0.000609
1.625000E-8	0.000166
1.630000E-8	-0.000131
1.635000E-8	-6.250000E-6
1.640000E-8	0.000184
1.645000E-8	0.000509
1.650000E-8	0.000984
1.655000E-8	0.001600
1.660000E-8	0.002241
1.665000E-8	0.002825
1.670000E-8	0.003350
1.675000E-8	0.003644
1.680000E-8	0.003678
1.685000E-8	0.003519
1.690000E-8	0.003247
1.695000E-8	0.002769
1.700000E-8	0.002191
1.705000E-8	0.001497
1.710000E-8	0.000916
1.715000E-8	0.000491
1.720000E-8	0.000131
1.725000E-8	-0.000153
1.730000E-8	-0.000191
1.735000E-8	0.000231
1.740000E-8	0.000575
1.745000E-8	0.001294
1.750000E-8	0.001869
1.755000E-8	0.002522
1.760000E-8	0.003009
1.765000E-8	0.003419
1.770000E-8	0.003631
1.775000E-8	0.003650
1.780000E-8	0.003441
1.785000E-8	0.002978
1.790000E-8	0.002359
1.795000E-8	0.001728
1.800000E-8	0.001056
1.805000E-8	0.000541
1.810000E-8	3.750000E-5
1.815000E-8	-9.062500E-5
1.820000E-8	-6.875000E-5
1.825000E-8	9.687500E-5
1.830000E-8	0.000509
1.835000E-8	0.001031
1.840000E-8	0.001687
1.845000E-8	0.002403
1.850000E-8	0.002909
1.855000E-8	0.003441
1.860000E-8	0.003525
1.865000E-8	0.003606
1.870000E-8	0.003431
1.875000E-8	0.003134
1.880000E-8	0.002600
1.885000E-8	0.002125
1.890000E-8	0.001475
1.895000E-8	0.000856
1.900000E-8	0.000363
1.905000E-8	5.625000E-5
1.910000E-8	-0.000159
1.915000E-8	2.187500E-5
1.920000E-8	0.000259
1.925000E-8	0.000719
1.930000E-8	0.001241
1.935000E-8	0.001872
1.940000E-8	0.002434
1.945000E-8	0.002975
1.950000E-8	0.003334
1.955000E-8	0.003556
1.960000E-8	0.003522
1.965000E-8	0.003319
1.970000E-8	0.003041
1.975000E-8	0.002613
1.980000E-8	0.001863
1.985000E-8	0.001222
1.990000E-8	0.000772
1.995000E-8	0.000344
2.000000E-8	-4.687500E-5
2.005000E-8	-8.750000E-5
2.010000E-8	2.187500E-5
2.015000E-8	0.000272
2.020000E-8	0.000697
2.025000E-8	0.001259
2.030000E-8	0.001872
2.035000E-8	0.002394
2.040000E-8	0.002916
2.045000E-8	0.003325
2.050000E-8	0.003456
2.055000E-8	0.003600
2.060000E-8	0.003325
2.065000E-8	0.002925
2.070000E-8	0.002469
2.075000E-8	0.001872
2.080000E-8	0.001300
2.085000E-8	0.000841
2.090000E-8	0.000300
2.095000E-8	0.000134
2.100000E-8	4.687500E-5
2.105000E-8	0.000178
2.110000E-8	0.000441
2.115000E-8	0.000947
2.120000E-8	0.001450
2.125000E-8	0.001981
2.130000E-8	0.002534
2.135000E-8	0.002816
2.140000E-8	0.003091
2.145000E-8	0.003156
2.150000E-8	0.003025
2.155000E-8	0.002734
2.160000E-8	0.002297
2.165000E-8	0.001866
2.170000E-8	0.001369
2.175000E-8	0.000972
2.180000E-8	0.000559
2.185000E-8	0.000278
2.190000E-8	0.000178
2.195000E-8	0.000322
2.200000E-8	0.000550
2.205000E-8	0.000903
2.210000E-8	0.001422
2.215000E-8	0.001913
2.220000E-8	0.002416
2.225000E-8	0.002800
2.230000E-8	0.002975
2.235000E-8	0.003197
2.240000E-8	0.003150
2.245000E-8	0.003012
2.250000E-8	0.002744
2.255000E-8	0.002306
2.260000E-8	0.001675
2.265000E-8	0.001294
2.270000E-8	0.000784
2.275000E-8	0.000556
2.280000E-8	0.000263
2.285000E-8	0.000300
2.290000E-8	0.000403
2.295000E-8	0.000722
2.300000E-8	0.001075
2.305000E-8	0.001594
2.310000E-8	0.002047
2.315000E-8	0.002606
2.320000E-8	0.002941
2.325000E-8	0.003253
2.330000E-8	0.003306
2.335000E-8	0.003263
2.340000E-8	0.003078
2.345000E-8	0.002728
2.350000E-8	0.002294
2.355000E-8	0.001756
2.360000E-8	0.001250
2.365000E-8	0.000934
2.370000E-8	0.000553
2.375000E-8	0.000397
2.380000E-8	0.000188
2.385000E-8	0.000384
2.390000E-8	0.000566
2.395000E-8	0.000800
2.400000E-8	0.001344
2.405000E-8	0.001788
2.410000E-8	0.002188
2.415000E-8	0.002666
2.420000E-8	0.002737
2.425000E-8	0.002934
2.430000E-8	0.002894
2.435000E-8	0.002700
2.440000E-8	0.002359
2.445000E-8	0.002063
2.450000E-8	0.001534
2.455000E-8	0.001128
2.460000E-8	0.000772
2.465000E-8	0.000434
2.470000E-8	0.000225
2.475000E-8	0.000250
2.480000E-8	0.000316
2.485000E-8	0.000684
2.490000E-8	0.001034
2.495000E-8	0.001528
2.500000E-8	0.002003
2.505000E-8	0.002491
2.510000E-8	0.002706
2.515000E-8	0.003056
2.520000E-8	0.003138
2.525000E-8	0.003159
2.530000E-8	0.002825
2.535000E-8	0.002594
2.540000E-8	0.002181
2.545000E-8	0.001672
2.550000E-8	0.001163
2.555000E-8	0.000878
2.560000E-8	0.000553
2.565000E-8	0.000506
2.570000E-8	0.000569
2.575000E-8	0.000719
2.580000E-8	0.000969
2.585000E-8	0.001406
2.590000E-8	0.001722
2.595000E-8	0.002178
2.600000E-8	0.002494
2.605000E-8	0.002741
2.610000E-8	0.002778
2.615000E-8	0.002894
2.620000E-8	0.002662
2.625000E-8	0.002559
2.630000E-8	0.002100
2.635000E-8	0.001663
2.640000E-8	0.001241
2.645000E-8	0.000822
2.650000E-8	0.000438
2.655000E-8	0.000225
2.660000E-8	0.000184
2.665000E-8	0.000403
2.670000E-8	0.000644
2.675000E-8	0.001166
2.680000E-8	0.001538
2.685000E-8	0.002081
2.690000E-8	0.002563
2.695000E-8	0.002953
2.700000E-8	0.003122
2.705000E-8	0.003128
2.710000E-8	0.002959
2.715000E-8	0.002650
2.720000E-8	0.002341
2.725000E-8	0.001831
2.730000E-8	0.001441
2.735000E-8	0.000975
2.740000E-8	0.000694
2.745000E-8	0.000531
2.750000E-8	0.000575
2.755000E-8	0.000734
2.760000E-8	0.001009
2.765000E-8	0.001375
2.770000E-8	0.001716
2.775000E-8	0.002162
2.780000E-8	0.002575
2.785000E-8	0.002819
2.790000E-8	0.003063
2.795000E-8	0.003125
2.800000E-8	0.002941
2.805000E-8	0.002897
2.810000E-8	0.002463
2.815000E-8	0.002209
2.820000E-8	0.001722
2.825000E-8	0.001384
2.830000E-8	0.000931
2.835000E-8	0.000616
2.840000E-8	0.000391
2.845000E-8	0.000375
2.850000E-8	0.000412
2.855000E-8	0.000531
2.860000E-8	0.000838
2.865000E-8	0.001244
2.870000E-8	0.001684
2.875000E-8	0.002066
2.880000E-8	0.002428
2.885000E-8	0.002631
2.890000E-8	0.002737
2.895000E-8	0.002766
2.900000E-8	0.002641
2.905000E-8	0.002431
2.910000E-8	0.002106
2.915000E-8	0.001766
2.920000E-8	0.001266
2.925000E-8	0.000969
2.930000E-8	0.000719
2.935000E-8	0.000628
2.940000E-8	0.000522
2.945000E-8	0.000672
2.950000E-8	0.000819
2.955000E-8	0.001075
2.960000E-8	0.001362
2.965000E-8	0.001838
2.970000E-8	0.002175
2.975000E-8	0.002600
2.980000E-8	0.002756
2.985000E-8	0.002900
2.990000E-8	0.003025
2.995000E-8	0.002772
3.000000E-8	0.002488
3.005000E-8	0.002213
3.010000E-8	0.001713
3.015000E-8	0.001388
3.020000E-8	0.000997
3.025000E-8	0.000841
3.030000E-8	0.000697
3.035000E-8	0.000700
3.040000E-8	0.000763
3.045000E-8	0.001100
3.050000E-8	0.001347
3.055000E-8	0.001775
3.060000E-8	0.002078
3.065000E-8	0.002334
3.070000E-8	0.002563
3.075000E-8	0.002744
3.080000E-8	0.002656
3.085000E-8	0.002544
3.090000E-8	0.002188
3.095000E-8	0.002009
3.100000E-8	0.001450
3.105000E-8	0.001256
3.110000E-8	0.000872
3.115000E-8	0.000716
3.120000E-8	0.000547
3.125000E-8	0.000566
3.130000E-8	0.000519
3.135000E-8	0.000859
3.140000E-8	0.001025
3.145000E-8	0.001478
3.150000E-8	0.001778
3.155000E-8	0.002016
3.160000E-8	0.002394
3.165000E-8	0.002472
3.170000E-8	0.002591
3.175000E-8	0.002659
3.180000E-8	0.002359
3.185000E-8	0.002119
3.190000E-8	0.001831
3.195000E-8	0.001581
3.200000E-8	0.001209
3.205000E-8	0.000997
3.210000E-8	0.000797
3.215000E-8	0.000856
3.220000E-8	0.000875
3.225000E-8	0.001041
3.230000E-8	0.001313
3.235000E-8	0.001581
3.240000E-8	0.001869
3.245000E-8	0.002322
3.250000E-8	0.002597
3.255000E-8	0.002903
3.260000E-8	0.002963
3.265000E-8	0.003069
3.270000E-8	0.002869
3.275000E-8	0.002741
3.280000E-8	0.002388
3.285000E-8	0.002053
3.290000E-8	0.001628
3.295000E-8	0.001222
3.300000E-8	0.000928
3.305000E-8	0.000600
3.310000E-8	0.000428
3.315000E-8	0.000428
3.320000E-8	0.000447
3.325000E-8	0.000634
3.330000E-8	0.000856
3.335000E-8	0.001253
3.340000E-8	0.001616
3.345000E-8	0.002016
3.350000E-8	0.002256
3.355000E-8	0.002538
3.360000E-8	0.002581
3.365000E-8	0.002634
3.370000E-8	0.002425
3.375000E-8	0.002297
3.380000E-8	0.001928
3.385000E-8	0.001531
3.390000E-8	0.001203
3.395000E-8	0.000913
3.400000E-8	0.000594
3.405000E-8	0.000506
3.410000E-8	0.000500
3.415000E-8	0.000688
3.420000E-8	0.000753
3.425000E-8	0.001109
3.430000E-8	0.001406
3.435000E-8	0.001703
3.440000E-8	0.002041
3.445000E-8	0.002309
3.450000E-8	0.002347
3.455000E-8	0.002494
3.460000E-8	0.002400
3.465000E-8	0.002231
3.470000E-8	0.001900
3.475000E-8	0.001797
3.480000E-8	0.001434
3.485000E-8	0.001134
3.490000E-8	0.000919
3.495000E-8	0.000909
3.500000E-8	0.000803
3.505000E-8	0.000844
3.510000E-8	0.001012
3.515000E-8	0.001328
3.520000E-8	0.001572
3.525000E-8	0.001869
3.530000E-8	0.002094
3.535000E-8	0.002278
3.540000E-8	0.002534
3.545000E-8	0.002606
3.550000E-8	0.002587
3.555000E-8	0.002512
3.560000E-8	0.002334
3.565000E-8	0.002031
3.570000E-8	0.001781
3.575000E-8	0.001481
3.580000E-8	0.001178
3.585000E-8	0.001041
3.590000E-8	0.001022
3.595000E-8	0.001069
3.600000E-8	0.001213
3.605000E-8	0.001319
3.610000E-8	0.001581
3.615000E-8	0.001834
3.620000E-8	0.002016
3.625000E-8	0.002213
3.630000E-8	0.002366
3.635000E-8	0.002569
3.640000E-8	0.002569
3.645000E-8	0.002425
3.650000E-8	0.002263
3.655000E-8	0.002041
3.660000E-8	0.001666
3.665000E-8	0.001375
3.670000E-8	0.001141
3.675000E-8	0.001038
3.680000E-8	0.000941
3.685000E-8	0.000928
3.690000E-8	0.000831
3.695000E-8	0.001069
3.700000E-8	0.001328
3.705000E-8	0.001516
3.710000E-8	0.001700
3.715000E-8	0.001997
3.720000E-8	0.002012
3.725000E-8	0.002281
3.730000E-8	0.002388
3.735000E-8	0.002316
3.740000E-8	0.002188
3.745000E-8	0.002153
3.750000E-8	0.002081
3.755000E-8	0.001859
3.760000E-8	0.001747
3.765000E-8	0.001397
3.770000E-8	0.001156
3.775000E-8	0.001034
3.780000E-8	0.000869
3.785000E-8	0.000994
3.790000E-8	0.001028
3.795000E-8	0.001278
3.800000E-8	0.001478
3.805000E-8	0.001713
3.810000E-8	0.001984
3.815000E-8	0.002338
3.820000E-8	0.002550
3.825000E-8	0.002666
3.830000E-8	0.002650
3.835000E-8	0.002606
3.840000E-8	0.002437
3.845000E-8	0.002153
3.850000E-8	0.001697
3.855000E-8	0.001578
3.860000E-8	0.001309
3.865000E-8	0.001194
3.870000E-8	0.000975
3.875000E-8	0.000953
3.880000E-8	0.000959
3.885000E-8	0.001066
3.890000E-8	0.001219
3.895000E-8	0.001519
3.900000E-8	0.001672
3.905000E-8	0.001966
3.910000E-8	0.002169
3.915000E-8	0.002153
3.920000E-8	0.002272
3.925000E-8	0.002381
3.930000E-8	0.002203
3.935000E-8	0.002056
3.940000E-8	0.001888
3.945000E-8	0.001706
3.950000E-8	0.001525
3.955000E-8	0.001322
3.960000E-8	0.000984
3.965000E-8	0.000934
3.970000E-8	0.000975
3.975000E-8	0.001000
3.980000E-8	0.001197
3.985000E-8	0.001294
3.990000E-8	0.001478
3.995000E-8	0.001816
4.000000E-8	0.002044
4.005000E-8	0.002306
4.010000E-8	0.002391
4.015000E-8	0.002534
4.020000E-8	0.002375
4.025000E-8	0.002250
4.030000E-8	0.002134
4.035000E-8	0.002078
4.040000E-8	0.001741
4.045000E-8	0.001578
4.050000E-8	0.001419
4.055000E-8	0.001250
4.060000E-8	0.001097
4.065000E-8	0.001116
4.070000E-8	0.001187
4.075000E-8	0.001309
4.080000E-8	0.001463
4.085000E-8	0.001738
4.090000E-8	0.001878
4.095000E-8	0.002156
4.100000E-8	0.002316
4.105000E-8	0.002450
4.110000E-8	0.002469
4.115000E-8	0.002550
4.120000E-8	0.002347
4.125000E-8	0.002138
4.130000E-8	0.001984
4.135000E-8	0.001813
4.140000E-8	0.001456
4.145000E-8	0.001450
4.150000E-8	0.001375
4.155000E-8	0.001347
4.160000E-8	0.001353
4.165000E-8	0.001628
4.170000E-8	0.001772
4.175000E-8	0.002050
4.180000E-8	0.002184
4.185000E-8	0.002425
4.190000E-8	0.002497
4.195000E-8	0.002597
4.200000E-8	0.002506
4.205000E-8	0.002494
4.210000E-8	0.002366
4.215000E-8	0.002100
4.220000E-8	0.001875
4.225000E-8	0.001741
4.230000E-8	0.001406
4.235000E-8	0.001284
4.240000E-8	0.001097
4.245000E-8	0.001047
4.250000E-8	0.000944
4.255000E-8	0.001056
4.260000E-8	0.001122
4.265000E-8	0.001309
4.270000E-8	0.001550
4.275000E-8	0.001884
4.280000E-8	0.002041
4.285000E-8	0.002344
4.290000E-8	0.002437
4.295000E-8	0.002556
4.300000E-8	0.002494
4.305000E-8	0.002419
4.310000E-8	0.002134
4.315000E-8	0.001866
4.320000E-8	0.001531
4.325000E-8	0.001300
4.330000E-8	0.000963
4.335000E-8	0.000934
4.340000E-8	0.000853
4.345000E-8	0.000900
4.350000E-8	0.001038
4.355000E-8	0.001184
4.360000E-8	0.001469
4.365000E-8	0.001772
4.370000E-8	0.001950
4.375000E-8	0.002294
4.380000E-8	0.002397
4.385000E-8	0.002409
4.390000E-8	0.002394
4.395000E-8	0.002247
4.400000E-8	0.002131
4.405000E-8	0.001916
4.410000E-8	0.001684
4.415000E-8	0.001444
4.420000E-8	0.001272
4.425000E-8	0.001175
4.430000E-8	0.001012
4.435000E-8	0.000997
4.440000E-8	0.001084
4.445000E-8	0.001169
4.450000E-8	0.001356
4.455000E-8	0.001584
4.460000E-8	0.001800
4.465000E-8	0.001991
4.470000E-8	0.002169
4.475000E-8	0.002344
4.480000E-8	0.002350
4.485000E-8	0.002425
4.490000E-8	0.002319
4.495000E-8	0.002394
4.500000E-8	0.002031
4.505000E-8	0.001916
4.510000E-8	0.001553
4.515000E-8	0.001366
4.520000E-8	0.001075
4.525000E-8	0.001006
4.530000E-8	0.000894
4.535000E-8	0.000938
4.540000E-8	0.000941
4.545000E-8	0.001150
4.550000E-8	0.001303
4.555000E-8	0.001525
4.560000E-8	0.001628
4.565000E-8	0.001928
4.570000E-8	0.002006
4.575000E-8	0.002203
4.580000E-8	0.002256
4.585000E-8	0.002159
4.590000E-8	0.002109
4.595000E-8	0.002000
4.600000E-8	0.001834
4.605000E-8	0.001559
4.610000E-8	0.001359
4.615000E-8	0.001253
4.620000E-8	0.001081
4.625000E-8	0.000994
4.630000E-8	0.000956
4.635000E-8	0.001169
4.640000E-8	0.001147
4.645000E-8	0.001353
4.650000E-8	0.001447
4.655000E-8	0.001697
4.660000E-8	0.001819
4.665000E-8	0.001991
4.670000E-8	0.001972
4.675000E-8	0.002009
4.680000E-8	0.001916
4.685000E-8	0.001888
4.690000E-8	0.001744
4.695000E-8	0.001528
4.700000E-8	0.001381
4.705000E-8	0.001294
4.710000E-8	0.001184
4.715000E-8	0.001362
4.720000E-8	0.001253
4.725000E-8	0.001259
4.730000E-8	0.001497
4.735000E-8	0.001819
4.740000E-8	0.001919
4.745000E-8	0.002113
4.750000E-8	0.002334
4.755000E-8	0.002406
4.760000E-8	0.002350
4.765000E-8	0.002509
4.770000E-8	0.002444
4.775000E-8	0.002400
4.780000E-8	0.002081
4.785000E-8	0.001828
4.790000E-8	0.001581
4.795000E-8	0.001459
4.800000E-8	0.001359
4.805000E-8	0.001231
4.810000E-8	0.001194
4.815000E-8	0.001297
4.820000E-8	0.001350
4.825000E-8	0.001669
4.830000E-8	0.001788
4.835000E-8	0.001991
4.840000E-8	0.002078
4.845000E-8	0.002191
4.850000E-8	0.002209
4.855000E-8	0.002191
4.860000E-8	0.002131
4.865000E-8	0.002031
4.870000E-8	0.001884
4.875000E-8	0.001653
4.880000E-8	0.001484
4.885000E-8	0.001350
4.890000E-8	0.001247
4.895000E-8	0.001263
4.900000E-8	0.001263
4.905000E-8	0.001263
4.910000E-8	0.001484
4.915000E-8	0.001719
4.920000E-8	0.001838
4.925000E-8	0.002197
4.930000E-8	0.002288
4.935000E-8	0.002472
4.940000E-8	0.002453
4.945000E-8	0.002431
4.950000E-8	0.002241
4.955000E-8	0.002153
4.960000E-8	0.001906
4.965000E-8	0.001747
4.970000E-8	0.001456
4.975000E-8	0.001413
4.980000E-8	0.001216
4.985000E-8	0.001206
4.990000E-8	0.001228
4.995000E-8	0.001306
5.000000E-8	0.001294
5.005000E-8	0.001428
5.010000E-8	0.001531
5.015000E-8	0.001697
5.020000E-8	0.001738
5.025000E-8	0.001944
5.030000E-8	0.001947
5.035000E-8	0.001966
5.040000E-8	0.001997
5.045000E-8	0.002022
5.050000E-8	0.001931
5.055000E-8	0.001956
5.060000E-8	0.001828
5.065000E-8	0.001806
5.070000E-8	0.001641
5.075000E-8	0.001619
5.080000E-8	0.001491
5.085000E-8	0.001372
5.090000E-8	0.001272
5.095000E-8	0.001306
5.100000E-8	0.001316
5.105000E-8	0.001394
5.110000E-8	0.001578
5.115000E-8	0.001741
5.120000E-8	0.001781
5.125000E-8	0.001922
5.130000E-8	0.002094
5.135000E-8	0.002178
5.140000E-8	0.002144
5.145000E-8	0.002147
5.150000E-8	0.001984
5.155000E-8	0.001863
5.160000E-8	0.001634
5.165000E-8	0.001519
5.170000E-8	0.001406
5.175000E-8	0.001231
5.180000E-8	0.001216
5.185000E-8	0.001206
5.190000E-8	0.001306
5.195000E-8	0.001453
5.200000E-8	0.001522
5.205000E-8	0.001850
5.210000E-8	0.002050
5.215000E-8	0.002134
5.220000E-8	0.002237
5.225000E-8	0.002288
5.230000E-8	0.002241
5.235000E-8	0.002234
5.240000E-8	0.002147
5.245000E-8	0.002038
5.250000E-8	0.001794
5.255000E-8	0.001638
5.260000E-8	0.001522
5.265000E-8	0.001406
5.270000E-8	0.001300
5.275000E-8	0.001394
5.280000E-8	0.001344
5.285000E-8	0.001434
5.290000E-8	0.001513
5.295000E-8	0.001544
5.300000E-8	0.001566
5.305000E-8	0.001675
5.310000E-8	0.001672
5.315000E-8	0.001678
5.320000E-8	0.001628
5.325000E-8	0.001731
5.330000E-8	0.001578
5.335000E-8	0.001500
5.340000E-8	0.001466
5.345000E-8	0.001425
5.350000E-8	0.001259
5.355000E-8	0.001316
5.360000E-8	0.001144
5.365000E-8	0.001203
5.370000E-8	0.001300
5.375000E-8	0.001400
5.380000E-8	0.001456
5.385000E-8	0.001619
5.390000E-8	0.001628
5.395000E-8	0.001788
5.400000E-8	0.001913
5.405000E-8	0.002072
5.410000E-8	0.002078
5.415000E-8	0.002172
5.420000E-8	0.002047
5.425000E-8	0.002078
5.430000E-8	0.001969
5.435000E-8	0.001872
5.440000E-8	0.001703
5.445000E-8	0.001594
5.450000E-8	0.001453
5.455000E-8	0.001366
5.460000E-8	0.001272
5.465000E-8	0.001216
5.470000E-8	0.001281
5.475000E-8	0.001425
5.480000E-8	0.001522
5.485000E-8	0.001687
5.490000E-8	0.001713
5.495000E-8	0.001847
5.500000E-8	0.001969
5.505000E-8	0.002069
5.510000E-8	0.001897
5.515000E-8	0.002009
5.520000E-8	0.001934
5.525000E-8	0.001894
5.530000E-8	0.001713
5.535000E-8	0.001616
5.540000E-8	0.001422
5.545000E-8	0.001347
5.550000E-8	0.001259
5.555000E-8	0.001250
5.560000E-8	0.001119
5.565000E-8	0.001309
5.570000E-8	0.001322
5.575000E-8	0.001484
5.580000E-8	0.001563
5.585000E-8	0.001788
5.590000E-8	0.001916
5.595000E-8	0.002075
5.600000E-8	0.002072
5.605000E-8	0.002075
5.610000E-8	0.001972
5.615000E-8	0.001931
5.620000E-8	0.001778
5.625000E-8	0.001550
5.630000E-8	0.001362
5.635000E-8	0.001200
5.640000E-8	0.001050
5.645000E-8	0.001019
5.650000E-8	0.000891
5.655000E-8	0.001075
5.660000E-8	0.001191
5.665000E-8	0.001425
5.670000E-8	0.001513
5.675000E-8	0.001603
5.680000E-8	0.001728
5.685000E-8	0.001828
5.690000E-8	0.001944
5.695000E-8	0.002006
5.700000E-8	0.001913
5.705000E-8	0.001834
5.710000E-8	0.001594
5.715000E-8	0.001456
5.720000E-8	0.001356
5.725000E-8	0.001309
5.730000E-8	0.001222
5.735000E-8	0.001156
5.740000E-8	0.001178
5.745000E-8	0.001200
5.750000E-8	0.001134
5.755000E-8	0.001353
5.760000E-8	0.001428
5.765000E-8	0.001631
5.770000E-8	0.001791
5.775000E-8	0.001966
5.780000E-8	0.002019
5.785000E-8	0.001975
5.790000E-8	0.002047
5.795000E-8	0.002100
5.800000E-8	0.002081
5.805000E-8	0.001950
5.810000E-8	0.001813
5.815000E-8	0.001759
5.820000E-8	0.001522
5.825000E-8	0.001463
5.830000E-8	0.001441
5.835000E-8	0.001534
5.840000E-8	0.001559
5.845000E-8	0.001581
5.850000E-8	0.001691
5.855000E-8	0.001844
5.860000E-8	0.001866
5.865000E-8	0.002159
5.870000E-8	0.002147
5.875000E-8	0.002359
5.880000E-8	0.002300
5.885000E-8	0.002325
5.890000E-8	0.002306
5.895000E-8	0.002200
5.900000E-8	0.001934
5.905000E-8	0.001888
5.910000E-8	0.001634
5.915000E-8	0.001575
5.920000E-8	0.001388
5.925000E-8	0.001306
5.930000E-8	0.001175
5.935000E-8	0.001184
5.940000E-8	0.001178
5.945000E-8	0.001184
5.950000E-8	0.001334
5.955000E-8	0.001481
5.960000E-8	0.001597
5.965000E-8	0.001703
5.970000E-8	0.001800
5.975000E-8	0.001903
5.980000E-8	0.001841
5.985000E-8	0.001728
5.990000E-8	0.001741
5.995000E-8	0.001522
6.000000E-8	0.001409
6.005000E-8	0.001144
6.010000E-8	0.000888
6.015000E-8	0.000922
6.020000E-8	0.000769
6.025000E-8	0.001059
6.030000E-8	0.001066
6.035000E-8	0.001306
6.040000E-8	0.001484
6.045000E-8	0.001672
6.050000E-8	0.001750
6.055000E-8	0.001881
6.060000E-8	0.001822
6.065000E-8	0.001831
6.070000E-8	0.001794
6.075000E-8	0.001831
6.080000E-8	0.001666
6.085000E-8	0.001594
6.090000E-8	0.001397
6.095000E-8	0.001419
6.100000E-8	0.001372
6.105000E-8	0.001378
6.110000E-8	0.001403
6.115000E-8	0.001353
6.120000E-8	0.001275
6.125000E-8	0.001341
6.130000E-8	0.001331
6.135000E-8	0.001391
6.140000E-8	0.001434
6.145000E-8	0.001559
6.150000E-8	0.001622
6.155000E-8	0.001687
6.160000E-8	0.001716
6.165000E-8	0.001738
6.170000E-8	0.001866
6.175000E-8	0.001788
6.180000E-8	0.001672
6.185000E-8	0.001653
6.190000E-8	0.001678
6.195000E-8	0.001641
6.200000E-8	0.001475
6.205000E-8	0.001316
6.210000E-8	0.001394
6.215000E-8	0.001453
6.220000E-8	0.001431
6.225000E-8	0.001578
6.230000E-8	0.001669
6.235000E-8	0.001694
6.240000E-8	0.001725
6.245000E-8	0.001822
6.250000E-8	0.001847
6.255000E-8	0.001991
6.260000E-8	0.001834
6.265000E-8	0.001947
6.270000E-8	0.001694
6.275000E-8	0.001813
6.280000E-8	0.001719
6.285000E-8	0.001663
6.290000E-8	0.001506
6.295000E-8	0.001581
6.300000E-8	0.001481
6.305000E-8	0.001656
6.310000E-8	0.001644
6.315000E-8	0.001672
6.320000E-8	0.001713
6.325000E-8	0.001741
6.330000E-8	0.001744
6.335000E-8	0.001903
6.340000E-8	0.001937
6.345000E-8	0.001975
6.350000E-8	0.001950
6.355000E-8	0.001928
6.360000E-8	0.001772
6.365000E-8	0.001769
6.370000E-8	0.001625
6.375000E-8	0.001544
6.380000E-8	0.001394
6.385000E-8	0.001428
6.390000E-8	0.001400
6.395000E-8	0.001406
6.400000E-8	0.001263
6.405000E-8	0.001381
6.410000E-8	0.001459
6.415000E-8	0.001700
6.420000E-8	0.001856
6.425000E-8	0.001853
6.430000E-8	0.001844
6.435000E-8	0.001972
6.440000E-8	0.001831
6.445000E-8	0.001844
6.450000E-8	0.001775
6.455000E-8	0.001628
6.460000E-8	0.001475
6.465000E-8	0.001437
6.470000E-8	0.001384
6.475000E-8	0.001300
6.480000E-8	0.001144
6.485000E-8	0.001197
6.490000E-8	0.001203
6.495000E-8	0.001219
6.500000E-8	0.001328
6.505000E-8	0.001481
6.510000E-8	0.001484
6.515000E-8	0.001600
6.520000E-8	0.001713
6.525000E-8	0.001822
6.530000E-8	0.001909
6.535000E-8	0.001831
6.540000E-8	0.001800
6.545000E-8	0.001809
6.550000E-8	0.001753
6.555000E-8	0.001628
6.560000E-8	0.001450
6.565000E-8	0.001469
6.570000E-8	0.001303
6.575000E-8	0.001394
6.580000E-8	0.001281
6.585000E-8	0.001369
6.590000E-8	0.001450
6.595000E-8	0.001522
6.600000E-8	0.001572
6.605000E-8	0.001728
6.610000E-8	0.001850
6.615000E-8	0.002003
6.620000E-8	0.001969
6.625000E-8	0.001894
6.630000E-8	0.001884
6.635000E-8	0.001847
6.640000E-8	0.001738
6.645000E-8	0.001691
6.650000E-8	0.001516
6.655000E-8	0.001488
6.660000E-8	0.001325
6.665000E-8	0.001431
6.670000E-8	0.001388
6.675000E-8	0.001403
6.680000E-8	0.001441
6.685000E-8	0.001566
6.690000E-8	0.001681
6.695000E-8	0.001700
6.700000E-8	0.001784
6.705000E-8	0.002028
6.710000E-8	0.001978
6.715000E-8	0.002003
6.720000E-8	0.001794
6.725000E-8	0.001725
6.730000E-8	0.001659
6.735000E-8	0.001569
6.740000E-8	0.001425
6.745000E-8	0.001397
6.750000E-8	0.001400
6.755000E-8	0.001456
6.760000E-8	0.001509
6.765000E-8	0.001519
6.770000E-8	0.001372
6.775000E-8	0.001503
6.780000E-8	0.001441
6.785000E-8	0.001503
6.790000E-8	0.001531
6.795000E-8	0.001600
6.800000E-8	0.001609
6.805000E-8	0.001738
6.810000E-8	0.001681
6.815000E-8	0.001844
6.820000E-8	0.001856
6.825000E-8	0.002006
6.830000E-8	0.001884
6.835000E-8	0.001881
6.840000E-8	0.001738
6.845000E-8	0.001697
6.850000E-8	0.001553
6.855000E-8	0.001588
6.860000E-8	0.001456
6.865000E-8	0.001469
6.870000E-8	0.001416
6.875000E-8	0.001591
6.880000E-8	0.001616
6.885000E-8	0.001753
6.890000E-8	0.001828
6.895000E-8	0.001994
6.900000E-8	0.001994
6.905000E-8	0.002016
6.910000E-8	0.002034
6.915000E-8	0.002059
6.920000E-8	0.001984
6.925000E-8	0.001822
6.930000E-8	0.001622
6.935000E-8	0.001556
6.940000E-8	0.001322
6.945000E-8	0.001369
6.950000E-8	0.001388
6.955000E-8	0.001384
6.960000E-8	0.001388
6.965000E-8	0.001544
6.970000E-8	0.001600
6.975000E-8	0.001747
6.980000E-8	0.001863
6.985000E-8	0.002019
6.990000E-8	0.002134
6.995000E-8	0.002228
7.000000E-8	0.002141
7.005000E-8	0.002113
7.010000E-8	0.001878
7.015000E-8	0.001825
7.020000E-8	0.001559
7.025000E-8	0.001397
7.030000E-8	0.001184
7.035000E-8	0.001088
7.040000E-8	0.000956
7.045000E-8	0.000903
7.050000E-8	0.000884
7.055000E-8	0.001081
7.060000E-8	0.001238
7.065000E-8	0.001378
7.070000E-8	0.001478
7.075000E-8	0.001706
7.080000E-8	0.001694
7.085000E-8	0.001781
7.090000E-8	0.001803
7.095000E-8	0.001813
7.100000E-8	0.001856
7.105000E-8	0.001881
7.110000E-8	0.001894
7.115000E-8	0.001869
7.120000E-8	0.001731
7.125000E-8	0.001728
7.130000E-8	0.001728
7.135000E-8	0.001769
7.140000E-8	0.001744
7.145000E-8	0.001766
7.150000E-8	0.001747
7.155000E-8	0.001791
7.160000E-8	0.001778
7.165000E-8	0.001919
7.170000E-8	0.001844
7.175000E-8	0.001966
7.180000E-8	0.001994
7.185000E-8	0.002053
7.190000E-8	0.002041
7.195000E-8	0.002047
7.200000E-8	0.001991
7.205000E-8	0.001975
7.210000E-8	0.001847
7.215000E-8	0.001884
7.220000E-8	0.001747
7.225000E-8	0.001734
7.230000E-8	0.001619
7.235000E-8	0.001531
7.240000E-8	0.001400
7.245000E-8	0.001447
7.250000E-8	0.001500
7.255000E-8	0.001497
7.260000E-8	0.001538
7.265000E-8	0.001678
7.270000E-8	0.001663
7.275000E-8	0.001756
7.280000E-8	0.001759
7.285000E-8	0.001831
7.290000E-8	0.001794
7.295000E-8	0.001903
7.300000E-8	0.001859
7.305000E-8	0.001794
7.310000E-8	0.001675
7.315000E-8	0.001578
7.320000E-8	0.001456
7.325000E-8	0.001403
7.330000E-8	0.001397
7.335000E-8	0.001466
7.340000E-8	0.001475
7.345000E-8	0.001544
7.350000E-8	0.001669
7.355000E-8	0.001866
7.360000E-8	0.001872
7.365000E-8	0.002087
7.370000E-8	0.002050
7.375000E-8	0.002100
7.380000E-8	0.002122
7.385000E-8	0.002134
7.390000E-8	0.002081
7.395000E-8	0.002106
7.400000E-8	0.001844
7.405000E-8	0.001756
7.410000E-8	0.001631
7.415000E-8	0.001631
7.420000E-8	0.001597
7.425000E-8	0.001603
7.430000E-8	0.001666
7.435000E-8	0.001722
7.440000E-8	0.001744
7.445000E-8	0.001841
7.450000E-8	0.001878
7.455000E-8	0.001900
7.460000E-8	0.001872
7.465000E-8	0.001778
7.470000E-8	0.001647
7.475000E-8	0.001631
7.480000E-8	0.001550
7.485000E-8	0.001428
7.490000E-8	0.001425
7.495000E-8	0.001344
7.500000E-8	0.001256
7.505000E-8	0.001238
7.510000E-8	0.001184
7.515000E-8	0.001272
7.520000E-8	0.001200
7.525000E-8	0.001306
7.530000E-8	0.001334
7.535000E-8	0.001413
7.540000E-8	0.001466
7.545000E-8	0.001572
7.550000E-8	0.001588
7.555000E-8	0.001644
7.560000E-8	0.001756
7.565000E-8	0.001806
7.570000E-8	0.001734
7.575000E-8	0.001775
7.580000E-8	0.001694
7.585000E-8	0.001706
7.590000E-8	0.001675
7.595000E-8	0.001550
7.600000E-8	0.001413
7.605000E-8	0.001325
7.610000E-8	0.001259
7.615000E-8	0.001384
7.620000E-8	0.001350
7.625000E-8	0.001359
7.630000E-8	0.001488
7.635000E-8	0.001559
7.640000E-8	0.001566
7.645000E-8	0.001606
7.650000E-8	0.001588
7.655000E-8	0.001569
7.660000E-8	0.001534
7.665000E-8	0.001472
7.670000E-8	0.001469
7.675000E-8	0.001425
7.680000E-8	0.001431
7.685000E-8	0.001466
7.690000E-8	0.001466
7.695000E-8	0.001516
7.700000E-8	0.001606
7.705000E-8	0.001625
7.710000E-8	0.001594
7.715000E-8	0.001641
7.720000E-8	0.001634
7.725000E-8	0.001569
7.730000E-8	0.001584
7.735000E-8	0.001603
7.740000E-8	0.001650
7.745000E-8	0.001634
7.750000E-8	0.001663
7.755000E-8	0.001747
7.760000E-8	0.001744
7.765000E-8	0.001753
7.770000E-8	0.001653
7.775000E-8	0.001653
7.780000E-8	0.001588
7.785000E-8	0.001525
7.790000E-8	0.001459
7.795000E-8	0.001528
7.800000E-8	0.001500
7.805000E-8	0.001441
7.810000E-8	0.001353
7.815000E-8	0.001522
7.820000E-8	0.001603
7.825000E-8	0.001675
7.830000E-8	0.001675
7.835000E-8	0.001763
7.840000E-8	0.001647
7.845000E-8	0.001669
7.850000E-8	0.001650
7.855000E-8	0.001606
7.860000E-8	0.001456
7.865000E-8	0.001478
7.870000E-8	0.001356
7.875000E-8	0.001350
7.880000E-8	0.001244
7.885000E-8	0.001344
7.890000E-8	0.001328
7.895000E-8	0.001369
7.900000E-8	0.001369
7.905000E-8	0.001422
7.910000E-8	0.001453
7.915000E-8	0.001488
7.920000E-8	0.001469
7.925000E-8	0.001609
7.930000E-8	0.001628
7.935000E-8	0.001666
7.940000E-8	0.001666
7.945000E-8	0.001691
7.950000E-8	0.001672
7.955000E-8	0.001684
7.960000E-8	0.001494
7.965000E-8	0.001466
7.970000E-8	0.001328
7.975000E-8	0.001303
7.980000E-8	0.001284
7.985000E-8	0.001303
7.990000E-8	0.001300
7.995000E-8	0.001309
8.000000E-8	0.001344
8.005000E-8	0.001506
8.010000E-8	0.001491
8.015000E-8	0.001575
8.020000E-8	0.001597
8.025000E-8	0.001581
8.030000E-8	0.001603
8.035000E-8	0.001591
8.040000E-8	0.001563
8.045000E-8	0.001659
8.050000E-8	0.001703
8.055000E-8	0.001687
8.060000E-8	0.001616
8.065000E-8	0.001675
8.070000E-8	0.001612
8.075000E-8	0.001659
8.080000E-8	0.001638
8.085000E-8	0.001697
8.090000E-8	0.001650
8.095000E-8	0.001728
8.100000E-8	0.001663
8.105000E-8	0.001966
8.110000E-8	0.001963
8.115000E-8	0.002031
8.120000E-8	0.001897
8.125000E-8	0.001803
8.130000E-8	0.001756
8.135000E-8	0.001731
8.140000E-8	0.001584
8.145000E-8	0.001631
8.150000E-8	0.001500
8.155000E-8	0.001538
8.160000E-8	0.001441
8.165000E-8	0.001609
8.170000E-8	0.001616
8.175000E-8	0.001725
8.180000E-8	0.001772
8.185000E-8	0.001788
8.190000E-8	0.001784
8.195000E-8	0.001891
8.200000E-8	0.001816
8.205000E-8	0.001769
8.210000E-8	0.001738
8.215000E-8	0.001797
8.220000E-8	0.001669
8.225000E-8	0.001709
8.230000E-8	0.001625
8.235000E-8	0.001584
8.240000E-8	0.001544
8.245000E-8	0.001666
8.250000E-8	0.001494
8.255000E-8	0.001491
8.260000E-8	0.001484
8.265000E-8	0.001547
8.270000E-8	0.001478
8.275000E-8	0.001469
8.280000E-8	0.001434
8.285000E-8	0.001397
8.290000E-8	0.001437
8.295000E-8	0.001547
8.300000E-8	0.001659
8.305000E-8	0.001853
8.310000E-8	0.001838
8.315000E-8	0.001872
8.320000E-8	0.001819
8.325000E-8	0.001784
8.330000E-8	0.001794
8.335000E-8	0.001709
8.340000E-8	0.001644
8.345000E-8	0.001569
8.350000E-8	0.001475
8.355000E-8	0.001453
8.360000E-8	0.001494
8.365000E-8	0.001559
8.370000E-8	0.001569
8.375000E-8	0.001697
8.380000E-8	0.001725
8.385000E-8	0.001856
8.390000E-8	0.001875
8.395000E-8	0.001966
8.400000E-8	0.001988
8.405000E-8	0.002019
8.410000E-8	0.001906
8.415000E-8	0.001897
8.420000E-8	0.001738
8.425000E-8	0.001584
8.430000E-8	0.001575
8.435000E-8	0.001616
8.440000E-8	0.001513
8.445000E-8	0.001472
8.450000E-8	0.001519
8.455000E-8	0.001616
8.460000E-8	0.001494
8.465000E-8	0.001631
8.470000E-8	0.001713
8.475000E-8	0.001709
8.480000E-8	0.001625
8.485000E-8	0.001828
8.490000E-8	0.001775
8.495000E-8	0.001825
8.500000E-8	0.001794
8.505000E-8	0.001853
8.510000E-8	0.001756
8.515000E-8	0.001759
8.520000E-8	0.001622
8.525000E-8	0.001541
8.530000E-8	0.001531
8.535000E-8	0.001547
8.540000E-8	0.001388
8.545000E-8	0.001406
8.550000E-8	0.001428
8.555000E-8	0.001444
8.560000E-8	0.001497
8.565000E-8	0.001563
8.570000E-8	0.001525
8.575000E-8	0.001653
8.580000E-8	0.001628
8.585000E-8	0.001741
8.590000E-8	0.001797
8.595000E-8	0.001806
8.600000E-8	0.001653
8.605000E-8	0.001641
8.610000E-8	0.001591
8.615000E-8	0.001569
8.620000E-8	0.001531
8.625000E-8	0.001522
8.630000E-8	0.001484
8.635000E-8	0.001459
8.640000E-8	0.001384
8.645000E-8	0.001453
8.650000E-8	0.001559
8.655000E-8	0.001541
8.660000E-8	0.001659
8.665000E-8	0.001706
8.670000E-8	0.001541
8.675000E-8	0.001619
8.680000E-8	0.001516
8.685000E-8	0.001663
8.690000E-8	0.001656
8.695000E-8	0.001753
8.700000E-8	0.001719
8.705000E-8	0.001813
8.710000E-8	0.001750
8.715000E-8	0.001863
8.720000E-8	0.001766
8.725000E-8	0.001809
8.730000E-8	0.001741
8.735000E-8	0.001838
8.740000E-8	0.001759
8.745000E-8	0.001703
8.750000E-8	0.001700
8.755000E-8	0.001566
8.760000E-8	0.001559
8.765000E-8	0.001541
8.770000E-8	0.001456
8.775000E-8	0.001453
8.780000E-8	0.001597
8.785000E-8	0.001578
8.790000E-8	0.001569
8.795000E-8	0.001584
8.800000E-8	0.001566
8.805000E-8	0.001456
8.810000E-8	0.001509
8.815000E-8	0.001519
8.820000E-8	0.001519
8.825000E-8	0.001506
8.830000E-8	0.001400
8.835000E-8	0.001534
8.840000E-8	0.001547
8.845000E-8	0.001541
8.850000E-8	0.001550
8.855000E-8	0.001541
8.860000E-8	0.001588
8.865000E-8	0.001575
8.870000E-8	0.001641
8.875000E-8	0.001619
8.880000E-8	0.001609
8.885000E-8	0.001741
8.890000E-8	0.001706
8.895000E-8	0.001684
8.900000E-8	0.001666
8.905000E-8	0.001675
8.910000E-8	0.001669
8.915000E-8	0.001547
8.920000E-8	0.001459
8.925000E-8	0.001525
8.930000E-8	0.001419
8.935000E-8	0.001531
8.940000E-8	0.001566
8.945000E-8	0.001469
8.950000E-8	0.001519
8.955000E-8	0.001709
8.960000E-8	0.001719
8.965000E-8	0.001803
8.970000E-8	0.001806
8.975000E-8	0.001822
8.980000E-8	0.001731
8.985000E-8	0.001728
8.990000E-8	0.001706
8.995000E-8	0.001744
9.000000E-8	0.001687
9.005000E-8	0.001488
9.010000E-8	0.001522
9.015000E-8	0.001528
9.020000E-8	0.001425
9.025000E-8	0.001547
9.030000E-8	0.001659
9.035000E-8	0.001600
9.040000E-8	0.001550
9.045000E-8	0.001634
9.050000E-8	0.001659
9.055000E-8	0.001669
9.060000E-8	0.001709
9.065000E-8	0.001763
9.070000E-8	0.001756
9.075000E-8	0.001813
9.080000E-8	0.001713
9.085000E-8	0.001834
9.090000E-8	0.001734
9.095000E-8	0.001663
9.100000E-8	0.001666
9.105000E-8	0.001738
9.110000E-8	0.001631
9.115000E-8	0.001719
9.120000E-8	0.001700
9.125000E-8	0.001750
9.130000E-8	0.001694
9.135000E-8	0.001581
9.140000E-8	0.001569
9.145000E-8	0.001706
9.150000E-8	0.001666
9.155000E-8	0.001788
9.160000E-8	0.001641
9.165000E-8	0.001700
9.170000E-8	0.001625
9.175000E-8	0.001600
9.180000E-8	0.001700
9.185000E-8	0.001687
9.190000E-8	0.001634
9.195000E-8	0.001697
9.200000E-8	0.001619
9.205000E-8	0.001597
9.210000E-8	0.001575
9.215000E-8	0.001687
9.220000E-8	0.001609
9.225000E-8	0.001594
9.230000E-8	0.001663
9.235000E-8	0.001897
9.240000E-8	0.001803
9.245000E-8	0.001931
9.250000E-8	0.001944
9.255000E-8	0.001937
9.260000E-8	0.001884
9.265000E-8	0.001937
9.270000E-8	0.001913
9.275000E-8	0.001863
9.280000E-8	0.001922
9.285000E-8	0.001913
9.290000E-8	0.001794
9.295000E-8	0.001831
9.300000E-8	0.001884
9.305000E-8	0.001853
9.310000E-8	0.001853
9.315000E-8	0.001800
9.320000E-8	0.001769
9.325000E-8	0.001641
9.330000E-8	0.001622
9.335000E-8	0.001738
9.340000E-8	0.001656
9.345000E-8	0.001681
9.350000E-8	0.001634
9.355000E-8	0.001741
9.360000E-8	0.001656
9.365000E-8	0.001841
9.370000E-8	0.001847
9.375000E-8	0.001909
9.380000E-8	0.001922
9.385000E-8	0.001850
9.390000E-8	0.001784
9.395000E-8	0.001844
9.400000E-8	0.001759
9.405000E-8	0.001669
9.410000E-8	0.001647
9.415000E-8	0.001603
9.420000E-8	0.001506
9.425000E-8	0.001672
9.430000E-8	0.001559
9.435000E-8	0.001500
9.440000E-8	0.001519
9.445000E-8	0.001606
9.450000E-8	0.001509
9.455000E-8	0.001594
9.460000E-8	0.001419
9.465000E-8	0.001381
9.470000E-8	0.001372
9.475000E-8	0.001422
9.480000E-8	0.001347
9.485000E-8	0.001406
9.490000E-8	0.001603
9.495000E-8	0.001719
9.500000E-8	0.001766
9.505000E-8	0.001888
9.510000E-8	0.001906
9.515000E-8	0.001925
9.520000E-8	0.001825
9.525000E-8	0.001788
9.530000E-8	0.001816
9.535000E-8	0.001706
9.540000E-8	0.001631
9.545000E-8	0.001513
9.550000E-8	0.001509
9.555000E-8	0.001569
9.560000E-8	0.001591
9.565000E-8	0.001588
9.570000E-8	0.001556
9.575000E-8	0.001653
9.580000E-8	0.001591
9.585000E-8	0.001650
9.590000E-8	0.001425
9.595000E-8	0.001381
9.600000E-8	0.001369
9.605000E-8	0.001425
9.610000E-8	0.001503
9.615000E-8	0.001437
9.620000E-8	0.001422
9.625000E-8	0.001503
9.630000E-8	0.001459
9.635000E-8	0.001634
9.640000E-8	0.001428
9.645000E-8	0.001488
9.650000E-8	0.001475
9.655000E-8	0.001481
9.660000E-8	0.001369
9.665000E-8	0.001475
9.670000E-8	0.001294
9.675000E-8	0.001266
9.680000E-8	0.001200
9.685000E-8	0.001244
9.690000E-8	0.001203
9.695000E-8	0.001291
9.700000E-8	0.001416
9.705000E-8	0.001509
9.710000E-8	0.001625
9.715000E-8	0.001859
9.720000E-8	0.001809
9.725000E-8	0.001897
9.730000E-8	0.001794
9.735000E-8	0.001825
9.740000E-8	0.001734
9.745000E-8	0.001672
9.750000E-8	0.001588
9.755000E-8	0.001444
9.760000E-8	0.001428
9.765000E-8	0.001388
9.770000E-8	0.001247
9.775000E-8	0.001269
9.780000E-8	0.001341
9.785000E-8	0.001369
9.790000E-8	0.001288
9.795000E-8	0.001334
9.800000E-8	0.001338
9.805000E-8	0.001494
9.810000E-8	0.001431
9.815000E-8	0.001503
9.820000E-8	0.001500
9.825000E-8	0.001441
9.830000E-8	0.001456
9.835000E-8	0.001541
9.840000E-8	0.001444
9.845000E-8	0.001622
9.850000E-8	0.001625
9.855000E-8	0.001675
9.860000E-8	0.001700
9.865000E-8	0.001863
9.870000E-8	0.001772
9.875000E-8	0.001816
9.880000E-8	0.001819
9.885000E-8	0.001856
9.890000E-8	0.001841
9.895000E-8	0.001884
9.900000E-8	0.001706
9.905000E-8	0.001684
9.910000E-8	0.001769
9.915000E-8	0.001863
9.920000E-8	0.001766
9.925000E-8	0.001797
9.930000E-8	0.001659
9.935000E-8	0.001728
9.940000E-8	0.001697
9.945000E-8	0.001719
9.950000E-8	0.001672
9.955000E-8	0.001769
9.960000E-8	0.001750
9.965000E-8	0.001784
9.970000E-8	0.001800
9.975000E-8	0.001881
9.980000E-8	0.001903
9.985000E-8	0.001931
9.990000E-8	0.001850
9.995000E-8	0.001969
