LabVIEW Measurement	
Writer_Version	2
Reader_Version	2
Separator	Tab
Decimal_Separator	.
Multi_Headings	No
X_Columns	Multi
Time_Pref	Relative
Operator	TG lab
Date	2015/03/07
Time	10:51:16.1182360649108886719
***End_of_Header***	
	
Channels	1	
Samples	2000	
Date	2015/03/07	
Time	10:51:16.1182360649108886719	
X_Dimension	Time	
X0	0.0000000000000000E+0	
Delta_X	5.000000E-11	
***End_of_Header***		
X_Value	Untitled	Comment
0.000000	0.001869
5.000000E-11	0.001941
1.000000E-10	0.001931
1.500000E-10	0.001894
2.000000E-10	0.001838
2.500000E-10	0.001831
3.000000E-10	0.001800
3.500000E-10	0.001859
4.000000E-10	0.001741
4.500000E-10	0.001844
5.000000E-10	0.001850
5.500000E-10	0.001878
6.000000E-10	0.001831
6.500000E-10	0.001981
7.000000E-10	0.001984
7.500000E-10	0.002091
8.000000E-10	0.002097
8.500000E-10	0.002144
9.000000E-10	0.002228
9.500000E-10	0.002269
1.000000E-9	0.002122
1.050000E-9	0.002072
1.100000E-9	0.002003
1.150000E-9	0.002100
1.200000E-9	0.002028
1.250000E-9	0.001869
1.300000E-9	0.001806
1.350000E-9	0.001797
1.400000E-9	0.001825
1.450000E-9	0.001934
1.500000E-9	0.001972
1.550000E-9	0.002025
1.600000E-9	0.001919
1.650000E-9	0.002069
1.700000E-9	0.002188
1.750000E-9	0.002219
1.800000E-9	0.002325
1.850000E-9	0.002478
1.900000E-9	0.002459
1.950000E-9	0.002475
2.000000E-9	0.002441
2.050000E-9	0.002469
2.100000E-9	0.002478
2.150000E-9	0.002366
2.200000E-9	0.002213
2.250000E-9	0.002175
2.300000E-9	0.002159
2.350000E-9	0.002206
2.400000E-9	0.002138
2.450000E-9	0.002109
2.500000E-9	0.002147
2.550000E-9	0.002231
2.600000E-9	0.002169
2.650000E-9	0.002294
2.700000E-9	0.002356
2.750000E-9	0.002494
2.800000E-9	0.002572
2.850000E-9	0.002497
2.900000E-9	0.002547
2.950000E-9	0.002597
3.000000E-9	0.002547
3.050000E-9	0.002638
3.100000E-9	0.002522
3.150000E-9	0.002628
3.200000E-9	0.002447
3.250000E-9	0.002509
3.300000E-9	0.002431
3.350000E-9	0.002428
3.400000E-9	0.002469
3.450000E-9	0.002428
3.500000E-9	0.002466
3.550000E-9	0.002491
3.600000E-9	0.002597
3.650000E-9	0.002684
3.700000E-9	0.002684
3.750000E-9	0.002784
3.800000E-9	0.002850
3.850000E-9	0.002869
3.900000E-9	0.002981
3.950000E-9	0.003078
4.000000E-9	0.003228
4.050000E-9	0.003291
4.100000E-9	0.003331
4.150000E-9	0.003531
4.200000E-9	0.003716
4.250000E-9	0.004000
4.300000E-9	0.004222
4.350000E-9	0.004516
4.400000E-9	0.004913
4.450000E-9	0.005338
4.500000E-9	0.005719
4.550000E-9	0.006291
4.600000E-9	0.006984
4.650000E-9	0.007722
4.700000E-9	0.008578
4.750000E-9	0.009591
4.800000E-9	0.010659
4.850000E-9	0.011891
4.900000E-9	0.013125
4.950000E-9	0.014291
5.000000E-9	0.015519
5.050000E-9	0.016969
5.100000E-9	0.018356
5.150000E-9	0.019756
5.200000E-9	0.021078
5.250000E-9	0.022438
5.300000E-9	0.023794
5.350000E-9	0.025019
5.400000E-9	0.025781
5.450000E-9	0.026409
5.500000E-9	0.026625
5.550000E-9	0.026622
5.600000E-9	0.026119
5.650000E-9	0.025331
5.700000E-9	0.024172
5.750000E-9	0.022666
5.800000E-9	0.021078
5.850000E-9	0.019531
5.900000E-9	0.018016
5.950000E-9	0.016719
6.000000E-9	0.015822
6.050000E-9	0.015156
6.100000E-9	0.014806
6.150000E-9	0.014909
6.200000E-9	0.015291
6.250000E-9	0.015828
6.300000E-9	0.016447
6.350000E-9	0.016953
6.400000E-9	0.017338
6.450000E-9	0.017525
6.500000E-9	0.017341
6.550000E-9	0.016834
6.600000E-9	0.016072
6.650000E-9	0.015066
6.700000E-9	0.013703
6.750000E-9	0.012412
6.800000E-9	0.011063
6.850000E-9	0.009950
6.900000E-9	0.009050
6.950000E-9	0.008369
7.000000E-9	0.008056
7.050000E-9	0.008253
7.100000E-9	0.008500
7.150000E-9	0.009053
7.200000E-9	0.009772
7.250000E-9	0.010431
7.300000E-9	0.011097
7.350000E-9	0.011628
7.400000E-9	0.011750
7.450000E-9	0.011784
7.500000E-9	0.011416
7.550000E-9	0.010744
7.600000E-9	0.009903
7.650000E-9	0.008897
7.700000E-9	0.007734
7.750000E-9	0.006766
7.800000E-9	0.005722
7.850000E-9	0.005153
7.900000E-9	0.004766
7.950000E-9	0.004694
8.000000E-9	0.004866
8.050000E-9	0.005309
8.100000E-9	0.005981
8.150000E-9	0.006809
8.200000E-9	0.007594
8.250000E-9	0.008328
8.300000E-9	0.008684
8.350000E-9	0.008950
8.400000E-9	0.008950
8.450000E-9	0.008622
8.500000E-9	0.007991
8.550000E-9	0.007047
8.600000E-9	0.006000
8.650000E-9	0.004884
8.700000E-9	0.003750
8.750000E-9	0.002844
8.800000E-9	0.002369
8.850000E-9	0.002034
8.900000E-9	0.001991
8.950000E-9	0.002316
9.000000E-9	0.003000
9.050000E-9	0.003797
9.100000E-9	0.004503
9.150000E-9	0.005384
9.200000E-9	0.006059
9.250000E-9	0.006678
9.300000E-9	0.006863
9.350000E-9	0.006744
9.400000E-9	0.006416
9.450000E-9	0.005816
9.500000E-9	0.004944
9.550000E-9	0.004106
9.600000E-9	0.003150
9.650000E-9	0.002453
9.700000E-9	0.001709
9.750000E-9	0.001313
9.800000E-9	0.001181
9.850000E-9	0.001413
9.900000E-9	0.001803
9.950000E-9	0.002381
1.000000E-8	0.003259
1.005000E-8	0.004169
1.010000E-8	0.004916
1.015000E-8	0.005581
1.020000E-8	0.005969
1.025000E-8	0.006219
1.030000E-8	0.006003
1.035000E-8	0.005681
1.040000E-8	0.004972
1.045000E-8	0.004144
1.050000E-8	0.003238
1.055000E-8	0.002281
1.060000E-8	0.001494
1.065000E-8	0.000997
1.070000E-8	0.000625
1.075000E-8	0.000684
1.080000E-8	0.000981
1.085000E-8	0.001519
1.090000E-8	0.002291
1.095000E-8	0.003113
1.100000E-8	0.003913
1.105000E-8	0.004706
1.110000E-8	0.005363
1.115000E-8	0.005747
1.120000E-8	0.005747
1.125000E-8	0.005594
1.130000E-8	0.005116
1.135000E-8	0.004347
1.140000E-8	0.003516
1.145000E-8	0.002709
1.150000E-8	0.001694
1.155000E-8	0.001063
1.160000E-8	0.000544
1.165000E-8	0.000353
1.170000E-8	0.000378
1.175000E-8	0.000753
1.180000E-8	0.001141
1.185000E-8	0.001806
1.190000E-8	0.002600
1.195000E-8	0.003450
1.200000E-8	0.004141
1.205000E-8	0.004613
1.210000E-8	0.004747
1.215000E-8	0.004797
1.220000E-8	0.004441
1.225000E-8	0.003894
1.230000E-8	0.003147
1.235000E-8	0.002331
1.240000E-8	0.001541
1.245000E-8	0.000859
1.250000E-8	0.000228
1.255000E-8	-7.812500E-5
1.260000E-8	-0.000153
1.265000E-8	0.000181
1.270000E-8	0.000688
1.275000E-8	0.001419
1.280000E-8	0.002222
1.285000E-8	0.003028
1.290000E-8	0.003597
1.295000E-8	0.004200
1.300000E-8	0.004522
1.305000E-8	0.004553
1.310000E-8	0.004272
1.315000E-8	0.003962
1.320000E-8	0.003466
1.325000E-8	0.002822
1.330000E-8	0.002050
1.335000E-8	0.001334
1.340000E-8	0.000578
1.345000E-8	0.000222
1.350000E-8	-0.000106
1.355000E-8	-3.125000E-6
1.360000E-8	0.000300
1.365000E-8	0.000734
1.370000E-8	0.001388
1.375000E-8	0.002100
1.380000E-8	0.002825
1.385000E-8	0.003550
1.390000E-8	0.004109
1.395000E-8	0.004441
1.400000E-8	0.004359
1.405000E-8	0.004288
1.410000E-8	0.003838
1.415000E-8	0.003363
1.420000E-8	0.002597
1.425000E-8	0.001925
1.430000E-8	0.001166
1.435000E-8	0.000678
1.440000E-8	0.000275
1.445000E-8	6.250000E-5
1.450000E-8	3.750000E-5
1.455000E-8	0.000441
1.460000E-8	0.000800
1.465000E-8	0.001378
1.470000E-8	0.001991
1.475000E-8	0.002713
1.480000E-8	0.003281
1.485000E-8	0.003697
1.490000E-8	0.003816
1.495000E-8	0.004003
1.500000E-8	0.003706
1.505000E-8	0.003309
1.510000E-8	0.002684
1.515000E-8	0.001944
1.520000E-8	0.001303
1.525000E-8	0.000731
1.530000E-8	0.000150
1.535000E-8	-0.000150
1.540000E-8	-0.000284
1.545000E-8	-5.937500E-5
1.550000E-8	0.000341
1.555000E-8	0.000963
1.560000E-8	0.001684
1.565000E-8	0.002363
1.570000E-8	0.003119
1.575000E-8	0.003528
1.580000E-8	0.003747
1.585000E-8	0.004006
1.590000E-8	0.003891
1.595000E-8	0.003625
1.600000E-8	0.003106
1.605000E-8	0.002547
1.610000E-8	0.001822
1.615000E-8	0.001184
1.620000E-8	0.000719
1.625000E-8	0.000338
1.630000E-8	-3.750000E-5
1.635000E-8	9.375000E-5
1.640000E-8	0.000266
1.645000E-8	0.000747
1.650000E-8	0.001316
1.655000E-8	0.001922
1.660000E-8	0.002497
1.665000E-8	0.003141
1.670000E-8	0.003500
1.675000E-8	0.003906
1.680000E-8	0.003925
1.685000E-8	0.003878
1.690000E-8	0.003503
1.695000E-8	0.002953
1.700000E-8	0.002297
1.705000E-8	0.001606
1.710000E-8	0.000813
1.715000E-8	0.000250
1.720000E-8	-0.000200
1.725000E-8	-0.000313
1.730000E-8	-6.875000E-5
1.735000E-8	6.875000E-5
1.740000E-8	0.000628
1.745000E-8	0.001353
1.750000E-8	0.002016
1.755000E-8	0.002816
1.760000E-8	0.003472
1.765000E-8	0.003944
1.770000E-8	0.004081
1.775000E-8	0.004100
1.780000E-8	0.003856
1.785000E-8	0.003250
1.790000E-8	0.002563
1.795000E-8	0.001791
1.800000E-8	0.001016
1.805000E-8	0.000438
1.810000E-8	-5.000000E-5
1.815000E-8	-0.000356
1.820000E-8	-0.000428
1.825000E-8	-0.000116
1.830000E-8	0.000281
1.835000E-8	0.000853
1.840000E-8	0.001531
1.845000E-8	0.002291
1.850000E-8	0.002856
1.855000E-8	0.003422
1.860000E-8	0.003869
1.865000E-8	0.004016
1.870000E-8	0.003853
1.875000E-8	0.003669
1.880000E-8	0.003125
1.885000E-8	0.002669
1.890000E-8	0.002075
1.895000E-8	0.001413
1.900000E-8	0.000825
1.905000E-8	0.000497
1.910000E-8	0.000188
1.915000E-8	0.000197
1.920000E-8	0.000447
1.925000E-8	0.000831
1.930000E-8	0.001256
1.935000E-8	0.001841
1.940000E-8	0.002406
1.945000E-8	0.002894
1.950000E-8	0.003263
1.955000E-8	0.003509
1.960000E-8	0.003481
1.965000E-8	0.003350
1.970000E-8	0.002931
1.975000E-8	0.002497
1.980000E-8	0.001978
1.985000E-8	0.001294
1.990000E-8	0.000737
1.995000E-8	0.000338
2.000000E-8	8.750000E-5
2.005000E-8	-9.375000E-5
2.010000E-8	3.125000E-5
2.015000E-8	0.000328
2.020000E-8	0.000753
2.025000E-8	0.001291
2.030000E-8	0.001706
2.035000E-8	0.002328
2.040000E-8	0.002822
2.045000E-8	0.003162
2.050000E-8	0.003225
2.055000E-8	0.003456
2.060000E-8	0.003131
2.065000E-8	0.002800
2.070000E-8	0.002313
2.075000E-8	0.001863
2.080000E-8	0.001328
2.085000E-8	0.000759
2.090000E-8	0.000216
2.095000E-8	9.375000E-6
2.100000E-8	0.000000
2.105000E-8	2.500000E-5
2.110000E-8	0.000219
2.115000E-8	0.000678
2.120000E-8	0.001059
2.125000E-8	0.001741
2.130000E-8	0.002284
2.135000E-8	0.002716
2.140000E-8	0.002988
2.145000E-8	0.003222
2.150000E-8	0.003103
2.155000E-8	0.002847
2.160000E-8	0.002544
2.165000E-8	0.002103
2.170000E-8	0.001522
2.175000E-8	0.001031
2.180000E-8	0.000519
2.185000E-8	0.000100
2.190000E-8	3.125000E-6
2.195000E-8	3.125000E-6
2.200000E-8	0.000150
2.205000E-8	0.000556
2.210000E-8	0.001009
2.215000E-8	0.001541
2.220000E-8	0.002106
2.225000E-8	0.002631
2.230000E-8	0.002963
2.235000E-8	0.003372
2.240000E-8	0.003375
2.245000E-8	0.003409
2.250000E-8	0.003138
2.255000E-8	0.002616
2.260000E-8	0.002128
2.265000E-8	0.001641
2.270000E-8	0.001184
2.275000E-8	0.000816
2.280000E-8	0.000609
2.285000E-8	0.000478
2.290000E-8	0.000581
2.295000E-8	0.000778
2.300000E-8	0.001053
2.305000E-8	0.001538
2.310000E-8	0.002038
2.315000E-8	0.002538
2.320000E-8	0.002906
2.325000E-8	0.003216
2.330000E-8	0.003381
2.335000E-8	0.003431
2.340000E-8	0.003266
2.345000E-8	0.002919
2.350000E-8	0.002444
2.355000E-8	0.001947
2.360000E-8	0.001366
2.365000E-8	0.000775
2.370000E-8	0.000412
2.375000E-8	0.000297
2.380000E-8	0.000119
2.385000E-8	0.000247
2.390000E-8	0.000516
2.395000E-8	0.000913
2.400000E-8	0.001272
2.405000E-8	0.001819
2.410000E-8	0.002325
2.415000E-8	0.002719
2.420000E-8	0.003094
2.425000E-8	0.003188
2.430000E-8	0.002988
2.435000E-8	0.002784
2.440000E-8	0.002422
2.445000E-8	0.001966
2.450000E-8	0.001356
2.455000E-8	0.000959
2.460000E-8	0.000550
2.465000E-8	0.000300
2.470000E-8	0.000259
2.475000E-8	0.000384
2.480000E-8	0.000547
2.485000E-8	0.000950
2.490000E-8	0.001419
2.495000E-8	0.001975
2.500000E-8	0.002416
2.505000E-8	0.002844
2.510000E-8	0.003147
2.515000E-8	0.003303
2.520000E-8	0.003322
2.525000E-8	0.003075
2.530000E-8	0.002753
2.535000E-8	0.002447
2.540000E-8	0.001969
2.545000E-8	0.001644
2.550000E-8	0.001166
2.555000E-8	0.000953
2.560000E-8	0.000634
2.565000E-8	0.000612
2.570000E-8	0.000656
2.575000E-8	0.000869
2.580000E-8	0.001059
2.585000E-8	0.001494
2.590000E-8	0.001906
2.595000E-8	0.002325
2.600000E-8	0.002575
2.605000E-8	0.003047
2.610000E-8	0.003153
2.615000E-8	0.003191
2.620000E-8	0.002991
2.625000E-8	0.002819
2.630000E-8	0.002494
2.635000E-8	0.002072
2.640000E-8	0.001659
2.645000E-8	0.001338
2.650000E-8	0.001003
2.655000E-8	0.000872
2.660000E-8	0.000756
2.665000E-8	0.000713
2.670000E-8	0.000944
2.675000E-8	0.001334
2.680000E-8	0.001538
2.685000E-8	0.001869
2.690000E-8	0.002113
2.695000E-8	0.002316
2.700000E-8	0.002572
2.705000E-8	0.002644
2.710000E-8	0.002678
2.715000E-8	0.002600
2.720000E-8	0.002416
2.725000E-8	0.002272
2.730000E-8	0.001794
2.735000E-8	0.001722
2.740000E-8	0.001350
2.745000E-8	0.001038
2.750000E-8	0.000863
2.755000E-8	0.000763
2.760000E-8	0.000728
2.765000E-8	0.000800
2.770000E-8	0.001088
2.775000E-8	0.001328
2.780000E-8	0.001591
2.785000E-8	0.001978
2.790000E-8	0.002244
2.795000E-8	0.002556
2.800000E-8	0.002547
2.805000E-8	0.002556
2.810000E-8	0.002413
2.815000E-8	0.002091
2.820000E-8	0.001725
2.825000E-8	0.001469
2.830000E-8	0.001194
2.835000E-8	0.001009
2.840000E-8	0.000788
2.845000E-8	0.000675
2.850000E-8	0.000706
2.855000E-8	0.000819
2.860000E-8	0.001131
2.865000E-8	0.001441
2.870000E-8	0.001763
2.875000E-8	0.002106
2.880000E-8	0.002413
2.885000E-8	0.002603
2.890000E-8	0.002719
2.895000E-8	0.002813
2.900000E-8	0.002609
2.905000E-8	0.002484
2.910000E-8	0.002153
2.915000E-8	0.001744
2.920000E-8	0.001313
2.925000E-8	0.001131
2.930000E-8	0.000944
2.935000E-8	0.000706
2.940000E-8	0.000678
2.945000E-8	0.000747
2.950000E-8	0.000825
2.955000E-8	0.001100
2.960000E-8	0.001453
2.965000E-8	0.001753
2.970000E-8	0.002025
2.975000E-8	0.002381
2.980000E-8	0.002641
2.985000E-8	0.002828
2.990000E-8	0.002859
2.995000E-8	0.002778
3.000000E-8	0.002509
3.005000E-8	0.002281
3.010000E-8	0.001944
3.015000E-8	0.001616
3.020000E-8	0.001256
3.025000E-8	0.001066
3.030000E-8	0.000775
3.035000E-8	0.000628
3.040000E-8	0.000684
3.045000E-8	0.000803
3.050000E-8	0.001000
3.055000E-8	0.001297
3.060000E-8	0.001747
3.065000E-8	0.002200
3.070000E-8	0.002437
3.075000E-8	0.002737
3.080000E-8	0.002931
3.085000E-8	0.003109
3.090000E-8	0.003094
3.095000E-8	0.002922
3.100000E-8	0.002566
3.105000E-8	0.002244
3.110000E-8	0.001794
3.115000E-8	0.001434
3.120000E-8	0.000997
3.125000E-8	0.000844
3.130000E-8	0.000669
3.135000E-8	0.000759
3.140000E-8	0.000913
3.145000E-8	0.001253
3.150000E-8	0.001600
3.155000E-8	0.002050
3.160000E-8	0.002372
3.165000E-8	0.002722
3.170000E-8	0.002981
3.175000E-8	0.003156
3.180000E-8	0.003006
3.185000E-8	0.002806
3.190000E-8	0.002503
3.195000E-8	0.002272
3.200000E-8	0.001750
3.205000E-8	0.001334
3.210000E-8	0.001009
3.215000E-8	0.000788
3.220000E-8	0.000537
3.225000E-8	0.000638
3.230000E-8	0.000828
3.235000E-8	0.001075
3.240000E-8	0.001444
3.245000E-8	0.001859
3.250000E-8	0.002041
3.255000E-8	0.002313
3.260000E-8	0.002509
3.265000E-8	0.002578
3.270000E-8	0.002469
3.275000E-8	0.002372
3.280000E-8	0.002138
3.285000E-8	0.001850
3.290000E-8	0.001497
3.295000E-8	0.001253
3.300000E-8	0.000944
3.305000E-8	0.000834
3.310000E-8	0.000791
3.315000E-8	0.000891
3.320000E-8	0.001025
3.325000E-8	0.001209
3.330000E-8	0.001406
3.335000E-8	0.001703
3.340000E-8	0.001931
3.345000E-8	0.002213
3.350000E-8	0.002366
3.355000E-8	0.002569
3.360000E-8	0.002459
3.365000E-8	0.002466
3.370000E-8	0.002353
3.375000E-8	0.002188
3.380000E-8	0.001909
3.385000E-8	0.001734
3.390000E-8	0.001369
3.395000E-8	0.001259
3.400000E-8	0.001022
3.405000E-8	0.001019
3.410000E-8	0.001209
3.415000E-8	0.001269
3.420000E-8	0.001484
3.425000E-8	0.001728
3.430000E-8	0.002138
3.435000E-8	0.002372
3.440000E-8	0.002709
3.445000E-8	0.002838
3.450000E-8	0.002888
3.455000E-8	0.002897
3.460000E-8	0.002819
3.465000E-8	0.002647
3.470000E-8	0.002347
3.475000E-8	0.002034
3.480000E-8	0.001619
3.485000E-8	0.001397
3.490000E-8	0.001156
3.495000E-8	0.001088
3.500000E-8	0.001050
3.505000E-8	0.001116
3.510000E-8	0.001291
3.515000E-8	0.001428
3.520000E-8	0.001778
3.525000E-8	0.002034
3.530000E-8	0.002237
3.535000E-8	0.002469
3.540000E-8	0.002569
3.545000E-8	0.002713
3.550000E-8	0.002684
3.555000E-8	0.002788
3.560000E-8	0.002628
3.565000E-8	0.002600
3.570000E-8	0.002375
3.575000E-8	0.002122
3.580000E-8	0.001834
3.585000E-8	0.001719
3.590000E-8	0.001563
3.595000E-8	0.001447
3.600000E-8	0.001381
3.605000E-8	0.001425
3.610000E-8	0.001519
3.615000E-8	0.001669
3.620000E-8	0.001747
3.625000E-8	0.002066
3.630000E-8	0.002159
3.635000E-8	0.002378
3.640000E-8	0.002372
3.645000E-8	0.002591
3.650000E-8	0.002566
3.655000E-8	0.002478
3.660000E-8	0.002241
3.665000E-8	0.001984
3.670000E-8	0.001594
3.675000E-8	0.001384
3.680000E-8	0.001084
3.685000E-8	0.000925
3.690000E-8	0.000869
3.695000E-8	0.000922
3.700000E-8	0.000966
3.705000E-8	0.001366
3.710000E-8	0.001547
3.715000E-8	0.001756
3.720000E-8	0.001816
3.725000E-8	0.002050
3.730000E-8	0.002375
3.735000E-8	0.002441
3.740000E-8	0.002347
3.745000E-8	0.002425
3.750000E-8	0.002200
3.755000E-8	0.001994
3.760000E-8	0.001719
3.765000E-8	0.001575
3.770000E-8	0.001316
3.775000E-8	0.001166
3.780000E-8	0.001053
3.785000E-8	0.001053
3.790000E-8	0.001213
3.795000E-8	0.001391
3.800000E-8	0.001644
3.805000E-8	0.001937
3.810000E-8	0.002081
3.815000E-8	0.002231
3.820000E-8	0.002328
3.825000E-8	0.002528
3.830000E-8	0.002478
3.835000E-8	0.002525
3.840000E-8	0.002447
3.845000E-8	0.002297
3.850000E-8	0.002097
3.855000E-8	0.001834
3.860000E-8	0.001631
3.865000E-8	0.001603
3.870000E-8	0.001350
3.875000E-8	0.001362
3.880000E-8	0.001356
3.885000E-8	0.001469
3.890000E-8	0.001531
3.895000E-8	0.001672
3.900000E-8	0.001716
3.905000E-8	0.001881
3.910000E-8	0.002041
3.915000E-8	0.002316
3.920000E-8	0.002356
3.925000E-8	0.002437
3.930000E-8	0.002372
3.935000E-8	0.002191
3.940000E-8	0.002028
3.945000E-8	0.001831
3.950000E-8	0.001544
3.955000E-8	0.001325
3.960000E-8	0.001047
3.965000E-8	0.000969
3.970000E-8	0.000972
3.975000E-8	0.000997
3.980000E-8	0.001112
3.985000E-8	0.001253
3.990000E-8	0.001503
3.995000E-8	0.001919
4.000000E-8	0.002231
4.005000E-8	0.002391
4.010000E-8	0.002591
4.015000E-8	0.002688
4.020000E-8	0.002656
4.025000E-8	0.002672
4.030000E-8	0.002375
4.035000E-8	0.002172
4.040000E-8	0.001828
4.045000E-8	0.001631
4.050000E-8	0.001300
4.055000E-8	0.001056
4.060000E-8	0.000994
4.065000E-8	0.001181
4.070000E-8	0.001166
4.075000E-8	0.001378
4.080000E-8	0.001581
4.085000E-8	0.001759
4.090000E-8	0.002047
4.095000E-8	0.002206
4.100000E-8	0.002472
4.105000E-8	0.002497
4.110000E-8	0.002512
4.115000E-8	0.002444
4.120000E-8	0.002309
4.125000E-8	0.002063
4.130000E-8	0.001841
4.135000E-8	0.001488
4.140000E-8	0.001266
4.145000E-8	0.001094
4.150000E-8	0.001009
4.155000E-8	0.000916
4.160000E-8	0.000969
4.165000E-8	0.001078
4.170000E-8	0.001369
4.175000E-8	0.001650
4.180000E-8	0.001822
4.185000E-8	0.002081
4.190000E-8	0.002347
4.195000E-8	0.002506
4.200000E-8	0.002681
4.205000E-8	0.002587
4.210000E-8	0.002606
4.215000E-8	0.002469
4.220000E-8	0.002284
4.225000E-8	0.002162
4.230000E-8	0.001875
4.235000E-8	0.001622
4.240000E-8	0.001328
4.245000E-8	0.001300
4.250000E-8	0.001256
4.255000E-8	0.001325
4.260000E-8	0.001219
4.265000E-8	0.001406
4.270000E-8	0.001572
4.275000E-8	0.001738
4.280000E-8	0.001872
4.285000E-8	0.002078
4.290000E-8	0.002069
4.295000E-8	0.002278
4.300000E-8	0.002184
4.305000E-8	0.002366
4.310000E-8	0.002216
4.315000E-8	0.002147
4.320000E-8	0.002006
4.325000E-8	0.001834
4.330000E-8	0.001725
4.335000E-8	0.001669
4.340000E-8	0.001625
4.345000E-8	0.001488
4.350000E-8	0.001356
4.355000E-8	0.001397
4.360000E-8	0.001575
4.365000E-8	0.001753
4.370000E-8	0.001981
4.375000E-8	0.002141
4.380000E-8	0.002228
4.385000E-8	0.002469
4.390000E-8	0.002447
4.395000E-8	0.002587
4.400000E-8	0.002422
4.405000E-8	0.002281
4.410000E-8	0.002091
4.415000E-8	0.001975
4.420000E-8	0.001769
4.425000E-8	0.001497
4.430000E-8	0.001341
4.435000E-8	0.001187
4.440000E-8	0.001106
4.445000E-8	0.001250
4.450000E-8	0.001347
4.455000E-8	0.001472
4.460000E-8	0.001659
4.465000E-8	0.001919
4.470000E-8	0.001966
4.475000E-8	0.002200
4.480000E-8	0.002244
4.485000E-8	0.002228
4.490000E-8	0.002184
4.495000E-8	0.002059
4.500000E-8	0.001763
4.505000E-8	0.001744
4.510000E-8	0.001434
4.515000E-8	0.001319
4.520000E-8	0.001144
4.525000E-8	0.001066
4.530000E-8	0.001050
4.535000E-8	0.001128
4.540000E-8	0.001200
4.545000E-8	0.001481
4.550000E-8	0.001572
4.555000E-8	0.001822
4.560000E-8	0.001769
4.565000E-8	0.001937
4.570000E-8	0.002006
4.575000E-8	0.001969
4.580000E-8	0.001891
4.585000E-8	0.001844
4.590000E-8	0.001744
4.595000E-8	0.001669
4.600000E-8	0.001469
4.605000E-8	0.001403
4.610000E-8	0.001284
4.615000E-8	0.001231
4.620000E-8	0.001034
4.625000E-8	0.001009
4.630000E-8	0.001059
4.635000E-8	0.001184
4.640000E-8	0.001362
4.645000E-8	0.001619
4.650000E-8	0.001922
4.655000E-8	0.002072
4.660000E-8	0.002341
4.665000E-8	0.002353
4.670000E-8	0.002350
4.675000E-8	0.002288
4.680000E-8	0.002091
4.685000E-8	0.002059
4.690000E-8	0.001825
4.695000E-8	0.001719
4.700000E-8	0.001522
4.705000E-8	0.001456
4.710000E-8	0.001334
4.715000E-8	0.001453
4.720000E-8	0.001434
4.725000E-8	0.001578
4.730000E-8	0.001591
4.735000E-8	0.001716
4.740000E-8	0.001788
4.745000E-8	0.001953
4.750000E-8	0.001956
4.755000E-8	0.002234
4.760000E-8	0.002206
4.765000E-8	0.002203
4.770000E-8	0.002044
4.775000E-8	0.001803
4.780000E-8	0.001728
4.785000E-8	0.001569
4.790000E-8	0.001341
4.795000E-8	0.001234
4.800000E-8	0.001094
4.805000E-8	0.001116
4.810000E-8	0.001097
4.815000E-8	0.001169
4.820000E-8	0.001234
4.825000E-8	0.001488
4.830000E-8	0.001641
4.835000E-8	0.001825
4.840000E-8	0.002019
4.845000E-8	0.002109
4.850000E-8	0.002194
4.855000E-8	0.002266
4.860000E-8	0.002231
4.865000E-8	0.002028
4.870000E-8	0.001847
4.875000E-8	0.001822
4.880000E-8	0.001600
4.885000E-8	0.001497
4.890000E-8	0.001362
4.895000E-8	0.001250
4.900000E-8	0.001153
4.905000E-8	0.001372
4.910000E-8	0.001500
4.915000E-8	0.001581
4.920000E-8	0.001709
4.925000E-8	0.001841
4.930000E-8	0.002059
4.935000E-8	0.002184
4.940000E-8	0.002284
4.945000E-8	0.002384
4.950000E-8	0.002344
4.955000E-8	0.002344
4.960000E-8	0.002244
4.965000E-8	0.002103
4.970000E-8	0.001916
4.975000E-8	0.001772
4.980000E-8	0.001556
4.985000E-8	0.001572
4.990000E-8	0.001478
4.995000E-8	0.001431
5.000000E-8	0.001431
5.005000E-8	0.001469
5.010000E-8	0.001606
5.015000E-8	0.001816
5.020000E-8	0.001941
5.025000E-8	0.002116
5.030000E-8	0.002200
5.035000E-8	0.002191
5.040000E-8	0.002175
5.045000E-8	0.002241
5.050000E-8	0.002275
5.055000E-8	0.002125
5.060000E-8	0.002053
5.065000E-8	0.002009
5.070000E-8	0.001825
5.075000E-8	0.001847
5.080000E-8	0.001678
5.085000E-8	0.001625
5.090000E-8	0.001612
5.095000E-8	0.001628
5.100000E-8	0.001578
5.105000E-8	0.001666
5.110000E-8	0.001747
5.115000E-8	0.001891
5.120000E-8	0.002000
5.125000E-8	0.002188
5.130000E-8	0.002209
5.135000E-8	0.002237
5.140000E-8	0.002188
5.145000E-8	0.002153
5.150000E-8	0.002044
5.155000E-8	0.002028
5.160000E-8	0.001694
5.165000E-8	0.001597
5.170000E-8	0.001397
5.175000E-8	0.001209
5.180000E-8	0.001197
5.185000E-8	0.001197
5.190000E-8	0.001266
5.195000E-8	0.001434
5.200000E-8	0.001716
5.205000E-8	0.002003
5.210000E-8	0.002097
5.215000E-8	0.002225
5.220000E-8	0.002394
5.225000E-8	0.002484
5.230000E-8	0.002413
5.235000E-8	0.002306
5.240000E-8	0.002113
5.245000E-8	0.001978
5.250000E-8	0.001753
5.255000E-8	0.001569
5.260000E-8	0.001306
5.265000E-8	0.001206
5.270000E-8	0.001216
5.275000E-8	0.001350
5.280000E-8	0.001431
5.285000E-8	0.001541
5.290000E-8	0.001747
5.295000E-8	0.001944
5.300000E-8	0.001963
5.305000E-8	0.002184
5.310000E-8	0.002259
5.315000E-8	0.002437
5.320000E-8	0.002359
5.325000E-8	0.002269
5.330000E-8	0.002191
5.335000E-8	0.002034
5.340000E-8	0.001844
5.345000E-8	0.001622
5.350000E-8	0.001513
5.355000E-8	0.001447
5.360000E-8	0.001194
5.365000E-8	0.001163
5.370000E-8	0.001119
5.375000E-8	0.001178
5.380000E-8	0.001391
5.385000E-8	0.001609
5.390000E-8	0.001763
5.395000E-8	0.001891
5.400000E-8	0.002056
5.405000E-8	0.002256
5.410000E-8	0.002253
5.415000E-8	0.002241
5.420000E-8	0.002197
5.425000E-8	0.002162
5.430000E-8	0.002031
5.435000E-8	0.001944
5.440000E-8	0.001769
5.445000E-8	0.001684
5.450000E-8	0.001631
5.455000E-8	0.001506
5.460000E-8	0.001456
5.465000E-8	0.001422
5.470000E-8	0.001334
5.475000E-8	0.001506
5.480000E-8	0.001497
5.485000E-8	0.001641
5.490000E-8	0.001831
5.495000E-8	0.001941
5.500000E-8	0.002059
5.505000E-8	0.002284
5.510000E-8	0.002303
5.515000E-8	0.002356
5.520000E-8	0.002266
5.525000E-8	0.002181
5.530000E-8	0.001953
5.535000E-8	0.001944
5.540000E-8	0.001697
5.545000E-8	0.001675
5.550000E-8	0.001525
5.555000E-8	0.001528
5.560000E-8	0.001569
5.565000E-8	0.001547
5.570000E-8	0.001641
5.575000E-8	0.001841
5.580000E-8	0.002031
5.585000E-8	0.002184
5.590000E-8	0.002300
5.595000E-8	0.002300
5.600000E-8	0.002263
5.605000E-8	0.002281
5.610000E-8	0.002063
5.615000E-8	0.002025
5.620000E-8	0.001869
5.625000E-8	0.001588
5.630000E-8	0.001503
5.635000E-8	0.001356
5.640000E-8	0.001256
5.645000E-8	0.001303
5.650000E-8	0.001247
5.655000E-8	0.001284
5.660000E-8	0.001381
5.665000E-8	0.001488
5.670000E-8	0.001631
5.675000E-8	0.001803
5.680000E-8	0.001953
5.685000E-8	0.002100
5.690000E-8	0.002156
5.695000E-8	0.002284
5.700000E-8	0.002237
5.705000E-8	0.002275
5.710000E-8	0.002244
5.715000E-8	0.002097
5.720000E-8	0.001941
5.725000E-8	0.001778
5.730000E-8	0.001687
5.735000E-8	0.001581
5.740000E-8	0.001566
5.745000E-8	0.001566
5.750000E-8	0.001519
5.755000E-8	0.001603
5.760000E-8	0.001656
5.765000E-8	0.001897
5.770000E-8	0.002094
5.775000E-8	0.002209
5.780000E-8	0.002384
5.785000E-8	0.002450
5.790000E-8	0.002472
5.795000E-8	0.002341
5.800000E-8	0.002341
5.805000E-8	0.002253
5.810000E-8	0.002041
5.815000E-8	0.001813
5.820000E-8	0.001612
5.825000E-8	0.001559
5.830000E-8	0.001519
5.835000E-8	0.001509
5.840000E-8	0.001397
5.845000E-8	0.001684
5.850000E-8	0.001900
5.855000E-8	0.002019
5.860000E-8	0.002063
5.865000E-8	0.002166
5.870000E-8	0.002300
5.875000E-8	0.002369
5.880000E-8	0.002325
5.885000E-8	0.002169
5.890000E-8	0.001963
5.895000E-8	0.001872
5.900000E-8	0.001778
5.905000E-8	0.001541
5.910000E-8	0.001228
5.915000E-8	0.001294
5.920000E-8	0.001134
5.925000E-8	0.001194
5.930000E-8	0.001238
5.935000E-8	0.001397
5.940000E-8	0.001534
5.945000E-8	0.001700
5.950000E-8	0.001838
5.955000E-8	0.001919
5.960000E-8	0.002078
5.965000E-8	0.002194
5.970000E-8	0.002291
5.975000E-8	0.002297
5.980000E-8	0.002209
5.985000E-8	0.002175
5.990000E-8	0.002097
5.995000E-8	0.001997
6.000000E-8	0.001909
6.005000E-8	0.001738
6.010000E-8	0.001522
6.015000E-8	0.001513
6.020000E-8	0.001509
6.025000E-8	0.001563
6.030000E-8	0.001519
6.035000E-8	0.001663
6.040000E-8	0.001631
6.045000E-8	0.001794
6.050000E-8	0.001863
6.055000E-8	0.002097
6.060000E-8	0.002259
6.065000E-8	0.002353
6.070000E-8	0.002378
6.075000E-8	0.002494
6.080000E-8	0.002422
6.085000E-8	0.002406
6.090000E-8	0.002188
6.095000E-8	0.001988
6.100000E-8	0.001797
6.105000E-8	0.001741
6.110000E-8	0.001563
6.115000E-8	0.001541
6.120000E-8	0.001625
6.125000E-8	0.001769
6.130000E-8	0.001863
6.135000E-8	0.002025
6.140000E-8	0.002097
6.145000E-8	0.002128
6.150000E-8	0.002019
6.155000E-8	0.002138
6.160000E-8	0.002003
6.165000E-8	0.001953
6.170000E-8	0.001878
6.175000E-8	0.001803
6.180000E-8	0.001691
6.185000E-8	0.001563
6.190000E-8	0.001434
6.195000E-8	0.001362
6.200000E-8	0.001284
6.205000E-8	0.001297
6.210000E-8	0.001303
6.215000E-8	0.001216
6.220000E-8	0.001288
6.225000E-8	0.001469
6.230000E-8	0.001553
6.235000E-8	0.001744
6.240000E-8	0.001756
6.245000E-8	0.001925
6.250000E-8	0.002097
6.255000E-8	0.002059
6.260000E-8	0.002006
6.265000E-8	0.002047
6.270000E-8	0.001916
6.275000E-8	0.001853
6.280000E-8	0.001791
6.285000E-8	0.001675
6.290000E-8	0.001506
6.295000E-8	0.001456
6.300000E-8	0.001369
6.305000E-8	0.001469
6.310000E-8	0.001409
6.315000E-8	0.001563
6.320000E-8	0.001731
6.325000E-8	0.001784
6.330000E-8	0.002025
6.335000E-8	0.002169
6.340000E-8	0.002200
6.345000E-8	0.002156
6.350000E-8	0.002181
6.355000E-8	0.002084
6.360000E-8	0.002100
6.365000E-8	0.002091
6.370000E-8	0.001906
6.375000E-8	0.001784
6.380000E-8	0.001559
6.385000E-8	0.001559
6.390000E-8	0.001556
6.395000E-8	0.001503
6.400000E-8	0.001503
6.405000E-8	0.001566
6.410000E-8	0.001622
6.415000E-8	0.001672
6.420000E-8	0.001678
6.425000E-8	0.001750
6.430000E-8	0.001828
6.435000E-8	0.001916
6.440000E-8	0.001950
6.445000E-8	0.001925
6.450000E-8	0.001866
6.455000E-8	0.001819
6.460000E-8	0.001678
6.465000E-8	0.001572
6.470000E-8	0.001475
6.475000E-8	0.001459
6.480000E-8	0.001359
6.485000E-8	0.001353
6.490000E-8	0.001309
6.495000E-8	0.001416
6.500000E-8	0.001509
6.505000E-8	0.001681
6.510000E-8	0.001769
6.515000E-8	0.001806
6.520000E-8	0.001853
6.525000E-8	0.001828
6.530000E-8	0.001884
6.535000E-8	0.001822
6.540000E-8	0.001700
6.545000E-8	0.001691
6.550000E-8	0.001659
6.555000E-8	0.001544
6.560000E-8	0.001600
6.565000E-8	0.001575
6.570000E-8	0.001444
6.575000E-8	0.001497
6.580000E-8	0.001631
6.585000E-8	0.001638
6.590000E-8	0.001744
6.595000E-8	0.001888
6.600000E-8	0.002019
6.605000E-8	0.002225
6.610000E-8	0.002228
6.615000E-8	0.002300
6.620000E-8	0.002297
6.625000E-8	0.002281
6.630000E-8	0.002241
6.635000E-8	0.002156
6.640000E-8	0.002009
6.645000E-8	0.001903
6.650000E-8	0.001694
6.655000E-8	0.001553
6.660000E-8	0.001450
6.665000E-8	0.001472
6.670000E-8	0.001409
6.675000E-8	0.001469
6.680000E-8	0.001425
6.685000E-8	0.001516
6.690000E-8	0.001563
6.695000E-8	0.001591
6.700000E-8	0.001622
6.705000E-8	0.001788
6.710000E-8	0.001809
6.715000E-8	0.001953
6.720000E-8	0.002072
6.725000E-8	0.002097
6.730000E-8	0.002097
6.735000E-8	0.002038
6.740000E-8	0.001897
6.745000E-8	0.001709
6.750000E-8	0.001519
6.755000E-8	0.001325
6.760000E-8	0.001291
6.765000E-8	0.001394
6.770000E-8	0.001400
6.775000E-8	0.001538
6.780000E-8	0.001687
6.785000E-8	0.001853
6.790000E-8	0.001919
6.795000E-8	0.001972
6.800000E-8	0.002031
6.805000E-8	0.002225
6.810000E-8	0.002169
6.815000E-8	0.002181
6.820000E-8	0.002172
6.825000E-8	0.002169
6.830000E-8	0.002006
6.835000E-8	0.001897
6.840000E-8	0.001866
6.845000E-8	0.001775
6.850000E-8	0.001784
6.855000E-8	0.001806
6.860000E-8	0.001684
6.865000E-8	0.001816
6.870000E-8	0.001769
6.875000E-8	0.001831
6.880000E-8	0.001875
6.885000E-8	0.001859
6.890000E-8	0.001850
6.895000E-8	0.001941
6.900000E-8	0.001978
6.905000E-8	0.001944
6.910000E-8	0.001997
6.915000E-8	0.001975
6.920000E-8	0.001847
6.925000E-8	0.001841
6.930000E-8	0.001741
6.935000E-8	0.001600
6.940000E-8	0.001444
6.945000E-8	0.001466
6.950000E-8	0.001334
6.955000E-8	0.001278
6.960000E-8	0.001256
6.965000E-8	0.001347
6.970000E-8	0.001366
6.975000E-8	0.001450
6.980000E-8	0.001519
6.985000E-8	0.001666
6.990000E-8	0.001644
6.995000E-8	0.001759
7.000000E-8	0.001687
7.005000E-8	0.001759
7.010000E-8	0.001681
7.015000E-8	0.001697
7.020000E-8	0.001653
7.025000E-8	0.001603
7.030000E-8	0.001597
7.035000E-8	0.001541
7.040000E-8	0.001456
7.045000E-8	0.001403
7.050000E-8	0.001425
7.055000E-8	0.001538
7.060000E-8	0.001553
7.065000E-8	0.001578
7.070000E-8	0.001575
7.075000E-8	0.001756
7.080000E-8	0.001906
7.085000E-8	0.002016
7.090000E-8	0.002000
7.095000E-8	0.001981
7.100000E-8	0.001841
7.105000E-8	0.001791
7.110000E-8	0.001653
7.115000E-8	0.001547
7.120000E-8	0.001453
7.125000E-8	0.001463
7.130000E-8	0.001447
7.135000E-8	0.001384
7.140000E-8	0.001422
7.145000E-8	0.001509
7.150000E-8	0.001463
7.155000E-8	0.001513
7.160000E-8	0.001609
7.165000E-8	0.001725
7.170000E-8	0.001803
7.175000E-8	0.001856
7.180000E-8	0.001878
7.185000E-8	0.001881
7.190000E-8	0.001828
7.195000E-8	0.001781
7.200000E-8	0.001759
7.205000E-8	0.001753
7.210000E-8	0.001538
7.215000E-8	0.001463
7.220000E-8	0.001450
7.225000E-8	0.001297
7.230000E-8	0.001322
7.235000E-8	0.001291
7.240000E-8	0.001256
7.245000E-8	0.001388
7.250000E-8	0.001359
7.255000E-8	0.001547
7.260000E-8	0.001572
7.265000E-8	0.001709
7.270000E-8	0.001763
7.275000E-8	0.001741
7.280000E-8	0.001828
7.285000E-8	0.001903
7.290000E-8	0.001928
7.295000E-8	0.001953
7.300000E-8	0.001813
7.305000E-8	0.001806
7.310000E-8	0.001606
7.315000E-8	0.001559
7.320000E-8	0.001500
7.325000E-8	0.001416
7.330000E-8	0.001288
7.335000E-8	0.001219
7.340000E-8	0.001275
7.345000E-8	0.001419
7.350000E-8	0.001500
7.355000E-8	0.001647
7.360000E-8	0.001659
7.365000E-8	0.001850
7.370000E-8	0.001841
7.375000E-8	0.001859
7.380000E-8	0.001869
7.385000E-8	0.001731
7.390000E-8	0.001728
7.395000E-8	0.001631
7.400000E-8	0.001519
7.405000E-8	0.001469
7.410000E-8	0.001456
7.415000E-8	0.001453
7.420000E-8	0.001406
7.425000E-8	0.001459
7.430000E-8	0.001466
7.435000E-8	0.001594
7.440000E-8	0.001769
7.445000E-8	0.002006
7.450000E-8	0.002125
7.455000E-8	0.002281
7.460000E-8	0.002256
7.465000E-8	0.002288
7.470000E-8	0.002275
7.475000E-8	0.002213
7.480000E-8	0.002003
7.485000E-8	0.001972
7.490000E-8	0.001672
7.495000E-8	0.001497
7.500000E-8	0.001447
7.505000E-8	0.001394
7.510000E-8	0.001316
7.515000E-8	0.001366
7.520000E-8	0.001584
7.525000E-8	0.001663
7.530000E-8	0.001788
7.535000E-8	0.001916
7.540000E-8	0.002166
7.545000E-8	0.002353
7.550000E-8	0.002350
7.555000E-8	0.002488
7.560000E-8	0.002425
7.565000E-8	0.002294
7.570000E-8	0.002169
7.575000E-8	0.002012
7.580000E-8	0.001950
7.585000E-8	0.001756
7.590000E-8	0.001687
7.595000E-8	0.001634
7.600000E-8	0.001488
7.605000E-8	0.001575
7.610000E-8	0.001641
7.615000E-8	0.001566
7.620000E-8	0.001588
7.625000E-8	0.001753
7.630000E-8	0.001669
7.635000E-8	0.001713
7.640000E-8	0.001709
7.645000E-8	0.001766
7.650000E-8	0.001722
7.655000E-8	0.001656
7.660000E-8	0.001641
7.665000E-8	0.001656
7.670000E-8	0.001622
7.675000E-8	0.001672
7.680000E-8	0.001722
7.685000E-8	0.001691
7.690000E-8	0.001694
7.695000E-8	0.001744
7.700000E-8	0.001741
7.705000E-8	0.001747
7.710000E-8	0.001775
7.715000E-8	0.001734
7.720000E-8	0.001694
7.725000E-8	0.001703
7.730000E-8	0.001738
7.735000E-8	0.001888
7.740000E-8	0.001822
7.745000E-8	0.001884
7.750000E-8	0.001900
7.755000E-8	0.001947
7.760000E-8	0.001913
7.765000E-8	0.001972
7.770000E-8	0.001903
7.775000E-8	0.001875
7.780000E-8	0.001819
7.785000E-8	0.001775
7.790000E-8	0.001703
7.795000E-8	0.001666
7.800000E-8	0.001669
7.805000E-8	0.001666
7.810000E-8	0.001703
7.815000E-8	0.001747
7.820000E-8	0.001869
7.825000E-8	0.002028
7.830000E-8	0.002072
7.835000E-8	0.002094
7.840000E-8	0.002044
7.845000E-8	0.002134
7.850000E-8	0.002019
7.855000E-8	0.001916
7.860000E-8	0.001709
7.865000E-8	0.001619
7.870000E-8	0.001444
7.875000E-8	0.001394
7.880000E-8	0.001338
7.885000E-8	0.001291
7.890000E-8	0.001362
7.895000E-8	0.001406
7.900000E-8	0.001453
7.905000E-8	0.001559
7.910000E-8	0.001716
7.915000E-8	0.001775
7.920000E-8	0.001747
7.925000E-8	0.001806
7.930000E-8	0.001691
7.935000E-8	0.001622
7.940000E-8	0.001622
7.945000E-8	0.001634
7.950000E-8	0.001606
7.955000E-8	0.001603
7.960000E-8	0.001522
7.965000E-8	0.001534
7.970000E-8	0.001469
7.975000E-8	0.001547
7.980000E-8	0.001556
7.985000E-8	0.001538
7.990000E-8	0.001581
7.995000E-8	0.001591
8.000000E-8	0.001650
8.005000E-8	0.001725
8.010000E-8	0.001744
8.015000E-8	0.001809
8.020000E-8	0.001687
8.025000E-8	0.001769
8.030000E-8	0.001897
8.035000E-8	0.001956
8.040000E-8	0.001834
8.045000E-8	0.001884
8.050000E-8	0.001863
8.055000E-8	0.001978
8.060000E-8	0.001944
8.065000E-8	0.002016
8.070000E-8	0.001959
8.075000E-8	0.001891
8.080000E-8	0.001997
8.085000E-8	0.002000
8.090000E-8	0.002041
8.095000E-8	0.002006
8.100000E-8	0.001991
8.105000E-8	0.002056
8.110000E-8	0.001991
8.115000E-8	0.002141
8.120000E-8	0.002031
8.125000E-8	0.002003
8.130000E-8	0.001944
8.135000E-8	0.001850
8.140000E-8	0.001659
8.145000E-8	0.001572
8.150000E-8	0.001566
8.155000E-8	0.001581
8.160000E-8	0.001494
8.165000E-8	0.001453
8.170000E-8	0.001463
8.175000E-8	0.001553
8.180000E-8	0.001519
8.185000E-8	0.001569
8.190000E-8	0.001669
8.195000E-8	0.001816
8.200000E-8	0.001872
8.205000E-8	0.001894
8.210000E-8	0.002019
8.215000E-8	0.002016
8.220000E-8	0.001953
8.225000E-8	0.001884
8.230000E-8	0.001878
8.235000E-8	0.001813
8.240000E-8	0.001844
8.245000E-8	0.001772
8.250000E-8	0.001753
8.255000E-8	0.001747
8.260000E-8	0.001563
8.265000E-8	0.001722
8.270000E-8	0.001741
8.275000E-8	0.001687
8.280000E-8	0.001681
8.285000E-8	0.001663
8.290000E-8	0.001731
8.295000E-8	0.001691
8.300000E-8	0.001678
8.305000E-8	0.001728
8.310000E-8	0.001725
8.315000E-8	0.001800
8.320000E-8	0.001747
8.325000E-8	0.001788
8.330000E-8	0.001697
8.335000E-8	0.001750
8.340000E-8	0.001809
8.345000E-8	0.001844
8.350000E-8	0.001822
8.355000E-8	0.001984
8.360000E-8	0.002006
8.365000E-8	0.001981
8.370000E-8	0.002047
8.375000E-8	0.001975
8.380000E-8	0.001956
8.385000E-8	0.001953
8.390000E-8	0.001834
8.395000E-8	0.001763
8.400000E-8	0.001559
8.405000E-8	0.001553
8.410000E-8	0.001550
8.415000E-8	0.001619
8.420000E-8	0.001678
8.425000E-8	0.001713
8.430000E-8	0.001788
8.435000E-8	0.001809
8.440000E-8	0.001709
8.445000E-8	0.001809
8.450000E-8	0.001838
8.455000E-8	0.001800
8.460000E-8	0.001869
8.465000E-8	0.001850
8.470000E-8	0.001759
8.475000E-8	0.001797
8.480000E-8	0.001813
8.485000E-8	0.001791
8.490000E-8	0.001869
8.495000E-8	0.001888
8.500000E-8	0.001828
8.505000E-8	0.001850
8.510000E-8	0.001866
8.515000E-8	0.001825
8.520000E-8	0.001781
8.525000E-8	0.001687
8.530000E-8	0.001647
8.535000E-8	0.001644
8.540000E-8	0.001578
8.545000E-8	0.001666
8.550000E-8	0.001888
8.555000E-8	0.002022
8.560000E-8	0.002016
8.565000E-8	0.002116
8.570000E-8	0.002175
8.575000E-8	0.002147
8.580000E-8	0.002006
8.585000E-8	0.002056
8.590000E-8	0.001956
8.595000E-8	0.001903
8.600000E-8	0.001844
8.605000E-8	0.001744
8.610000E-8	0.001694
8.615000E-8	0.001550
8.620000E-8	0.001519
8.625000E-8	0.001666
8.630000E-8	0.001572
8.635000E-8	0.001566
8.640000E-8	0.001694
8.645000E-8	0.001806
8.650000E-8	0.001819
8.655000E-8	0.001869
8.660000E-8	0.001934
8.665000E-8	0.001888
8.670000E-8	0.001831
8.675000E-8	0.001884
8.680000E-8	0.001853
8.685000E-8	0.001791
8.690000E-8	0.001800
8.695000E-8	0.001841
8.700000E-8	0.001791
8.705000E-8	0.001834
8.710000E-8	0.001788
8.715000E-8	0.001813
8.720000E-8	0.001731
8.725000E-8	0.001744
8.730000E-8	0.001756
8.735000E-8	0.001641
8.740000E-8	0.001656
8.745000E-8	0.001741
8.750000E-8	0.001741
8.755000E-8	0.001691
8.760000E-8	0.001703
8.765000E-8	0.001766
8.770000E-8	0.001725
8.775000E-8	0.001784
8.780000E-8	0.001753
8.785000E-8	0.001681
8.790000E-8	0.001666
8.795000E-8	0.001675
8.800000E-8	0.001481
8.805000E-8	0.001634
8.810000E-8	0.001759
8.815000E-8	0.001747
8.820000E-8	0.001816
8.825000E-8	0.001772
8.830000E-8	0.001844
8.835000E-8	0.001919
8.840000E-8	0.001909
8.845000E-8	0.001994
8.850000E-8	0.001997
8.855000E-8	0.001944
8.860000E-8	0.002031
8.865000E-8	0.002034
8.870000E-8	0.002066
8.875000E-8	0.001991
8.880000E-8	0.001978
8.885000E-8	0.001988
8.890000E-8	0.001934
8.895000E-8	0.001841
8.900000E-8	0.001628
8.905000E-8	0.001584
8.910000E-8	0.001434
8.915000E-8	0.001353
8.920000E-8	0.001288
8.925000E-8	0.001344
8.930000E-8	0.001366
8.935000E-8	0.001369
8.940000E-8	0.001325
8.945000E-8	0.001550
8.950000E-8	0.001650
8.955000E-8	0.001828
8.960000E-8	0.001956
8.965000E-8	0.002128
8.970000E-8	0.002094
8.975000E-8	0.002203
8.980000E-8	0.002156
8.985000E-8	0.002169
8.990000E-8	0.002138
8.995000E-8	0.002147
9.000000E-8	0.002138
9.005000E-8	0.002144
9.010000E-8	0.002094
9.015000E-8	0.002016
9.020000E-8	0.002063
9.025000E-8	0.001997
9.030000E-8	0.001769
9.035000E-8	0.001784
9.040000E-8	0.001722
9.045000E-8	0.001644
9.050000E-8	0.001656
9.055000E-8	0.001606
9.060000E-8	0.001503
9.065000E-8	0.001500
9.070000E-8	0.001425
9.075000E-8	0.001522
9.080000E-8	0.001494
9.085000E-8	0.001616
9.090000E-8	0.001650
9.095000E-8	0.001681
9.100000E-8	0.001609
9.105000E-8	0.001553
9.110000E-8	0.001644
9.115000E-8	0.001622
9.120000E-8	0.001659
9.125000E-8	0.001738
9.130000E-8	0.001744
9.135000E-8	0.001834
9.140000E-8	0.001834
9.145000E-8	0.001803
9.150000E-8	0.001763
9.155000E-8	0.001703
9.160000E-8	0.001603
9.165000E-8	0.001581
9.170000E-8	0.001538
9.175000E-8	0.001422
9.180000E-8	0.001441
9.185000E-8	0.001531
9.190000E-8	0.001463
9.195000E-8	0.001578
9.200000E-8	0.001616
9.205000E-8	0.001794
9.210000E-8	0.001803
9.215000E-8	0.001919
9.220000E-8	0.001934
9.225000E-8	0.002003
9.230000E-8	0.001847
9.235000E-8	0.001791
9.240000E-8	0.001784
9.245000E-8	0.001716
9.250000E-8	0.001544
9.255000E-8	0.001578
9.260000E-8	0.001534
9.265000E-8	0.001513
9.270000E-8	0.001488
9.275000E-8	0.001506
9.280000E-8	0.001422
9.285000E-8	0.001531
9.290000E-8	0.001566
9.295000E-8	0.001472
9.300000E-8	0.001419
9.305000E-8	0.001503
9.310000E-8	0.001531
9.315000E-8	0.001575
9.320000E-8	0.001519
9.325000E-8	0.001550
9.330000E-8	0.001756
9.335000E-8	0.001797
9.340000E-8	0.001675
9.345000E-8	0.001847
9.350000E-8	0.001803
9.355000E-8	0.001856
9.360000E-8	0.001800
9.365000E-8	0.001816
9.370000E-8	0.001781
9.375000E-8	0.001856
9.380000E-8	0.001738
9.385000E-8	0.001844
9.390000E-8	0.001788
9.395000E-8	0.001738
9.400000E-8	0.001859
9.405000E-8	0.002044
9.410000E-8	0.001919
9.415000E-8	0.001903
9.420000E-8	0.001847
9.425000E-8	0.001959
9.430000E-8	0.001888
9.435000E-8	0.001778
9.440000E-8	0.001800
9.445000E-8	0.001772
9.450000E-8	0.001709
9.455000E-8	0.001575
9.460000E-8	0.001600
9.465000E-8	0.001550
9.470000E-8	0.001525
9.475000E-8	0.001584
9.480000E-8	0.001366
9.485000E-8	0.001478
9.490000E-8	0.001516
9.495000E-8	0.001578
9.500000E-8	0.001531
9.505000E-8	0.001641
9.510000E-8	0.001716
9.515000E-8	0.001741
9.520000E-8	0.001706
9.525000E-8	0.001644
9.530000E-8	0.001600
9.535000E-8	0.001550
9.540000E-8	0.001572
9.545000E-8	0.001631
9.550000E-8	0.001612
9.555000E-8	0.001622
9.560000E-8	0.001606
9.565000E-8	0.001631
9.570000E-8	0.001681
9.575000E-8	0.001825
9.580000E-8	0.001794
9.585000E-8	0.001797
9.590000E-8	0.001928
9.595000E-8	0.001931
9.600000E-8	0.001841
9.605000E-8	0.001909
9.610000E-8	0.001959
9.615000E-8	0.001984
9.620000E-8	0.001859
9.625000E-8	0.001853
9.630000E-8	0.001903
9.635000E-8	0.001978
9.640000E-8	0.001834
9.645000E-8	0.001891
9.650000E-8	0.001931
9.655000E-8	0.001794
9.660000E-8	0.001788
9.665000E-8	0.001744
9.670000E-8	0.001763
9.675000E-8	0.001803
9.680000E-8	0.001747
9.685000E-8	0.001816
9.690000E-8	0.001763
9.695000E-8	0.001716
9.700000E-8	0.001750
9.705000E-8	0.001813
9.710000E-8	0.001700
9.715000E-8	0.001575
9.720000E-8	0.001612
9.725000E-8	0.001516
9.730000E-8	0.001719
9.735000E-8	0.001672
9.740000E-8	0.001625
9.745000E-8	0.001734
9.750000E-8	0.001716
9.755000E-8	0.001722
9.760000E-8	0.001778
9.765000E-8	0.001803
9.770000E-8	0.001819
9.775000E-8	0.001741
9.780000E-8	0.001725
9.785000E-8	0.001684
9.790000E-8	0.001691
9.795000E-8	0.001741
9.800000E-8	0.001600
9.805000E-8	0.001644
9.810000E-8	0.001778
9.815000E-8	0.001759
9.820000E-8	0.001669
9.825000E-8	0.001747
9.830000E-8	0.001634
9.835000E-8	0.001731
9.840000E-8	0.001709
9.845000E-8	0.001806
9.850000E-8	0.001719
9.855000E-8	0.001722
9.860000E-8	0.001700
9.865000E-8	0.001825
9.870000E-8	0.001913
9.875000E-8	0.001941
9.880000E-8	0.001797
9.885000E-8	0.001788
9.890000E-8	0.001869
9.895000E-8	0.001903
9.900000E-8	0.001844
9.905000E-8	0.001731
9.910000E-8	0.001675
9.915000E-8	0.001788
9.920000E-8	0.001738
9.925000E-8	0.001859
9.930000E-8	0.001809
9.935000E-8	0.001878
9.940000E-8	0.001788
9.945000E-8	0.001863
9.950000E-8	0.001794
9.955000E-8	0.001866
9.960000E-8	0.001775
9.965000E-8	0.001847
9.970000E-8	0.001756
9.975000E-8	0.001741
9.980000E-8	0.001728
9.985000E-8	0.001772
9.990000E-8	0.001831
9.995000E-8	0.001922
