LabVIEW Measurement	
Writer_Version	2
Reader_Version	2
Separator	Tab
Decimal_Separator	.
Multi_Headings	No
X_Columns	Multi
Time_Pref	Relative
Operator	TG lab
Date	2015/03/07
Time	10:39:59.3455271720886230469
***End_of_Header***	
	
Channels	1	
Samples	2000	
Date	1903/12/31	
Time	19:00:00	
X_Dimension	Time	
X0	0.0000000000000000E+0	
Delta_X	5.000000E-11	
***End_of_Header***		
X_Value	Untitled	Comment
0.000000	0.001658
5.000000E-11	0.001544
1.000000E-10	0.001427
1.500000E-10	0.001286
2.000000E-10	0.001202
2.500000E-10	0.001148
3.000000E-10	0.001091
3.500000E-10	0.001141
4.000000E-10	0.001041
4.500000E-10	0.001106
5.000000E-10	0.001167
5.500000E-10	0.001253
6.000000E-10	0.001342
6.500000E-10	0.001408
7.000000E-10	0.001398
7.500000E-10	0.001486
8.000000E-10	0.001459
8.500000E-10	0.001534
9.000000E-10	0.001444
9.500000E-10	0.001450
1.000000E-9	0.001456
1.050000E-9	0.001352
1.100000E-9	0.001294
1.150000E-9	0.001281
1.200000E-9	0.001205
1.250000E-9	0.001202
1.300000E-9	0.001080
1.350000E-9	0.001091
1.400000E-9	0.001031
1.450000E-9	0.001025
1.500000E-9	0.001012
1.550000E-9	0.001127
1.600000E-9	0.001000
1.650000E-9	0.001112
1.700000E-9	0.001092
1.750000E-9	0.001130
1.800000E-9	0.001114
1.850000E-9	0.001159
1.900000E-9	0.001148
1.950000E-9	0.001169
2.000000E-9	0.001105
2.050000E-9	0.001172
2.100000E-9	0.001133
2.150000E-9	0.001141
2.200000E-9	0.001130
2.250000E-9	0.001155
2.300000E-9	0.001198
2.350000E-9	0.001195
2.400000E-9	0.001223
2.450000E-9	0.001256
2.500000E-9	0.001219
2.550000E-9	0.001252
2.600000E-9	0.001236
2.650000E-9	0.001252
2.700000E-9	0.001322
2.750000E-9	0.001345
2.800000E-9	0.001377
2.850000E-9	0.001453
2.900000E-9	0.001416
2.950000E-9	0.001477
3.000000E-9	0.001484
3.050000E-9	0.001539
3.100000E-9	0.001539
3.150000E-9	0.001522
3.200000E-9	0.001500
3.250000E-9	0.001508
3.300000E-9	0.001397
3.350000E-9	0.001450
3.400000E-9	0.001397
3.450000E-9	0.001348
3.500000E-9	0.001322
3.550000E-9	0.001323
3.600000E-9	0.001233
3.650000E-9	0.001164
3.700000E-9	0.001134
3.750000E-9	0.001100
3.800000E-9	0.001038
3.850000E-9	0.001061
3.900000E-9	0.001050
3.950000E-9	0.001094
4.000000E-9	0.001164
4.050000E-9	0.001194
4.100000E-9	0.001216
4.150000E-9	0.001242
4.200000E-9	0.001291
4.250000E-9	0.001361
4.300000E-9	0.001316
4.350000E-9	0.001352
4.400000E-9	0.001333
4.450000E-9	0.001303
4.500000E-9	0.001303
4.550000E-9	0.001348
4.600000E-9	0.001314
4.650000E-9	0.001288
4.700000E-9	0.001187
4.750000E-9	0.000961
4.800000E-9	0.000509
4.850000E-9	-9.531250E-5
4.900000E-9	-0.000973
4.950000E-9	-0.002069
5.000000E-9	-0.003453
5.050000E-9	-0.005084
5.100000E-9	-0.006933
5.150000E-9	-0.008897
5.200000E-9	-0.011011
5.250000E-9	-0.013045
5.300000E-9	-0.015013
5.350000E-9	-0.016838
5.400000E-9	-0.018364
5.450000E-9	-0.019525
5.500000E-9	-0.020169
5.550000E-9	-0.020459
5.600000E-9	-0.020300
5.650000E-9	-0.019695
5.700000E-9	-0.018678
5.750000E-9	-0.017358
5.800000E-9	-0.016027
5.850000E-9	-0.014509
5.900000E-9	-0.013125
5.950000E-9	-0.011975
6.000000E-9	-0.011173
6.050000E-9	-0.010606
6.100000E-9	-0.010356
6.150000E-9	-0.010472
6.200000E-9	-0.010877
6.250000E-9	-0.011369
6.300000E-9	-0.012055
6.350000E-9	-0.012548
6.400000E-9	-0.012953
6.450000E-9	-0.013170
6.500000E-9	-0.013031
6.550000E-9	-0.012602
6.600000E-9	-0.011941
6.650000E-9	-0.011039
6.700000E-9	-0.009977
6.750000E-9	-0.008788
6.800000E-9	-0.007614
6.850000E-9	-0.006469
6.900000E-9	-0.005642
6.950000E-9	-0.005014
7.000000E-9	-0.004658
7.050000E-9	-0.004670
7.100000E-9	-0.004980
7.150000E-9	-0.005486
7.200000E-9	-0.006189
7.250000E-9	-0.006856
7.300000E-9	-0.007516
7.350000E-9	-0.007987
7.400000E-9	-0.008273
7.450000E-9	-0.008259
7.500000E-9	-0.007928
7.550000E-9	-0.007272
7.600000E-9	-0.006397
7.650000E-9	-0.005317
7.700000E-9	-0.004255
7.750000E-9	-0.003102
7.800000E-9	-0.002161
7.850000E-9	-0.001352
7.900000E-9	-0.000847
7.950000E-9	-0.000581
8.000000E-9	-0.000772
8.050000E-9	-0.001200
8.100000E-9	-0.001869
8.150000E-9	-0.002706
8.200000E-9	-0.003566
8.250000E-9	-0.004366
8.300000E-9	-0.004986
8.350000E-9	-0.005333
8.400000E-9	-0.005439
8.450000E-9	-0.005217
8.500000E-9	-0.004703
8.550000E-9	-0.003853
8.600000E-9	-0.002956
8.650000E-9	-0.001905
8.700000E-9	-0.000913
8.750000E-9	-2.343750E-5
8.800000E-9	0.000517
8.850000E-9	0.000895
8.900000E-9	0.000884
8.950000E-9	0.000581
9.000000E-9	-4.687500E-6
9.050000E-9	-0.000808
9.100000E-9	-0.001730
9.150000E-9	-0.002627
9.200000E-9	-0.003417
9.250000E-9	-0.003988
9.300000E-9	-0.004380
9.350000E-9	-0.004300
9.400000E-9	-0.003927
9.450000E-9	-0.003319
9.500000E-9	-0.002434
9.550000E-9	-0.001439
9.600000E-9	-0.000461
9.650000E-9	0.000398
9.700000E-9	0.001039
9.750000E-9	0.001547
9.800000E-9	0.001739
9.850000E-9	0.001595
9.900000E-9	0.001102
9.950000E-9	0.000473
1.000000E-8	-0.000289
1.005000E-8	-0.001084
1.010000E-8	-0.001942
1.015000E-8	-0.002591
1.020000E-8	-0.003006
1.025000E-8	-0.003073
1.030000E-8	-0.002880
1.035000E-8	-0.002442
1.040000E-8	-0.001766
1.045000E-8	-0.000930
1.050000E-8	0.000000
1.055000E-8	0.000911
1.060000E-8	0.001647
1.065000E-8	0.002156
1.070000E-8	0.002512
1.075000E-8	0.002558
1.080000E-8	0.002273
1.085000E-8	0.001748
1.090000E-8	0.001063
1.095000E-8	0.000297
1.100000E-8	-0.000575
1.105000E-8	-0.001242
1.110000E-8	-0.001773
1.115000E-8	-0.002039
1.120000E-8	-0.002048
1.125000E-8	-0.001773
1.130000E-8	-0.001269
1.135000E-8	-0.000578
1.140000E-8	0.000213
1.145000E-8	0.001112
1.150000E-8	0.001900
1.155000E-8	0.002598
1.160000E-8	0.002998
1.165000E-8	0.003208
1.170000E-8	0.003087
1.175000E-8	0.002728
1.180000E-8	0.002155
1.185000E-8	0.001350
1.190000E-8	0.000530
1.195000E-8	-0.000294
1.200000E-8	-0.001022
1.205000E-8	-0.001528
1.210000E-8	-0.001766
1.215000E-8	-0.001803
1.220000E-8	-0.001437
1.225000E-8	-0.000858
1.230000E-8	-0.000214
1.235000E-8	0.000659
1.240000E-8	0.001494
1.245000E-8	0.002253
1.250000E-8	0.002792
1.255000E-8	0.003077
1.260000E-8	0.003147
1.265000E-8	0.002922
1.270000E-8	0.002522
1.275000E-8	0.001870
1.280000E-8	0.001123
1.285000E-8	0.000356
1.290000E-8	-0.000414
1.295000E-8	-0.001009
1.300000E-8	-0.001328
1.305000E-8	-0.001434
1.310000E-8	-0.001286
1.315000E-8	-0.000809
1.320000E-8	-0.000275
1.325000E-8	0.000523
1.330000E-8	0.001309
1.335000E-8	0.002081
1.340000E-8	0.002680
1.345000E-8	0.003256
1.350000E-8	0.003417
1.355000E-8	0.003416
1.360000E-8	0.003125
1.365000E-8	0.002652
1.370000E-8	0.002027
1.375000E-8	0.001284
1.380000E-8	0.000517
1.385000E-8	-5.937500E-5
1.390000E-8	-0.000563
1.395000E-8	-0.000870
1.400000E-8	-0.000977
1.405000E-8	-0.000722
1.410000E-8	-0.000319
1.415000E-8	0.000283
1.420000E-8	0.000970
1.425000E-8	0.001663
1.430000E-8	0.002294
1.435000E-8	0.002861
1.440000E-8	0.003089
1.445000E-8	0.003230
1.450000E-8	0.003052
1.455000E-8	0.002659
1.460000E-8	0.002111
1.465000E-8	0.001437
1.470000E-8	0.000730
1.475000E-8	1.718750E-5
1.480000E-8	-0.000647
1.485000E-8	-0.001014
1.490000E-8	-0.001261
1.495000E-8	-0.001109
1.500000E-8	-0.000919
1.505000E-8	-0.000356
1.510000E-8	0.000256
1.515000E-8	0.000952
1.520000E-8	0.001709
1.525000E-8	0.002338
1.530000E-8	0.002759
1.535000E-8	0.002977
1.540000E-8	0.002938
1.545000E-8	0.002788
1.550000E-8	0.002277
1.555000E-8	0.001705
1.560000E-8	0.001034
1.565000E-8	0.000331
1.570000E-8	-0.000297
1.575000E-8	-0.000681
1.580000E-8	-0.000970
1.585000E-8	-0.001066
1.590000E-8	-0.000869
1.595000E-8	-0.000447
1.600000E-8	0.000170
1.605000E-8	0.000884
1.610000E-8	0.001573
1.615000E-8	0.002322
1.620000E-8	0.002895
1.625000E-8	0.003333
1.630000E-8	0.003525
1.635000E-8	0.003450
1.640000E-8	0.003194
1.645000E-8	0.002739
1.650000E-8	0.002116
1.655000E-8	0.001414
1.660000E-8	0.000728
1.665000E-8	8.750000E-5
1.670000E-8	-0.000381
1.675000E-8	-0.000606
1.680000E-8	-0.000609
1.685000E-8	-0.000383
1.690000E-8	8.281250E-5
1.695000E-8	0.000752
1.700000E-8	0.001431
1.705000E-8	0.002134
1.710000E-8	0.002714
1.715000E-8	0.003125
1.720000E-8	0.003314
1.725000E-8	0.003256
1.730000E-8	0.003025
1.735000E-8	0.002567
1.740000E-8	0.002008
1.745000E-8	0.001373
1.750000E-8	0.000706
1.755000E-8	0.000100
1.760000E-8	-0.000323
1.765000E-8	-0.000581
1.770000E-8	-0.000684
1.775000E-8	-0.000500
1.780000E-8	-0.000184
1.785000E-8	0.000308
1.790000E-8	0.000897
1.795000E-8	0.001550
1.800000E-8	0.002170
1.805000E-8	0.002725
1.810000E-8	0.003086
1.815000E-8	0.003253
1.820000E-8	0.003219
1.825000E-8	0.003038
1.830000E-8	0.002652
1.835000E-8	0.002108
1.840000E-8	0.001375
1.845000E-8	0.000847
1.850000E-8	0.000211
1.855000E-8	-0.000198
1.860000E-8	-0.000491
1.865000E-8	-0.000569
1.870000E-8	-0.000417
1.875000E-8	-9.062500E-5
1.880000E-8	0.000425
1.885000E-8	0.001056
1.890000E-8	0.001608
1.895000E-8	0.002181
1.900000E-8	0.002655
1.905000E-8	0.002980
1.910000E-8	0.003075
1.915000E-8	0.003047
1.920000E-8	0.002753
1.925000E-8	0.002380
1.930000E-8	0.001880
1.935000E-8	0.001327
1.940000E-8	0.000752
1.945000E-8	0.000302
1.950000E-8	-6.406250E-5
1.955000E-8	-0.000245
1.960000E-8	-0.000248
1.965000E-8	-2.656250E-5
1.970000E-8	0.000280
1.975000E-8	0.000764
1.980000E-8	0.001341
1.985000E-8	0.001950
1.990000E-8	0.002525
1.995000E-8	0.002970
2.000000E-8	0.003242
2.005000E-8	0.003322
2.010000E-8	0.003173
2.015000E-8	0.002884
2.020000E-8	0.002347
2.025000E-8	0.001777
2.030000E-8	0.001033
2.035000E-8	0.000448
2.040000E-8	-0.000178
2.045000E-8	-0.000533
2.050000E-8	-0.000683
2.055000E-8	-0.000577
2.060000E-8	-0.000341
2.065000E-8	0.000192
2.070000E-8	0.000838
2.075000E-8	0.001436
2.080000E-8	0.002108
2.085000E-8	0.002638
2.090000E-8	0.003072
2.095000E-8	0.003273
2.100000E-8	0.003214
2.105000E-8	0.002997
2.110000E-8	0.002616
2.115000E-8	0.002152
2.120000E-8	0.001452
2.125000E-8	0.000895
2.130000E-8	0.000320
2.135000E-8	-0.000105
2.140000E-8	-0.000398
2.145000E-8	-0.000506
2.150000E-8	-0.000394
2.155000E-8	-0.000159
2.160000E-8	0.000222
2.165000E-8	0.000797
2.170000E-8	0.001386
2.175000E-8	0.002005
2.180000E-8	0.002580
2.185000E-8	0.003006
2.190000E-8	0.003242
2.195000E-8	0.003286
2.200000E-8	0.003166
2.205000E-8	0.002839
2.210000E-8	0.002338
2.215000E-8	0.001728
2.220000E-8	0.001139
2.225000E-8	0.000586
2.230000E-8	0.000216
2.235000E-8	4.687500E-6
2.240000E-8	-3.750000E-5
2.245000E-8	0.000123
2.250000E-8	0.000466
2.255000E-8	0.000981
2.260000E-8	0.001459
2.265000E-8	0.001984
2.270000E-8	0.002383
2.275000E-8	0.002878
2.280000E-8	0.003069
2.285000E-8	0.003111
2.290000E-8	0.002967
2.295000E-8	0.002702
2.300000E-8	0.002352
2.305000E-8	0.001891
2.310000E-8	0.001439
2.315000E-8	0.001016
2.320000E-8	0.000627
2.325000E-8	0.000344
2.330000E-8	0.000225
2.335000E-8	0.000209
2.340000E-8	0.000313
2.345000E-8	0.000536
2.350000E-8	0.000884
2.355000E-8	0.001311
2.360000E-8	0.001734
2.365000E-8	0.002142
2.370000E-8	0.002366
2.375000E-8	0.002569
2.380000E-8	0.002661
2.385000E-8	0.002563
2.390000E-8	0.002291
2.395000E-8	0.001992
2.400000E-8	0.001502
2.405000E-8	0.001050
2.410000E-8	0.000617
2.415000E-8	0.000261
2.420000E-8	7.812500E-5
2.425000E-8	2.968750E-5
2.430000E-8	0.000156
2.435000E-8	0.000488
2.440000E-8	0.000822
2.445000E-8	0.001314
2.450000E-8	0.001727
2.455000E-8	0.002186
2.460000E-8	0.002505
2.465000E-8	0.002636
2.470000E-8	0.002636
2.475000E-8	0.002552
2.480000E-8	0.002264
2.485000E-8	0.001911
2.490000E-8	0.001523
2.495000E-8	0.001239
2.500000E-8	0.000777
2.505000E-8	0.000505
2.510000E-8	0.000336
2.515000E-8	0.000345
2.520000E-8	0.000373
2.525000E-8	0.000675
2.530000E-8	0.000998
2.535000E-8	0.001444
2.540000E-8	0.001766
2.545000E-8	0.002248
2.550000E-8	0.002594
2.555000E-8	0.002914
2.560000E-8	0.003158
2.565000E-8	0.003136
2.570000E-8	0.003020
2.575000E-8	0.002836
2.580000E-8	0.002408
2.585000E-8	0.001977
2.590000E-8	0.001498
2.595000E-8	0.001091
2.600000E-8	0.000634
2.605000E-8	0.000455
2.610000E-8	0.000270
2.615000E-8	0.000325
2.620000E-8	0.000459
2.625000E-8	0.000819
2.630000E-8	0.001216
2.635000E-8	0.001614
2.640000E-8	0.002073
2.645000E-8	0.002441
2.650000E-8	0.002641
2.655000E-8	0.002786
2.660000E-8	0.002705
2.665000E-8	0.002516
2.670000E-8	0.002116
2.675000E-8	0.001756
2.680000E-8	0.001261
2.685000E-8	0.000927
2.690000E-8	0.000516
2.695000E-8	0.000237
2.700000E-8	0.000163
2.705000E-8	0.000188
2.710000E-8	0.000380
2.715000E-8	0.000705
2.720000E-8	0.001034
2.725000E-8	0.001489
2.730000E-8	0.001858
2.735000E-8	0.002233
2.740000E-8	0.002463
2.745000E-8	0.002659
2.750000E-8	0.002627
2.755000E-8	0.002541
2.760000E-8	0.002291
2.765000E-8	0.001933
2.770000E-8	0.001558
2.775000E-8	0.001216
2.780000E-8	0.000861
2.785000E-8	0.000612
2.790000E-8	0.000394
2.795000E-8	0.000359
2.800000E-8	0.000459
2.805000E-8	0.000625
2.810000E-8	0.000894
2.815000E-8	0.001258
2.820000E-8	0.001586
2.825000E-8	0.002011
2.830000E-8	0.002269
2.835000E-8	0.002534
2.840000E-8	0.002595
2.845000E-8	0.002575
2.850000E-8	0.002455
2.855000E-8	0.002250
2.860000E-8	0.001922
2.865000E-8	0.001619
2.870000E-8	0.001159
2.875000E-8	0.000808
2.880000E-8	0.000541
2.885000E-8	0.000366
2.890000E-8	0.000252
2.895000E-8	0.000320
2.900000E-8	0.000486
2.905000E-8	0.000755
2.910000E-8	0.001166
2.915000E-8	0.001633
2.920000E-8	0.002028
2.925000E-8	0.002361
2.930000E-8	0.002650
2.935000E-8	0.002783
2.940000E-8	0.002797
2.945000E-8	0.002744
2.950000E-8	0.002420
2.955000E-8	0.002105
2.960000E-8	0.001664
2.965000E-8	0.001298
2.970000E-8	0.000913
2.975000E-8	0.000620
2.980000E-8	0.000359
2.985000E-8	0.000281
2.990000E-8	0.000314
2.995000E-8	0.000523
3.000000E-8	0.000809
3.005000E-8	0.001150
3.010000E-8	0.001533
3.015000E-8	0.001975
3.020000E-8	0.002273
3.025000E-8	0.002502
3.030000E-8	0.002581
3.035000E-8	0.002555
3.040000E-8	0.002353
3.045000E-8	0.002094
3.050000E-8	0.001678
3.055000E-8	0.001292
3.060000E-8	0.000881
3.065000E-8	0.000575
3.070000E-8	0.000305
3.075000E-8	0.000214
3.080000E-8	0.000258
3.085000E-8	0.000495
3.090000E-8	0.000722
3.095000E-8	0.001205
3.100000E-8	0.001555
3.105000E-8	0.002044
3.110000E-8	0.002358
3.115000E-8	0.002592
3.120000E-8	0.002642
3.125000E-8	0.002555
3.130000E-8	0.002283
3.135000E-8	0.001905
3.140000E-8	0.001523
3.145000E-8	0.001116
3.150000E-8	0.000653
3.155000E-8	0.000320
3.160000E-8	0.000159
3.165000E-8	5.312500E-5
3.170000E-8	0.000191
3.175000E-8	0.000400
3.180000E-8	0.000639
3.185000E-8	0.001014
3.190000E-8	0.001428
3.195000E-8	0.001841
3.200000E-8	0.002233
3.205000E-8	0.002541
3.210000E-8	0.002761
3.215000E-8	0.002836
3.220000E-8	0.002750
3.225000E-8	0.002550
3.230000E-8	0.002295
3.235000E-8	0.001864
3.240000E-8	0.001383
3.245000E-8	0.001030
3.250000E-8	0.000639
3.255000E-8	0.000384
3.260000E-8	0.000236
3.265000E-8	0.000338
3.270000E-8	0.000477
3.275000E-8	0.000767
3.280000E-8	0.001164
3.285000E-8	0.001488
3.290000E-8	0.001905
3.295000E-8	0.002308
3.300000E-8	0.002431
3.305000E-8	0.002617
3.310000E-8	0.002547
3.315000E-8	0.002483
3.320000E-8	0.002203
3.325000E-8	0.001913
3.330000E-8	0.001497
3.335000E-8	0.001200
3.340000E-8	0.000794
3.345000E-8	0.000516
3.350000E-8	0.000356
3.355000E-8	0.000206
3.360000E-8	0.000169
3.365000E-8	0.000395
3.370000E-8	0.000575
3.375000E-8	0.000914
3.380000E-8	0.001245
3.385000E-8	0.001595
3.390000E-8	0.001925
3.395000E-8	0.002183
3.400000E-8	0.002367
3.405000E-8	0.002427
3.410000E-8	0.002372
3.415000E-8	0.002269
3.420000E-8	0.002075
3.425000E-8	0.001767
3.430000E-8	0.001484
3.435000E-8	0.001231
3.440000E-8	0.000956
3.445000E-8	0.000766
3.450000E-8	0.000625
3.455000E-8	0.000663
3.460000E-8	0.000727
3.465000E-8	0.000923
3.470000E-8	0.001111
3.475000E-8	0.001400
3.480000E-8	0.001636
3.485000E-8	0.001823
3.490000E-8	0.002031
3.495000E-8	0.002158
3.500000E-8	0.002198
3.505000E-8	0.002162
3.510000E-8	0.001934
3.515000E-8	0.001730
3.520000E-8	0.001411
3.525000E-8	0.001048
3.530000E-8	0.000713
3.535000E-8	0.000513
3.540000E-8	0.000377
3.545000E-8	0.000395
3.550000E-8	0.000492
3.555000E-8	0.000713
3.560000E-8	0.001098
3.565000E-8	0.001447
3.570000E-8	0.001869
3.575000E-8	0.002258
3.580000E-8	0.002608
3.585000E-8	0.002863
3.590000E-8	0.002895
3.595000E-8	0.002880
3.600000E-8	0.002691
3.605000E-8	0.002364
3.610000E-8	0.001981
3.615000E-8	0.001612
3.620000E-8	0.001169
3.625000E-8	0.000805
3.630000E-8	0.000506
3.635000E-8	0.000366
3.640000E-8	0.000277
3.645000E-8	0.000320
3.650000E-8	0.000455
3.655000E-8	0.000741
3.660000E-8	0.000973
3.665000E-8	0.001309
3.670000E-8	0.001584
3.675000E-8	0.001841
3.680000E-8	0.002020
3.685000E-8	0.002155
3.690000E-8	0.002092
3.695000E-8	0.001970
3.700000E-8	0.001805
3.705000E-8	0.001588
3.710000E-8	0.001328
3.715000E-8	0.001069
3.720000E-8	0.000820
3.725000E-8	0.000681
3.730000E-8	0.000592
3.735000E-8	0.000669
3.740000E-8	0.000742
3.745000E-8	0.000998
3.750000E-8	0.001245
3.755000E-8	0.001598
3.760000E-8	0.001859
3.765000E-8	0.002239
3.770000E-8	0.002436
3.775000E-8	0.002522
3.780000E-8	0.002583
3.785000E-8	0.002536
3.790000E-8	0.002395
3.795000E-8	0.002228
3.800000E-8	0.001998
3.805000E-8	0.001709
3.810000E-8	0.001464
3.815000E-8	0.001253
3.820000E-8	0.001023
3.825000E-8	0.000933
3.830000E-8	0.000891
3.835000E-8	0.000908
3.840000E-8	0.001017
3.845000E-8	0.001272
3.850000E-8	0.001578
3.855000E-8	0.001844
3.860000E-8	0.002084
3.865000E-8	0.002345
3.870000E-8	0.002442
3.875000E-8	0.002427
3.880000E-8	0.002250
3.885000E-8	0.002034
3.890000E-8	0.001673
3.895000E-8	0.001364
3.900000E-8	0.001027
3.905000E-8	0.000788
3.910000E-8	0.000581
3.915000E-8	0.000458
3.920000E-8	0.000545
3.925000E-8	0.000625
3.930000E-8	0.000820
3.935000E-8	0.001148
3.940000E-8	0.001486
3.945000E-8	0.001834
3.950000E-8	0.002148
3.955000E-8	0.002366
3.960000E-8	0.002481
3.965000E-8	0.002553
3.970000E-8	0.002423
3.975000E-8	0.002278
3.980000E-8	0.001997
3.985000E-8	0.001745
3.990000E-8	0.001413
3.995000E-8	0.001144
4.000000E-8	0.000823
4.005000E-8	0.000731
4.010000E-8	0.000652
4.015000E-8	0.000745
4.020000E-8	0.000845
4.025000E-8	0.001084
4.030000E-8	0.001309
4.035000E-8	0.001650
4.040000E-8	0.001842
4.045000E-8	0.002091
4.050000E-8	0.002198
4.055000E-8	0.002248
4.060000E-8	0.002113
4.065000E-8	0.002031
4.070000E-8	0.001841
4.075000E-8	0.001566
4.080000E-8	0.001264
4.085000E-8	0.001034
4.090000E-8	0.000791
4.095000E-8	0.000630
4.100000E-8	0.000539
4.105000E-8	0.000592
4.110000E-8	0.000644
4.115000E-8	0.000884
4.120000E-8	0.001078
4.125000E-8	0.001330
4.130000E-8	0.001597
4.135000E-8	0.001894
4.140000E-8	0.002078
4.145000E-8	0.002236
4.150000E-8	0.002234
4.155000E-8	0.002191
4.160000E-8	0.002086
4.165000E-8	0.001822
4.170000E-8	0.001591
4.175000E-8	0.001317
4.180000E-8	0.001073
4.185000E-8	0.000873
4.190000E-8	0.000706
4.195000E-8	0.000711
4.200000E-8	0.000717
4.205000E-8	0.000909
4.210000E-8	0.001033
4.215000E-8	0.001309
4.220000E-8	0.001528
4.225000E-8	0.001775
4.230000E-8	0.001969
4.235000E-8	0.002053
4.240000E-8	0.002208
4.245000E-8	0.002233
4.250000E-8	0.002177
4.255000E-8	0.002113
4.260000E-8	0.001959
4.265000E-8	0.001822
4.270000E-8	0.001528
4.275000E-8	0.001339
4.280000E-8	0.001163
4.285000E-8	0.001038
4.290000E-8	0.000905
4.295000E-8	0.000909
4.300000E-8	0.000973
4.305000E-8	0.001130
4.310000E-8	0.001295
4.315000E-8	0.001591
4.320000E-8	0.001838
4.325000E-8	0.002086
4.330000E-8	0.002256
4.335000E-8	0.002377
4.340000E-8	0.002370
4.345000E-8	0.002344
4.350000E-8	0.002194
4.355000E-8	0.001978
4.360000E-8	0.001819
4.365000E-8	0.001533
4.370000E-8	0.001278
4.375000E-8	0.001141
4.380000E-8	0.001019
4.385000E-8	0.000933
4.390000E-8	0.000913
4.395000E-8	0.001039
4.400000E-8	0.001117
4.405000E-8	0.001319
4.410000E-8	0.001508
4.415000E-8	0.001819
4.420000E-8	0.002069
4.425000E-8	0.002231
4.430000E-8	0.002297
4.435000E-8	0.002363
4.440000E-8	0.002325
4.445000E-8	0.002188
4.450000E-8	0.001911
4.455000E-8	0.001709
4.460000E-8	0.001455
4.465000E-8	0.001272
4.470000E-8	0.000967
4.475000E-8	0.000859
4.480000E-8	0.000839
4.485000E-8	0.000928
4.490000E-8	0.001058
4.495000E-8	0.001227
4.500000E-8	0.001361
4.505000E-8	0.001644
4.510000E-8	0.001842
4.515000E-8	0.002086
4.520000E-8	0.002205
4.525000E-8	0.002237
4.530000E-8	0.002188
4.535000E-8	0.002109
4.540000E-8	0.001933
4.545000E-8	0.001612
4.550000E-8	0.001361
4.555000E-8	0.001158
4.560000E-8	0.001002
4.565000E-8	0.000833
4.570000E-8	0.000725
4.575000E-8	0.000813
4.580000E-8	0.000867
4.585000E-8	0.001055
4.590000E-8	0.001233
4.595000E-8	0.001430
4.600000E-8	0.001577
4.605000E-8	0.001731
4.610000E-8	0.001845
4.615000E-8	0.001970
4.620000E-8	0.001939
4.625000E-8	0.001919
4.630000E-8	0.001802
4.635000E-8	0.001656
4.640000E-8	0.001531
4.645000E-8	0.001450
4.650000E-8	0.001252
4.655000E-8	0.001147
4.660000E-8	0.001122
4.665000E-8	0.001059
4.670000E-8	0.001125
4.675000E-8	0.001213
4.680000E-8	0.001323
4.685000E-8	0.001514
4.690000E-8	0.001673
4.695000E-8	0.001881
4.700000E-8	0.001992
4.705000E-8	0.002081
4.710000E-8	0.002056
4.715000E-8	0.002027
4.720000E-8	0.001842
4.725000E-8	0.001645
4.730000E-8	0.001425
4.735000E-8	0.001123
4.740000E-8	0.000867
4.745000E-8	0.000677
4.750000E-8	0.000556
4.755000E-8	0.000491
4.760000E-8	0.000445
4.765000E-8	0.000634
4.770000E-8	0.000795
4.775000E-8	0.001019
4.780000E-8	0.001328
4.785000E-8	0.001567
4.790000E-8	0.001833
4.795000E-8	0.002052
4.800000E-8	0.002216
4.805000E-8	0.002283
4.810000E-8	0.002208
4.815000E-8	0.002116
4.820000E-8	0.001930
4.825000E-8	0.001672
4.830000E-8	0.001458
4.835000E-8	0.001248
4.840000E-8	0.000983
4.845000E-8	0.000872
4.850000E-8	0.000703
4.855000E-8	0.000747
4.860000E-8	0.000880
4.865000E-8	0.000978
4.870000E-8	0.001214
4.875000E-8	0.001539
4.880000E-8	0.001758
4.885000E-8	0.002042
4.890000E-8	0.002181
4.895000E-8	0.002359
4.900000E-8	0.002356
4.905000E-8	0.002281
4.910000E-8	0.002114
4.915000E-8	0.001883
4.920000E-8	0.001566
4.925000E-8	0.001355
4.930000E-8	0.001055
4.935000E-8	0.000850
4.940000E-8	0.000728
4.945000E-8	0.000770
4.950000E-8	0.000802
4.955000E-8	0.000939
4.960000E-8	0.001155
4.965000E-8	0.001434
4.970000E-8	0.001725
4.975000E-8	0.001991
4.980000E-8	0.002213
4.985000E-8	0.002414
4.990000E-8	0.002522
4.995000E-8	0.002439
5.000000E-8	0.002344
5.005000E-8	0.002119
5.010000E-8	0.001808
5.015000E-8	0.001480
5.020000E-8	0.001081
5.025000E-8	0.000878
5.030000E-8	0.000691
5.035000E-8	0.000566
5.040000E-8	0.000541
5.045000E-8	0.000656
5.050000E-8	0.000764
5.055000E-8	0.000984
5.060000E-8	0.001208
5.065000E-8	0.001431
5.070000E-8	0.001620
5.075000E-8	0.001819
5.080000E-8	0.001900
5.085000E-8	0.001906
5.090000E-8	0.001838
5.095000E-8	0.001723
5.100000E-8	0.001522
5.105000E-8	0.001325
5.110000E-8	0.001063
5.115000E-8	0.000822
5.120000E-8	0.000659
5.125000E-8	0.000606
5.130000E-8	0.000625
5.135000E-8	0.000588
5.140000E-8	0.000709
5.145000E-8	0.000920
5.150000E-8	0.001166
5.155000E-8	0.001416
5.160000E-8	0.001588
5.165000E-8	0.001809
5.170000E-8	0.001834
5.175000E-8	0.001889
5.180000E-8	0.001891
5.185000E-8	0.001753
5.190000E-8	0.001677
5.195000E-8	0.001478
5.200000E-8	0.001325
5.205000E-8	0.001223
5.210000E-8	0.001120
5.215000E-8	0.001025
5.220000E-8	0.000986
5.225000E-8	0.000988
5.230000E-8	0.001023
5.235000E-8	0.001169
5.240000E-8	0.001209
5.245000E-8	0.001325
5.250000E-8	0.001367
5.255000E-8	0.001569
5.260000E-8	0.001636
5.265000E-8	0.001733
5.270000E-8	0.001745
5.275000E-8	0.001744
5.280000E-8	0.001622
5.285000E-8	0.001509
5.290000E-8	0.001334
5.295000E-8	0.001272
5.300000E-8	0.001158
5.305000E-8	0.001083
5.310000E-8	0.000972
5.315000E-8	0.000944
5.320000E-8	0.000948
5.325000E-8	0.001069
5.330000E-8	0.001220
5.335000E-8	0.001458
5.340000E-8	0.001556
5.345000E-8	0.001748
5.350000E-8	0.001831
5.355000E-8	0.001864
5.360000E-8	0.001888
5.365000E-8	0.001800
5.370000E-8	0.001709
5.375000E-8	0.001625
5.380000E-8	0.001430
5.385000E-8	0.001239
5.390000E-8	0.001156
5.395000E-8	0.001008
5.400000E-8	0.000914
5.405000E-8	0.000895
5.410000E-8	0.000906
5.415000E-8	0.001030
5.420000E-8	0.001133
5.425000E-8	0.001253
5.430000E-8	0.001353
5.435000E-8	0.001575
5.440000E-8	0.001689
5.445000E-8	0.001830
5.450000E-8	0.001913
5.455000E-8	0.001911
5.460000E-8	0.001842
5.465000E-8	0.001777
5.470000E-8	0.001661
5.475000E-8	0.001578
5.480000E-8	0.001459
5.485000E-8	0.001302
5.490000E-8	0.001159
5.495000E-8	0.001075
5.500000E-8	0.000930
5.505000E-8	0.000980
5.510000E-8	0.000964
5.515000E-8	0.001058
5.520000E-8	0.001128
5.525000E-8	0.001384
5.530000E-8	0.001527
5.535000E-8	0.001767
5.540000E-8	0.001908
5.545000E-8	0.002045
5.550000E-8	0.002080
5.555000E-8	0.002070
5.560000E-8	0.002002
5.565000E-8	0.001911
5.570000E-8	0.001777
5.575000E-8	0.001550
5.580000E-8	0.001364
5.585000E-8	0.001242
5.590000E-8	0.001019
5.595000E-8	0.000948
5.600000E-8	0.000841
5.605000E-8	0.000842
5.610000E-8	0.000869
5.615000E-8	0.000961
5.620000E-8	0.001038
5.625000E-8	0.001233
5.630000E-8	0.001406
5.635000E-8	0.001591
5.640000E-8	0.001683
5.645000E-8	0.001789
5.650000E-8	0.001909
5.655000E-8	0.001855
5.660000E-8	0.001759
5.665000E-8	0.001655
5.670000E-8	0.001509
5.675000E-8	0.001348
5.680000E-8	0.001155
5.685000E-8	0.001130
5.690000E-8	0.001112
5.695000E-8	0.001111
5.700000E-8	0.001258
5.705000E-8	0.001494
5.710000E-8	0.001663
5.715000E-8	0.001875
5.720000E-8	0.002036
5.725000E-8	0.002209
5.730000E-8	0.002261
5.735000E-8	0.002350
5.740000E-8	0.002314
5.745000E-8	0.002219
5.750000E-8	0.002020
5.755000E-8	0.001903
5.760000E-8	0.001703
5.765000E-8	0.001472
5.770000E-8	0.001327
5.775000E-8	0.001213
5.780000E-8	0.001159
5.785000E-8	0.001128
5.790000E-8	0.001228
5.795000E-8	0.001327
5.800000E-8	0.001475
5.805000E-8	0.001681
5.810000E-8	0.001738
5.815000E-8	0.001973
5.820000E-8	0.001989
5.825000E-8	0.002081
5.830000E-8	0.002080
5.835000E-8	0.001967
5.840000E-8	0.001848
5.845000E-8	0.001711
5.850000E-8	0.001533
5.855000E-8	0.001347
5.860000E-8	0.001147
5.865000E-8	0.000961
5.870000E-8	0.000852
5.875000E-8	0.000823
5.880000E-8	0.000858
5.885000E-8	0.000925
5.890000E-8	0.001002
5.895000E-8	0.001172
5.900000E-8	0.001286
5.905000E-8	0.001456
5.910000E-8	0.001488
5.915000E-8	0.001638
5.920000E-8	0.001709
5.925000E-8	0.001723
5.930000E-8	0.001719
5.935000E-8	0.001669
5.940000E-8	0.001575
5.945000E-8	0.001467
5.950000E-8	0.001378
5.955000E-8	0.001300
5.960000E-8	0.001133
5.965000E-8	0.001109
5.970000E-8	0.001095
5.975000E-8	0.001205
5.980000E-8	0.001228
5.985000E-8	0.001392
5.990000E-8	0.001614
5.995000E-8	0.001777
6.000000E-8	0.001945
6.005000E-8	0.002120
6.010000E-8	0.002192
6.015000E-8	0.002248
6.020000E-8	0.002209
6.025000E-8	0.002111
6.030000E-8	0.001902
6.035000E-8	0.001792
6.040000E-8	0.001531
6.045000E-8	0.001405
6.050000E-8	0.001286
6.055000E-8	0.001311
6.060000E-8	0.001305
6.065000E-8	0.001309
6.070000E-8	0.001366
6.075000E-8	0.001475
6.080000E-8	0.001612
6.085000E-8	0.001702
6.090000E-8	0.001806
6.095000E-8	0.001864
6.100000E-8	0.001839
6.105000E-8	0.001917
6.110000E-8	0.001884
6.115000E-8	0.001795
6.120000E-8	0.001728
6.125000E-8	0.001634
6.130000E-8	0.001475
6.135000E-8	0.001364
6.140000E-8	0.001264
6.145000E-8	0.001158
6.150000E-8	0.001080
6.155000E-8	0.001056
6.160000E-8	0.000995
6.165000E-8	0.001044
6.170000E-8	0.001036
6.175000E-8	0.001209
6.180000E-8	0.001303
6.185000E-8	0.001447
6.190000E-8	0.001523
6.195000E-8	0.001648
6.200000E-8	0.001723
6.205000E-8	0.001806
6.210000E-8	0.001772
6.215000E-8	0.001839
6.220000E-8	0.001778
6.225000E-8	0.001753
6.230000E-8	0.001602
6.235000E-8	0.001509
6.240000E-8	0.001484
6.245000E-8	0.001398
6.250000E-8	0.001383
6.255000E-8	0.001408
6.260000E-8	0.001459
6.265000E-8	0.001555
6.270000E-8	0.001642
6.275000E-8	0.001775
6.280000E-8	0.001913
6.285000E-8	0.002028
6.290000E-8	0.002072
6.295000E-8	0.002083
6.300000E-8	0.002003
6.305000E-8	0.001950
6.310000E-8	0.001820
6.315000E-8	0.001777
6.320000E-8	0.001580
6.325000E-8	0.001508
6.330000E-8	0.001342
6.335000E-8	0.001322
6.340000E-8	0.001259
6.345000E-8	0.001288
6.350000E-8	0.001300
6.355000E-8	0.001416
6.360000E-8	0.001464
6.365000E-8	0.001588
6.370000E-8	0.001695
6.375000E-8	0.001755
6.380000E-8	0.001847
6.385000E-8	0.001869
6.390000E-8	0.001933
6.395000E-8	0.001867
6.400000E-8	0.001756
6.405000E-8	0.001691
6.410000E-8	0.001569
6.415000E-8	0.001366
6.420000E-8	0.001281
6.425000E-8	0.001167
6.430000E-8	0.001061
6.435000E-8	0.001081
6.440000E-8	0.001088
6.445000E-8	0.001198
6.450000E-8	0.001328
6.455000E-8	0.001581
6.460000E-8	0.001747
6.465000E-8	0.001975
6.470000E-8	0.002120
6.475000E-8	0.002267
6.480000E-8	0.002202
6.485000E-8	0.002150
6.490000E-8	0.001989
6.495000E-8	0.001817
6.500000E-8	0.001597
6.505000E-8	0.001423
6.510000E-8	0.001203
6.515000E-8	0.001100
6.520000E-8	0.001022
6.525000E-8	0.001031
6.530000E-8	0.001036
6.535000E-8	0.001281
6.540000E-8	0.001325
6.545000E-8	0.001495
6.550000E-8	0.001583
6.555000E-8	0.001748
6.560000E-8	0.001830
6.565000E-8	0.001947
6.570000E-8	0.001950
6.575000E-8	0.001959
6.580000E-8	0.001919
6.585000E-8	0.001792
6.590000E-8	0.001716
6.595000E-8	0.001573
6.600000E-8	0.001364
6.605000E-8	0.001230
6.610000E-8	0.001153
6.615000E-8	0.001078
6.620000E-8	0.001038
6.625000E-8	0.001106
6.630000E-8	0.001158
6.635000E-8	0.001348
6.640000E-8	0.001502
6.645000E-8	0.001675
6.650000E-8	0.001948
6.655000E-8	0.002128
6.660000E-8	0.002239
6.665000E-8	0.002323
6.670000E-8	0.002297
6.675000E-8	0.002247
6.680000E-8	0.002134
6.685000E-8	0.002005
6.690000E-8	0.001745
6.695000E-8	0.001594
6.700000E-8	0.001373
6.705000E-8	0.001194
6.710000E-8	0.000984
6.715000E-8	0.000994
6.720000E-8	0.000947
6.725000E-8	0.000966
6.730000E-8	0.001045
6.735000E-8	0.001242
6.740000E-8	0.001378
6.745000E-8	0.001619
6.750000E-8	0.001709
6.755000E-8	0.001792
6.760000E-8	0.001767
6.765000E-8	0.001797
6.770000E-8	0.001767
6.775000E-8	0.001611
6.780000E-8	0.001508
6.785000E-8	0.001352
6.790000E-8	0.001234
6.795000E-8	0.001209
6.800000E-8	0.001098
6.805000E-8	0.001081
6.810000E-8	0.001084
6.815000E-8	0.001198
6.820000E-8	0.001283
6.825000E-8	0.001441
6.830000E-8	0.001597
6.835000E-8	0.001788
6.840000E-8	0.001897
6.845000E-8	0.001956
6.850000E-8	0.002003
6.855000E-8	0.002000
6.860000E-8	0.001902
6.865000E-8	0.001748
6.870000E-8	0.001586
6.875000E-8	0.001519
6.880000E-8	0.001330
6.885000E-8	0.001227
6.890000E-8	0.001189
6.895000E-8	0.001205
6.900000E-8	0.001206
6.905000E-8	0.001325
6.910000E-8	0.001408
6.915000E-8	0.001581
6.920000E-8	0.001786
6.925000E-8	0.001845
6.930000E-8	0.001937
6.935000E-8	0.001977
6.940000E-8	0.001942
6.945000E-8	0.001877
6.950000E-8	0.001811
6.955000E-8	0.001725
6.960000E-8	0.001583
6.965000E-8	0.001447
6.970000E-8	0.001356
6.975000E-8	0.001252
6.980000E-8	0.001183
6.985000E-8	0.001238
6.990000E-8	0.001323
6.995000E-8	0.001398
7.000000E-8	0.001339
7.005000E-8	0.001447
7.010000E-8	0.001552
7.015000E-8	0.001572
7.020000E-8	0.001547
7.025000E-8	0.001611
7.030000E-8	0.001681
7.035000E-8	0.001677
7.040000E-8	0.001781
7.045000E-8	0.001817
7.050000E-8	0.001727
7.055000E-8	0.001692
7.060000E-8	0.001586
7.065000E-8	0.001362
7.070000E-8	0.001191
7.075000E-8	0.000973
7.080000E-8	0.000798
7.085000E-8	0.000781
7.090000E-8	0.000691
7.095000E-8	0.000689
7.100000E-8	0.000828
7.105000E-8	0.001011
7.110000E-8	0.001114
7.115000E-8	0.001323
7.120000E-8	0.001502
7.125000E-8	0.001636
7.130000E-8	0.001687
7.135000E-8	0.001694
7.140000E-8	0.001622
7.145000E-8	0.001523
7.150000E-8	0.001347
7.155000E-8	0.001320
7.160000E-8	0.001227
7.165000E-8	0.001208
7.170000E-8	0.001213
7.175000E-8	0.001252
7.180000E-8	0.001272
7.185000E-8	0.001327
7.190000E-8	0.001433
7.195000E-8	0.001514
7.200000E-8	0.001558
7.205000E-8	0.001706
7.210000E-8	0.001758
7.215000E-8	0.001723
7.220000E-8	0.001767
7.225000E-8	0.001681
7.230000E-8	0.001627
7.235000E-8	0.001544
7.240000E-8	0.001359
7.245000E-8	0.001289
7.250000E-8	0.001180
7.255000E-8	0.001144
7.260000E-8	0.001078
7.265000E-8	0.001150
7.270000E-8	0.001089
7.275000E-8	0.001136
7.280000E-8	0.001280
7.285000E-8	0.001383
7.290000E-8	0.001405
7.295000E-8	0.001478
7.300000E-8	0.001448
7.305000E-8	0.001455
7.310000E-8	0.001497
7.315000E-8	0.001477
7.320000E-8	0.001423
7.325000E-8	0.001397
7.330000E-8	0.001441
7.335000E-8	0.001388
7.340000E-8	0.001394
7.345000E-8	0.001420
7.350000E-8	0.001447
7.355000E-8	0.001447
7.360000E-8	0.001439
7.365000E-8	0.001470
7.370000E-8	0.001423
7.375000E-8	0.001498
7.380000E-8	0.001563
7.385000E-8	0.001569
7.390000E-8	0.001642
7.395000E-8	0.001753
7.400000E-8	0.001766
7.405000E-8	0.001888
7.410000E-8	0.001922
7.415000E-8	0.001942
7.420000E-8	0.001891
7.425000E-8	0.001867
7.430000E-8	0.001755
7.435000E-8	0.001689
7.440000E-8	0.001575
7.445000E-8	0.001514
7.450000E-8	0.001472
7.455000E-8	0.001528
7.460000E-8	0.001517
7.465000E-8	0.001647
7.470000E-8	0.001658
7.475000E-8	0.001733
7.480000E-8	0.001852
7.485000E-8	0.001833
7.490000E-8	0.001842
7.495000E-8	0.001864
7.500000E-8	0.001813
7.505000E-8	0.001722
7.510000E-8	0.001638
7.515000E-8	0.001564
7.520000E-8	0.001469
7.525000E-8	0.001448
7.530000E-8	0.001366
7.535000E-8	0.001384
7.540000E-8	0.001358
7.545000E-8	0.001356
7.550000E-8	0.001406
7.555000E-8	0.001420
7.560000E-8	0.001439
7.565000E-8	0.001492
7.570000E-8	0.001475
7.575000E-8	0.001616
7.580000E-8	0.001653
7.585000E-8	0.001677
7.590000E-8	0.001677
7.595000E-8	0.001684
7.600000E-8	0.001653
7.605000E-8	0.001584
7.610000E-8	0.001466
7.615000E-8	0.001433
7.620000E-8	0.001358
7.625000E-8	0.001292
7.630000E-8	0.001227
7.635000E-8	0.001255
7.640000E-8	0.001244
7.645000E-8	0.001269
7.650000E-8	0.001236
7.655000E-8	0.001353
7.660000E-8	0.001464
7.665000E-8	0.001542
7.670000E-8	0.001530
7.675000E-8	0.001625
7.680000E-8	0.001589
7.685000E-8	0.001653
7.690000E-8	0.001606
7.695000E-8	0.001638
7.700000E-8	0.001563
7.705000E-8	0.001450
7.710000E-8	0.001422
7.715000E-8	0.001391
7.720000E-8	0.001288
7.725000E-8	0.001194
7.730000E-8	0.001209
7.735000E-8	0.001220
7.740000E-8	0.001219
7.745000E-8	0.001189
7.750000E-8	0.001253
7.755000E-8	0.001314
7.760000E-8	0.001398
7.765000E-8	0.001478
7.770000E-8	0.001569
7.775000E-8	0.001638
7.780000E-8	0.001666
7.785000E-8	0.001639
7.790000E-8	0.001606
7.795000E-8	0.001644
7.800000E-8	0.001494
7.805000E-8	0.001538
7.810000E-8	0.001503
7.815000E-8	0.001522
7.820000E-8	0.001437
7.825000E-8	0.001567
7.830000E-8	0.001553
7.835000E-8	0.001645
7.840000E-8	0.001661
7.845000E-8	0.001708
7.850000E-8	0.001717
7.855000E-8	0.001745
7.860000E-8	0.001719
7.865000E-8	0.001752
7.870000E-8	0.001680
7.875000E-8	0.001655
7.880000E-8	0.001669
7.885000E-8	0.001602
7.890000E-8	0.001513
7.895000E-8	0.001419
7.900000E-8	0.001381
7.905000E-8	0.001330
7.910000E-8	0.001306
7.915000E-8	0.001227
7.920000E-8	0.001106
7.925000E-8	0.001056
7.930000E-8	0.001009
7.935000E-8	0.001056
7.940000E-8	0.001064
7.945000E-8	0.001122
7.950000E-8	0.001236
7.955000E-8	0.001384
7.960000E-8	0.001478
7.965000E-8	0.001603
7.970000E-8	0.001705
7.975000E-8	0.001784
7.980000E-8	0.001825
7.985000E-8	0.001797
7.990000E-8	0.001750
7.995000E-8	0.001680
8.000000E-8	0.001602
8.005000E-8	0.001536
8.010000E-8	0.001378
8.015000E-8	0.001409
8.020000E-8	0.001364
8.025000E-8	0.001330
8.030000E-8	0.001317
8.035000E-8	0.001316
8.040000E-8	0.001309
8.045000E-8	0.001345
8.050000E-8	0.001305
8.055000E-8	0.001369
8.060000E-8	0.001366
8.065000E-8	0.001403
8.070000E-8	0.001456
8.075000E-8	0.001470
8.080000E-8	0.001456
8.085000E-8	0.001445
8.090000E-8	0.001519
8.095000E-8	0.001494
8.100000E-8	0.001447
8.105000E-8	0.001433
8.110000E-8	0.001441
8.115000E-8	0.001494
8.120000E-8	0.001403
8.125000E-8	0.001433
8.130000E-8	0.001495
8.135000E-8	0.001530
8.140000E-8	0.001547
8.145000E-8	0.001650
8.150000E-8	0.001763
8.155000E-8	0.001833
8.160000E-8	0.001858
8.165000E-8	0.001863
8.170000E-8	0.001830
8.175000E-8	0.001753
8.180000E-8	0.001656
8.185000E-8	0.001483
8.190000E-8	0.001333
8.195000E-8	0.001258
8.200000E-8	0.001167
8.205000E-8	0.001134
8.210000E-8	0.001130
8.215000E-8	0.001245
8.220000E-8	0.001323
8.225000E-8	0.001470
8.230000E-8	0.001525
8.235000E-8	0.001706
8.240000E-8	0.001842
8.245000E-8	0.001859
8.250000E-8	0.001894
8.255000E-8	0.001920
8.260000E-8	0.001833
8.265000E-8	0.001786
8.270000E-8	0.001655
8.275000E-8	0.001586
8.280000E-8	0.001445
8.285000E-8	0.001389
8.290000E-8	0.001302
8.295000E-8	0.001295
8.300000E-8	0.001278
8.305000E-8	0.001295
8.310000E-8	0.001353
8.315000E-8	0.001514
8.320000E-8	0.001552
8.325000E-8	0.001703
8.330000E-8	0.001725
8.335000E-8	0.001692
8.340000E-8	0.001728
8.345000E-8	0.001727
8.350000E-8	0.001684
8.355000E-8	0.001630
8.360000E-8	0.001542
8.365000E-8	0.001577
8.370000E-8	0.001467
8.375000E-8	0.001469
8.380000E-8	0.001423
8.385000E-8	0.001447
8.390000E-8	0.001422
8.395000E-8	0.001433
8.400000E-8	0.001437
8.405000E-8	0.001420
8.410000E-8	0.001458
8.415000E-8	0.001473
8.420000E-8	0.001505
8.425000E-8	0.001572
8.430000E-8	0.001575
8.435000E-8	0.001559
8.440000E-8	0.001614
8.445000E-8	0.001578
8.450000E-8	0.001533
8.455000E-8	0.001511
8.460000E-8	0.001466
8.465000E-8	0.001402
8.470000E-8	0.001289
8.475000E-8	0.001295
8.480000E-8	0.001217
8.485000E-8	0.001278
8.490000E-8	0.001311
8.495000E-8	0.001375
8.500000E-8	0.001441
8.505000E-8	0.001527
8.510000E-8	0.001620
8.515000E-8	0.001695
8.520000E-8	0.001745
8.525000E-8	0.001833
8.530000E-8	0.001816
8.535000E-8	0.001838
8.540000E-8	0.001777
8.545000E-8	0.001773
8.550000E-8	0.001767
8.555000E-8	0.001703
8.560000E-8	0.001692
8.565000E-8	0.001623
8.570000E-8	0.001581
8.575000E-8	0.001555
8.580000E-8	0.001483
8.585000E-8	0.001505
8.590000E-8	0.001417
8.595000E-8	0.001455
8.600000E-8	0.001506
8.605000E-8	0.001555
8.610000E-8	0.001647
8.615000E-8	0.001713
8.620000E-8	0.001741
8.625000E-8	0.001792
8.630000E-8	0.001778
8.635000E-8	0.001717
8.640000E-8	0.001702
8.645000E-8	0.001570
8.650000E-8	0.001442
8.655000E-8	0.001389
8.660000E-8	0.001278
8.665000E-8	0.001214
8.670000E-8	0.001167
8.675000E-8	0.001195
8.680000E-8	0.001253
8.685000E-8	0.001347
8.690000E-8	0.001459
8.695000E-8	0.001598
8.700000E-8	0.001639
8.705000E-8	0.001738
8.710000E-8	0.001753
8.715000E-8	0.001838
8.720000E-8	0.001780
8.725000E-8	0.001778
8.730000E-8	0.001684
8.735000E-8	0.001681
8.740000E-8	0.001639
8.745000E-8	0.001598
8.750000E-8	0.001491
8.755000E-8	0.001459
8.760000E-8	0.001366
8.765000E-8	0.001355
8.770000E-8	0.001378
8.775000E-8	0.001456
8.780000E-8	0.001514
8.785000E-8	0.001559
8.790000E-8	0.001619
8.795000E-8	0.001713
8.800000E-8	0.001758
8.805000E-8	0.001747
8.810000E-8	0.001709
8.815000E-8	0.001691
8.820000E-8	0.001742
8.825000E-8	0.001703
8.830000E-8	0.001741
8.835000E-8	0.001723
8.840000E-8	0.001698
8.845000E-8	0.001744
8.850000E-8	0.001689
8.855000E-8	0.001734
8.860000E-8	0.001689
8.865000E-8	0.001753
8.870000E-8	0.001708
8.875000E-8	0.001734
8.880000E-8	0.001650
8.885000E-8	0.001634
8.890000E-8	0.001603
8.895000E-8	0.001561
8.900000E-8	0.001467
8.905000E-8	0.001542
8.910000E-8	0.001491
8.915000E-8	0.001481
8.920000E-8	0.001464
8.925000E-8	0.001480
8.930000E-8	0.001452
8.935000E-8	0.001416
8.940000E-8	0.001422
8.945000E-8	0.001359
8.950000E-8	0.001448
8.955000E-8	0.001439
8.960000E-8	0.001511
8.965000E-8	0.001594
8.970000E-8	0.001641
8.975000E-8	0.001725
8.980000E-8	0.001669
8.985000E-8	0.001686
8.990000E-8	0.001697
8.995000E-8	0.001708
9.000000E-8	0.001616
9.005000E-8	0.001533
9.010000E-8	0.001470
9.015000E-8	0.001406
9.020000E-8	0.001334
9.025000E-8	0.001280
9.030000E-8	0.001270
9.035000E-8	0.001297
9.040000E-8	0.001313
9.045000E-8	0.001380
9.050000E-8	0.001450
9.055000E-8	0.001483
9.060000E-8	0.001547
9.065000E-8	0.001619
9.070000E-8	0.001642
9.075000E-8	0.001642
9.080000E-8	0.001628
9.085000E-8	0.001594
9.090000E-8	0.001531
9.095000E-8	0.001420
9.100000E-8	0.001286
9.105000E-8	0.001156
9.110000E-8	0.001039
9.115000E-8	0.000911
9.120000E-8	0.000814
9.125000E-8	0.000777
9.130000E-8	0.000731
9.135000E-8	0.000797
9.140000E-8	0.000872
9.145000E-8	0.000906
9.150000E-8	0.001059
9.155000E-8	0.001152
9.160000E-8	0.001322
9.165000E-8	0.001452
9.170000E-8	0.001498
9.175000E-8	0.001513
9.180000E-8	0.001558
9.185000E-8	0.001623
9.190000E-8	0.001631
9.195000E-8	0.001511
9.200000E-8	0.001508
9.205000E-8	0.001398
9.210000E-8	0.001314
9.215000E-8	0.001244
9.220000E-8	0.001163
9.225000E-8	0.001253
9.230000E-8	0.001256
9.235000E-8	0.001270
9.240000E-8	0.001328
9.245000E-8	0.001445
9.250000E-8	0.001509
9.255000E-8	0.001644
9.260000E-8	0.001655
9.265000E-8	0.001694
9.270000E-8	0.001784
9.275000E-8	0.001767
9.280000E-8	0.001653
9.285000E-8	0.001655
9.290000E-8	0.001539
9.295000E-8	0.001472
9.300000E-8	0.001355
9.305000E-8	0.001309
9.310000E-8	0.001186
9.315000E-8	0.001180
9.320000E-8	0.001070
9.325000E-8	0.000970
9.330000E-8	0.000942
9.335000E-8	0.000991
9.340000E-8	0.000903
9.345000E-8	0.000894
9.350000E-8	0.000938
9.355000E-8	0.001081
9.360000E-8	0.001108
9.365000E-8	0.001216
9.370000E-8	0.001250
9.375000E-8	0.001428
9.380000E-8	0.001461
9.385000E-8	0.001623
9.390000E-8	0.001598
9.395000E-8	0.001713
9.400000E-8	0.001653
9.405000E-8	0.001598
9.410000E-8	0.001628
9.415000E-8	0.001600
9.420000E-8	0.001513
9.425000E-8	0.001503
9.430000E-8	0.001533
9.435000E-8	0.001584
9.440000E-8	0.001564
9.445000E-8	0.001655
9.450000E-8	0.001641
9.455000E-8	0.001653
9.460000E-8	0.001614
9.465000E-8	0.001592
9.470000E-8	0.001536
9.475000E-8	0.001450
9.480000E-8	0.001328
9.485000E-8	0.001244
9.490000E-8	0.001153
9.495000E-8	0.001153
9.500000E-8	0.001094
9.505000E-8	0.001119
9.510000E-8	0.001133
9.515000E-8	0.001206
9.520000E-8	0.001164
9.525000E-8	0.001228
9.530000E-8	0.001252
9.535000E-8	0.001334
9.540000E-8	0.001350
9.545000E-8	0.001350
9.550000E-8	0.001366
9.555000E-8	0.001402
9.560000E-8	0.001409
9.565000E-8	0.001458
9.570000E-8	0.001459
9.575000E-8	0.001538
9.580000E-8	0.001527
9.585000E-8	0.001622
9.590000E-8	0.001623
9.595000E-8	0.001689
9.600000E-8	0.001684
9.605000E-8	0.001784
9.610000E-8	0.001719
9.615000E-8	0.001689
9.620000E-8	0.001644
9.625000E-8	0.001634
9.630000E-8	0.001594
9.635000E-8	0.001619
9.640000E-8	0.001558
9.645000E-8	0.001581
9.650000E-8	0.001534
9.655000E-8	0.001545
9.660000E-8	0.001561
9.665000E-8	0.001553
9.670000E-8	0.001452
9.675000E-8	0.001492
9.680000E-8	0.001359
9.685000E-8	0.001403
9.690000E-8	0.001339
9.695000E-8	0.001284
9.700000E-8	0.001281
9.705000E-8	0.001269
9.710000E-8	0.001286
9.715000E-8	0.001323
9.720000E-8	0.001323
9.725000E-8	0.001453
9.730000E-8	0.001475
9.735000E-8	0.001561
9.740000E-8	0.001589
9.745000E-8	0.001692
9.750000E-8	0.001692
9.755000E-8	0.001698
9.760000E-8	0.001631
9.765000E-8	0.001622
9.770000E-8	0.001552
9.775000E-8	0.001478
9.780000E-8	0.001372
9.785000E-8	0.001403
9.790000E-8	0.001263
9.795000E-8	0.001278
9.800000E-8	0.001236
9.805000E-8	0.001311
9.810000E-8	0.001339
9.815000E-8	0.001441
9.820000E-8	0.001572
9.825000E-8	0.001634
9.830000E-8	0.001653
9.835000E-8	0.001750
9.840000E-8	0.001730
9.845000E-8	0.001692
9.850000E-8	0.001631
9.855000E-8	0.001598
9.860000E-8	0.001498
9.865000E-8	0.001437
9.870000E-8	0.001391
9.875000E-8	0.001362
9.880000E-8	0.001389
9.885000E-8	0.001416
9.890000E-8	0.001417
9.895000E-8	0.001430
9.900000E-8	0.001439
9.905000E-8	0.001598
9.910000E-8	0.001661
9.915000E-8	0.001741
9.920000E-8	0.001723
9.925000E-8	0.001752
9.930000E-8	0.001717
9.935000E-8	0.001622
9.940000E-8	0.001586
9.945000E-8	0.001444
9.950000E-8	0.001391
9.955000E-8	0.001295
9.960000E-8	0.001231
9.965000E-8	0.001173
9.970000E-8	0.001183
9.975000E-8	0.001238
9.980000E-8	0.001220
9.985000E-8	0.001280
9.990000E-8	0.001333
9.995000E-8	0.001395
