LabVIEW Measurement	
Writer_Version	2
Reader_Version	2
Separator	Tab
Decimal_Separator	.
Multi_Headings	No
X_Columns	Multi
Time_Pref	Relative
Operator	TG lab
Date	2015/03/07
Time	11:23:31.7609486579895019531
***End_of_Header***	
	
Channels	1	
Samples	2000	
Date	1903/12/31	
Time	19:00:00	
X_Dimension	Time	
X0	0.0000000000000000E+0	
Delta_X	5.000000E-11	
***End_of_Header***		
X_Value	Untitled	Comment
0.000000	0.001884
5.000000E-11	0.001925
1.000000E-10	0.001828
1.500000E-10	0.001813
2.000000E-10	0.001834
2.500000E-10	0.001741
3.000000E-10	0.001734
3.500000E-10	0.001656
4.000000E-10	0.001706
4.500000E-10	0.001756
5.000000E-10	0.001719
5.500000E-10	0.001903
6.000000E-10	0.001922
6.500000E-10	0.001947
7.000000E-10	0.002087
7.500000E-10	0.002072
8.000000E-10	0.001984
8.500000E-10	0.001994
9.000000E-10	0.001847
9.500000E-10	0.001966
1.000000E-9	0.001872
1.050000E-9	0.001794
1.100000E-9	0.001794
1.150000E-9	0.001819
1.200000E-9	0.001753
1.250000E-9	0.001781
1.300000E-9	0.001813
1.350000E-9	0.001891
1.400000E-9	0.002087
1.450000E-9	0.002041
1.500000E-9	0.002031
1.550000E-9	0.002147
1.600000E-9	0.002116
1.650000E-9	0.002216
1.700000E-9	0.002072
1.750000E-9	0.002031
1.800000E-9	0.001994
1.850000E-9	0.001922
1.900000E-9	0.001975
1.950000E-9	0.002019
2.000000E-9	0.002059
2.050000E-9	0.002059
2.100000E-9	0.001981
2.150000E-9	0.002003
2.200000E-9	0.002016
2.250000E-9	0.002041
2.300000E-9	0.001966
2.350000E-9	0.001947
2.400000E-9	0.001978
2.450000E-9	0.001984
2.500000E-9	0.001900
2.550000E-9	0.001959
2.600000E-9	0.001881
2.650000E-9	0.001878
2.700000E-9	0.001894
2.750000E-9	0.002084
2.800000E-9	0.002094
2.850000E-9	0.002266
2.900000E-9	0.002322
2.950000E-9	0.002400
3.000000E-9	0.002378
3.050000E-9	0.002463
3.100000E-9	0.002431
3.150000E-9	0.002441
3.200000E-9	0.002284
3.250000E-9	0.002228
3.300000E-9	0.002206
3.350000E-9	0.002156
3.400000E-9	0.002122
3.450000E-9	0.002219
3.500000E-9	0.002291
3.550000E-9	0.002309
3.600000E-9	0.002363
3.650000E-9	0.002328
3.700000E-9	0.002366
3.750000E-9	0.002350
3.800000E-9	0.002366
3.850000E-9	0.002488
3.900000E-9	0.002550
3.950000E-9	0.002675
4.000000E-9	0.002816
4.050000E-9	0.003041
4.100000E-9	0.003128
4.150000E-9	0.003438
4.200000E-9	0.003647
4.250000E-9	0.003894
4.300000E-9	0.004253
4.350000E-9	0.004531
4.400000E-9	0.004875
4.450000E-9	0.005294
4.500000E-9	0.005741
4.550000E-9	0.006387
4.600000E-9	0.007016
4.650000E-9	0.007619
4.700000E-9	0.008294
4.750000E-9	0.009109
4.800000E-9	0.009875
4.850000E-9	0.010841
4.900000E-9	0.011781
4.950000E-9	0.012853
5.000000E-9	0.013978
5.050000E-9	0.015122
5.100000E-9	0.016300
5.150000E-9	0.017547
5.200000E-9	0.018609
5.250000E-9	0.019537
5.300000E-9	0.020397
5.350000E-9	0.020925
5.400000E-9	0.021375
5.450000E-9	0.021538
5.500000E-9	0.021325
5.550000E-9	0.020938
5.600000E-9	0.020234
5.650000E-9	0.019400
5.700000E-9	0.018341
5.750000E-9	0.017275
5.800000E-9	0.016041
5.850000E-9	0.014956
5.900000E-9	0.014059
5.950000E-9	0.013297
6.000000E-9	0.012519
6.050000E-9	0.012144
6.100000E-9	0.012019
6.150000E-9	0.012153
6.200000E-9	0.012284
6.250000E-9	0.012600
6.300000E-9	0.012991
6.350000E-9	0.013325
6.400000E-9	0.013594
6.450000E-9	0.013653
6.500000E-9	0.013534
6.550000E-9	0.013291
6.600000E-9	0.012547
6.650000E-9	0.011831
6.700000E-9	0.010925
6.750000E-9	0.009947
6.800000E-9	0.008813
6.850000E-9	0.008034
6.900000E-9	0.007297
6.950000E-9	0.006794
7.000000E-9	0.006609
7.050000E-9	0.006659
7.100000E-9	0.006888
7.150000E-9	0.007422
7.200000E-9	0.008025
7.250000E-9	0.008694
7.300000E-9	0.009122
7.350000E-9	0.009500
7.400000E-9	0.009531
7.450000E-9	0.009384
7.500000E-9	0.008994
7.550000E-9	0.008453
7.600000E-9	0.007653
7.650000E-9	0.006897
7.700000E-9	0.005981
7.750000E-9	0.005266
7.800000E-9	0.004563
7.850000E-9	0.004234
7.900000E-9	0.003897
7.950000E-9	0.004053
8.000000E-9	0.004225
8.050000E-9	0.004784
8.100000E-9	0.005263
8.150000E-9	0.005831
8.200000E-9	0.006494
8.250000E-9	0.006975
8.300000E-9	0.007097
8.350000E-9	0.007213
8.400000E-9	0.007163
8.450000E-9	0.006834
8.500000E-9	0.006291
8.550000E-9	0.005566
8.600000E-9	0.004803
8.650000E-9	0.004050
8.700000E-9	0.003331
8.750000E-9	0.002847
8.800000E-9	0.002419
8.850000E-9	0.002269
8.900000E-9	0.002378
8.950000E-9	0.002625
9.000000E-9	0.003153
9.050000E-9	0.003853
9.100000E-9	0.004387
9.150000E-9	0.004916
9.200000E-9	0.005313
9.250000E-9	0.005691
9.300000E-9	0.005669
9.350000E-9	0.005584
9.400000E-9	0.005219
9.450000E-9	0.004769
9.500000E-9	0.004056
9.550000E-9	0.003506
9.600000E-9	0.002603
9.650000E-9	0.002034
9.700000E-9	0.001459
9.750000E-9	0.001100
9.800000E-9	0.000966
9.850000E-9	0.001263
9.900000E-9	0.001603
9.950000E-9	0.002178
1.000000E-8	0.002831
1.005000E-8	0.003638
1.010000E-8	0.004225
1.015000E-8	0.004778
1.020000E-8	0.005100
1.025000E-8	0.005081
1.030000E-8	0.004984
1.035000E-8	0.004531
1.040000E-8	0.003834
1.045000E-8	0.003213
1.050000E-8	0.002491
1.055000E-8	0.001878
1.060000E-8	0.001316
1.065000E-8	0.000944
1.070000E-8	0.000791
1.075000E-8	0.000894
1.080000E-8	0.001166
1.085000E-8	0.001769
1.090000E-8	0.002334
1.095000E-8	0.003006
1.100000E-8	0.003706
1.105000E-8	0.004378
1.110000E-8	0.004584
1.115000E-8	0.004863
1.120000E-8	0.004766
1.125000E-8	0.004500
1.130000E-8	0.003909
1.135000E-8	0.003297
1.140000E-8	0.002619
1.145000E-8	0.001825
1.150000E-8	0.001306
1.155000E-8	0.000828
1.160000E-8	0.000634
1.165000E-8	0.000572
1.170000E-8	0.000700
1.175000E-8	0.001050
1.180000E-8	0.001569
1.185000E-8	0.002175
1.190000E-8	0.002844
1.195000E-8	0.003363
1.200000E-8	0.003731
1.205000E-8	0.004116
1.210000E-8	0.004078
1.215000E-8	0.004078
1.220000E-8	0.003691
1.225000E-8	0.003278
1.230000E-8	0.002450
1.235000E-8	0.001894
1.240000E-8	0.001197
1.245000E-8	0.000813
1.250000E-8	0.000306
1.255000E-8	0.000188
1.260000E-8	0.000209
1.265000E-8	0.000509
1.270000E-8	0.000950
1.275000E-8	0.001456
1.280000E-8	0.001891
1.285000E-8	0.002591
1.290000E-8	0.003253
1.295000E-8	0.003644
1.300000E-8	0.003900
1.305000E-8	0.004013
1.310000E-8	0.003734
1.315000E-8	0.003409
1.320000E-8	0.002869
1.325000E-8	0.002403
1.330000E-8	0.001578
1.335000E-8	0.001234
1.340000E-8	0.000647
1.345000E-8	0.000381
1.350000E-8	0.000309
1.355000E-8	0.000416
1.360000E-8	0.000734
1.365000E-8	0.001281
1.370000E-8	0.001822
1.375000E-8	0.002516
1.380000E-8	0.003084
1.385000E-8	0.003578
1.390000E-8	0.003878
1.395000E-8	0.004072
1.400000E-8	0.003988
1.405000E-8	0.003816
1.410000E-8	0.003419
1.415000E-8	0.002931
1.420000E-8	0.002378
1.425000E-8	0.001697
1.430000E-8	0.001100
1.435000E-8	0.000784
1.440000E-8	0.000537
1.445000E-8	0.000500
1.450000E-8	0.000603
1.455000E-8	0.000944
1.460000E-8	0.001209
1.465000E-8	0.001709
1.470000E-8	0.002247
1.475000E-8	0.002847
1.480000E-8	0.003172
1.485000E-8	0.003422
1.490000E-8	0.003484
1.495000E-8	0.003481
1.500000E-8	0.003197
1.505000E-8	0.002703
1.510000E-8	0.002131
1.515000E-8	0.001606
1.520000E-8	0.001031
1.525000E-8	0.000569
1.530000E-8	0.000194
1.535000E-8	-0.000166
1.540000E-8	-0.000147
1.545000E-8	0.000131
1.550000E-8	0.000481
1.555000E-8	0.001050
1.560000E-8	0.001681
1.565000E-8	0.002288
1.570000E-8	0.002809
1.575000E-8	0.003222
1.580000E-8	0.003550
1.585000E-8	0.003613
1.590000E-8	0.003381
1.595000E-8	0.002997
1.600000E-8	0.002503
1.605000E-8	0.002084
1.610000E-8	0.001500
1.615000E-8	0.001069
1.620000E-8	0.000766
1.625000E-8	0.000566
1.630000E-8	0.000456
1.635000E-8	0.000594
1.640000E-8	0.000888
1.645000E-8	0.001316
1.650000E-8	0.001869
1.655000E-8	0.002500
1.660000E-8	0.002978
1.665000E-8	0.003325
1.670000E-8	0.003519
1.675000E-8	0.003678
1.680000E-8	0.003722
1.685000E-8	0.003506
1.690000E-8	0.003159
1.695000E-8	0.002631
1.700000E-8	0.002100
1.705000E-8	0.001700
1.710000E-8	0.001066
1.715000E-8	0.000681
1.720000E-8	0.000466
1.725000E-8	0.000425
1.730000E-8	0.000475
1.735000E-8	0.000784
1.740000E-8	0.001072
1.745000E-8	0.001528
1.750000E-8	0.002072
1.755000E-8	0.002628
1.760000E-8	0.003028
1.765000E-8	0.003316
1.770000E-8	0.003406
1.775000E-8	0.003450
1.780000E-8	0.003134
1.785000E-8	0.002597
1.790000E-8	0.002009
1.795000E-8	0.001447
1.800000E-8	0.000766
1.805000E-8	0.000378
1.810000E-8	3.437500E-5
1.815000E-8	-9.375000E-6
1.820000E-8	-3.125000E-6
1.825000E-8	0.000328
1.830000E-8	0.000769
1.835000E-8	0.001219
1.840000E-8	0.001784
1.845000E-8	0.002488
1.850000E-8	0.002922
1.855000E-8	0.003300
1.860000E-8	0.003328
1.865000E-8	0.003303
1.870000E-8	0.003225
1.875000E-8	0.002872
1.880000E-8	0.002384
1.885000E-8	0.001900
1.890000E-8	0.001356
1.895000E-8	0.000909
1.900000E-8	0.000603
1.905000E-8	0.000541
1.910000E-8	0.000400
1.915000E-8	0.000606
1.920000E-8	0.000803
1.925000E-8	0.001231
1.930000E-8	0.001672
1.935000E-8	0.002184
1.940000E-8	0.002719
1.945000E-8	0.003200
1.950000E-8	0.003406
1.955000E-8	0.003622
1.960000E-8	0.003572
1.965000E-8	0.003303
1.970000E-8	0.002997
1.975000E-8	0.002572
1.980000E-8	0.001941
1.985000E-8	0.001522
1.990000E-8	0.001050
1.995000E-8	0.000684
2.000000E-8	0.000497
2.005000E-8	0.000466
2.010000E-8	0.000541
2.015000E-8	0.000850
2.020000E-8	0.001200
2.025000E-8	0.001612
2.030000E-8	0.002116
2.035000E-8	0.002547
2.040000E-8	0.002878
2.045000E-8	0.003128
2.050000E-8	0.003169
2.055000E-8	0.003087
2.060000E-8	0.002866
2.065000E-8	0.002381
2.070000E-8	0.002000
2.075000E-8	0.001609
2.080000E-8	0.001091
2.085000E-8	0.000750
2.090000E-8	0.000388
2.095000E-8	0.000272
2.100000E-8	0.000397
2.105000E-8	0.000516
2.110000E-8	0.000806
2.115000E-8	0.001144
2.120000E-8	0.001631
2.125000E-8	0.002125
2.130000E-8	0.002488
2.135000E-8	0.002766
2.140000E-8	0.002894
2.145000E-8	0.002981
2.150000E-8	0.002866
2.155000E-8	0.002581
2.160000E-8	0.002284
2.165000E-8	0.001841
2.170000E-8	0.001431
2.175000E-8	0.001175
2.180000E-8	0.000813
2.185000E-8	0.000713
2.190000E-8	0.000741
2.195000E-8	0.000819
2.200000E-8	0.001191
2.205000E-8	0.001553
2.210000E-8	0.002063
2.215000E-8	0.002541
2.220000E-8	0.002931
2.225000E-8	0.003244
2.230000E-8	0.003491
2.235000E-8	0.003528
2.240000E-8	0.003378
2.245000E-8	0.003200
2.250000E-8	0.002847
2.255000E-8	0.002419
2.260000E-8	0.001913
2.265000E-8	0.001431
2.270000E-8	0.000919
2.275000E-8	0.000744
2.280000E-8	0.000647
2.285000E-8	0.000588
2.290000E-8	0.000709
2.295000E-8	0.000997
2.300000E-8	0.001334
2.305000E-8	0.001859
2.310000E-8	0.002303
2.315000E-8	0.002691
2.320000E-8	0.002919
2.325000E-8	0.003019
2.330000E-8	0.003028
2.335000E-8	0.002903
2.340000E-8	0.002616
2.345000E-8	0.002234
2.350000E-8	0.001809
2.355000E-8	0.001459
2.360000E-8	0.000981
2.365000E-8	0.000756
2.370000E-8	0.000612
2.375000E-8	0.000638
2.380000E-8	0.000631
2.385000E-8	0.000763
2.390000E-8	0.001066
2.395000E-8	0.001375
2.400000E-8	0.001706
2.405000E-8	0.002128
2.410000E-8	0.002288
2.415000E-8	0.002538
2.420000E-8	0.002753
2.425000E-8	0.002688
2.430000E-8	0.002553
2.435000E-8	0.002278
2.440000E-8	0.002016
2.445000E-8	0.001766
2.450000E-8	0.001416
2.455000E-8	0.001256
2.460000E-8	0.001063
2.465000E-8	0.000981
2.470000E-8	0.000947
2.475000E-8	0.001153
2.480000E-8	0.001297
2.485000E-8	0.001731
2.490000E-8	0.001909
2.495000E-8	0.002313
2.500000E-8	0.002522
2.505000E-8	0.002706
2.510000E-8	0.002775
2.515000E-8	0.002831
2.520000E-8	0.002638
2.525000E-8	0.002500
2.530000E-8	0.002213
2.535000E-8	0.001856
2.540000E-8	0.001447
2.545000E-8	0.001134
2.550000E-8	0.000838
2.555000E-8	0.000688
2.560000E-8	0.000578
2.565000E-8	0.000716
2.570000E-8	0.000741
2.575000E-8	0.000934
2.580000E-8	0.001313
2.585000E-8	0.001731
2.590000E-8	0.001919
2.595000E-8	0.002356
2.600000E-8	0.002631
2.605000E-8	0.002813
2.610000E-8	0.002703
2.615000E-8	0.002700
2.620000E-8	0.002631
2.625000E-8	0.002331
2.630000E-8	0.002047
2.635000E-8	0.001666
2.640000E-8	0.001241
2.645000E-8	0.001000
2.650000E-8	0.000697
2.655000E-8	0.000600
2.660000E-8	0.000638
2.665000E-8	0.000728
2.670000E-8	0.000944
2.675000E-8	0.001163
2.680000E-8	0.001400
2.685000E-8	0.001856
2.690000E-8	0.002166
2.695000E-8	0.002431
2.700000E-8	0.002541
2.705000E-8	0.002656
2.710000E-8	0.002453
2.715000E-8	0.002272
2.720000E-8	0.001925
2.725000E-8	0.001647
2.730000E-8	0.001291
2.735000E-8	0.001059
2.740000E-8	0.000869
2.745000E-8	0.000638
2.750000E-8	0.000697
2.755000E-8	0.000797
2.760000E-8	0.000906
2.765000E-8	0.001075
2.770000E-8	0.001397
2.775000E-8	0.001669
2.780000E-8	0.001906
2.785000E-8	0.002172
2.790000E-8	0.002328
2.795000E-8	0.002450
2.800000E-8	0.002484
2.805000E-8	0.002456
2.810000E-8	0.002278
2.815000E-8	0.002019
2.820000E-8	0.001763
2.825000E-8	0.001494
2.830000E-8	0.001216
2.835000E-8	0.001009
2.840000E-8	0.000850
2.845000E-8	0.000816
2.850000E-8	0.000819
2.855000E-8	0.001034
2.860000E-8	0.001147
2.865000E-8	0.001594
2.870000E-8	0.001806
2.875000E-8	0.002156
2.880000E-8	0.002441
2.885000E-8	0.002628
2.890000E-8	0.002784
2.895000E-8	0.002859
2.900000E-8	0.002684
2.905000E-8	0.002463
2.910000E-8	0.002237
2.915000E-8	0.001903
2.920000E-8	0.001494
2.925000E-8	0.001369
2.930000E-8	0.001112
2.935000E-8	0.000891
2.940000E-8	0.000856
2.945000E-8	0.000944
2.950000E-8	0.001134
2.955000E-8	0.001341
2.960000E-8	0.001559
2.965000E-8	0.001822
2.970000E-8	0.001950
2.975000E-8	0.002197
2.980000E-8	0.002334
2.985000E-8	0.002441
2.990000E-8	0.002281
2.995000E-8	0.002203
3.000000E-8	0.001956
3.005000E-8	0.001638
3.010000E-8	0.001384
3.015000E-8	0.001150
3.020000E-8	0.001028
3.025000E-8	0.000900
3.030000E-8	0.000700
3.035000E-8	0.000778
3.040000E-8	0.000938
3.045000E-8	0.001234
3.050000E-8	0.001484
3.055000E-8	0.001888
3.060000E-8	0.002100
3.065000E-8	0.002403
3.070000E-8	0.002634
3.075000E-8	0.002788
3.080000E-8	0.002825
3.085000E-8	0.002806
3.090000E-8	0.002609
3.095000E-8	0.002316
3.100000E-8	0.001788
3.105000E-8	0.001600
3.110000E-8	0.001200
3.115000E-8	0.000978
3.120000E-8	0.000844
3.125000E-8	0.000741
3.130000E-8	0.000791
3.135000E-8	0.001047
3.140000E-8	0.001231
3.145000E-8	0.001634
3.150000E-8	0.002009
3.155000E-8	0.002341
3.160000E-8	0.002556
3.165000E-8	0.002772
3.170000E-8	0.002834
3.175000E-8	0.002694
3.180000E-8	0.002522
3.185000E-8	0.002256
3.190000E-8	0.001875
3.195000E-8	0.001616
3.200000E-8	0.001234
3.205000E-8	0.000975
3.210000E-8	0.000956
3.215000E-8	0.000859
3.220000E-8	0.000944
3.225000E-8	0.001141
3.230000E-8	0.001241
3.235000E-8	0.001534
3.240000E-8	0.001719
3.245000E-8	0.002162
3.250000E-8	0.002225
3.255000E-8	0.002384
3.260000E-8	0.002450
3.265000E-8	0.002512
3.270000E-8	0.002497
3.275000E-8	0.002425
3.280000E-8	0.002253
3.285000E-8	0.002000
3.290000E-8	0.001697
3.295000E-8	0.001463
3.300000E-8	0.001259
3.305000E-8	0.001191
3.310000E-8	0.001022
3.315000E-8	0.001100
3.320000E-8	0.001253
3.325000E-8	0.001334
3.330000E-8	0.001631
3.335000E-8	0.001897
3.340000E-8	0.002116
3.345000E-8	0.002366
3.350000E-8	0.002553
3.355000E-8	0.002522
3.360000E-8	0.002544
3.365000E-8	0.002538
3.370000E-8	0.002244
3.375000E-8	0.002181
3.380000E-8	0.001900
3.385000E-8	0.001566
3.390000E-8	0.001241
3.395000E-8	0.001134
3.400000E-8	0.000903
3.405000E-8	0.000706
3.410000E-8	0.000716
3.415000E-8	0.000753
3.420000E-8	0.000972
3.425000E-8	0.001216
3.430000E-8	0.001475
3.435000E-8	0.001766
3.440000E-8	0.001944
3.445000E-8	0.002022
3.450000E-8	0.002222
3.455000E-8	0.002466
3.460000E-8	0.002313
3.465000E-8	0.002184
3.470000E-8	0.001978
3.475000E-8	0.001709
3.480000E-8	0.001369
3.485000E-8	0.001156
3.490000E-8	0.000931
3.495000E-8	0.000800
3.500000E-8	0.000891
3.505000E-8	0.000859
3.510000E-8	0.001022
3.515000E-8	0.001322
3.520000E-8	0.001531
3.525000E-8	0.001903
3.530000E-8	0.002216
3.535000E-8	0.002413
3.540000E-8	0.002403
3.545000E-8	0.002475
3.550000E-8	0.002381
3.555000E-8	0.002244
3.560000E-8	0.001981
3.565000E-8	0.001703
3.570000E-8	0.001313
3.575000E-8	0.001187
3.580000E-8	0.000894
3.585000E-8	0.000747
3.590000E-8	0.000737
3.595000E-8	0.000747
3.600000E-8	0.000866
3.605000E-8	0.001184
3.610000E-8	0.001341
3.615000E-8	0.001641
3.620000E-8	0.001900
3.625000E-8	0.002078
3.630000E-8	0.002269
3.635000E-8	0.002322
3.640000E-8	0.002353
3.645000E-8	0.002353
3.650000E-8	0.002219
3.655000E-8	0.002087
3.660000E-8	0.001819
3.665000E-8	0.001581
3.670000E-8	0.001381
3.675000E-8	0.001256
3.680000E-8	0.001125
3.685000E-8	0.000950
3.690000E-8	0.000909
3.695000E-8	0.000975
3.700000E-8	0.001019
3.705000E-8	0.001241
3.710000E-8	0.001388
3.715000E-8	0.001709
3.720000E-8	0.001834
3.725000E-8	0.002075
3.730000E-8	0.002225
3.735000E-8	0.002300
3.740000E-8	0.002291
3.745000E-8	0.002275
3.750000E-8	0.002200
3.755000E-8	0.002116
3.760000E-8	0.001738
3.765000E-8	0.001600
3.770000E-8	0.001506
3.775000E-8	0.001381
3.780000E-8	0.001309
3.785000E-8	0.001359
3.790000E-8	0.001350
3.795000E-8	0.001572
3.800000E-8	0.001669
3.805000E-8	0.001859
3.810000E-8	0.001906
3.815000E-8	0.002216
3.820000E-8	0.002263
3.825000E-8	0.002347
3.830000E-8	0.002259
3.835000E-8	0.002156
3.840000E-8	0.002009
3.845000E-8	0.001828
3.850000E-8	0.001672
3.855000E-8	0.001525
3.860000E-8	0.001313
3.865000E-8	0.001053
3.870000E-8	0.000909
3.875000E-8	0.000997
3.880000E-8	0.000969
3.885000E-8	0.001072
3.890000E-8	0.001241
3.895000E-8	0.001575
3.900000E-8	0.001697
3.905000E-8	0.001772
3.910000E-8	0.001991
3.915000E-8	0.002175
3.920000E-8	0.002181
3.925000E-8	0.002213
3.930000E-8	0.002031
3.935000E-8	0.002050
3.940000E-8	0.001931
3.945000E-8	0.001700
3.950000E-8	0.001572
3.955000E-8	0.001366
3.960000E-8	0.001266
3.965000E-8	0.001163
3.970000E-8	0.001078
3.975000E-8	0.001047
3.980000E-8	0.001034
3.985000E-8	0.001175
3.990000E-8	0.001447
3.995000E-8	0.001622
4.000000E-8	0.001794
4.005000E-8	0.001944
4.010000E-8	0.001984
4.015000E-8	0.002078
4.020000E-8	0.002119
4.025000E-8	0.002059
4.030000E-8	0.001828
4.035000E-8	0.001725
4.040000E-8	0.001497
4.045000E-8	0.001472
4.050000E-8	0.001206
4.055000E-8	0.001084
4.060000E-8	0.000969
4.065000E-8	0.000956
4.070000E-8	0.001044
4.075000E-8	0.001247
4.080000E-8	0.001344
4.085000E-8	0.001641
4.090000E-8	0.001813
4.095000E-8	0.002134
4.100000E-8	0.002344
4.105000E-8	0.002463
4.110000E-8	0.002541
4.115000E-8	0.002497
4.120000E-8	0.002338
4.125000E-8	0.002131
4.130000E-8	0.001919
4.135000E-8	0.001750
4.140000E-8	0.001456
4.145000E-8	0.001419
4.150000E-8	0.001272
4.155000E-8	0.001266
4.160000E-8	0.001256
4.165000E-8	0.001366
4.170000E-8	0.001428
4.175000E-8	0.001675
4.180000E-8	0.001781
4.185000E-8	0.002025
4.190000E-8	0.002144
4.195000E-8	0.002300
4.200000E-8	0.002288
4.205000E-8	0.002391
4.210000E-8	0.002269
4.215000E-8	0.002225
4.220000E-8	0.001937
4.225000E-8	0.001728
4.230000E-8	0.001494
4.235000E-8	0.001347
4.240000E-8	0.001150
4.245000E-8	0.000934
4.250000E-8	0.000963
4.255000E-8	0.001044
4.260000E-8	0.001072
4.265000E-8	0.001247
4.270000E-8	0.001437
4.275000E-8	0.001691
4.280000E-8	0.001878
4.285000E-8	0.001937
4.290000E-8	0.002003
4.295000E-8	0.002125
4.300000E-8	0.001953
4.305000E-8	0.001866
4.310000E-8	0.001684
4.315000E-8	0.001625
4.320000E-8	0.001369
4.325000E-8	0.001263
4.330000E-8	0.001094
4.335000E-8	0.001200
4.340000E-8	0.001066
4.345000E-8	0.001191
4.350000E-8	0.001366
4.355000E-8	0.001634
4.360000E-8	0.001731
4.365000E-8	0.002109
4.370000E-8	0.002288
4.375000E-8	0.002325
4.380000E-8	0.002478
4.385000E-8	0.002594
4.390000E-8	0.002591
4.395000E-8	0.002591
4.400000E-8	0.002413
4.405000E-8	0.002278
4.410000E-8	0.001863
4.415000E-8	0.001794
4.420000E-8	0.001513
4.425000E-8	0.001334
4.430000E-8	0.001241
4.435000E-8	0.001244
4.440000E-8	0.001294
4.445000E-8	0.001338
4.450000E-8	0.001556
4.455000E-8	0.001653
4.460000E-8	0.001853
4.465000E-8	0.002012
4.470000E-8	0.002191
4.475000E-8	0.002316
4.480000E-8	0.002309
4.485000E-8	0.002384
4.490000E-8	0.002181
4.495000E-8	0.002003
4.500000E-8	0.001788
4.505000E-8	0.001578
4.510000E-8	0.001459
4.515000E-8	0.001328
4.520000E-8	0.001156
4.525000E-8	0.001016
4.530000E-8	0.001084
4.535000E-8	0.001325
4.540000E-8	0.001484
4.545000E-8	0.001550
4.550000E-8	0.001659
4.555000E-8	0.001906
4.560000E-8	0.001956
4.565000E-8	0.002050
4.570000E-8	0.002106
4.575000E-8	0.002138
4.580000E-8	0.002028
4.585000E-8	0.002069
4.590000E-8	0.001994
4.595000E-8	0.001906
4.600000E-8	0.001644
4.605000E-8	0.001588
4.610000E-8	0.001384
4.615000E-8	0.001341
4.620000E-8	0.001250
4.625000E-8	0.001222
4.630000E-8	0.001259
4.635000E-8	0.001381
4.640000E-8	0.001506
4.645000E-8	0.001663
4.650000E-8	0.001756
4.655000E-8	0.001963
4.660000E-8	0.002175
4.665000E-8	0.002322
4.670000E-8	0.002350
4.675000E-8	0.002288
4.680000E-8	0.002294
4.685000E-8	0.002256
4.690000E-8	0.002113
4.695000E-8	0.002059
4.700000E-8	0.001856
4.705000E-8	0.001722
4.710000E-8	0.001481
4.715000E-8	0.001428
4.720000E-8	0.001353
4.725000E-8	0.001413
4.730000E-8	0.001478
4.735000E-8	0.001588
4.740000E-8	0.001766
4.745000E-8	0.001806
4.750000E-8	0.001969
4.755000E-8	0.002081
4.760000E-8	0.002125
4.765000E-8	0.002178
4.770000E-8	0.002019
4.775000E-8	0.002009
4.780000E-8	0.001813
4.785000E-8	0.001663
4.790000E-8	0.001625
4.795000E-8	0.001478
4.800000E-8	0.001278
4.805000E-8	0.001109
4.810000E-8	0.001056
4.815000E-8	0.001072
4.820000E-8	0.001103
4.825000E-8	0.001169
4.830000E-8	0.001362
4.835000E-8	0.001603
4.840000E-8	0.001731
4.845000E-8	0.001959
4.850000E-8	0.002053
4.855000E-8	0.002247
4.860000E-8	0.002219
4.865000E-8	0.002131
4.870000E-8	0.002050
4.875000E-8	0.001866
4.880000E-8	0.001566
4.885000E-8	0.001500
4.890000E-8	0.001284
4.895000E-8	0.001247
4.900000E-8	0.001069
4.905000E-8	0.001094
4.910000E-8	0.001131
4.915000E-8	0.001328
4.920000E-8	0.001384
4.925000E-8	0.001572
4.930000E-8	0.001663
4.935000E-8	0.001881
4.940000E-8	0.002041
4.945000E-8	0.002106
4.950000E-8	0.002150
4.955000E-8	0.002162
4.960000E-8	0.001963
4.965000E-8	0.001956
4.970000E-8	0.001881
4.975000E-8	0.001841
4.980000E-8	0.001691
4.985000E-8	0.001563
4.990000E-8	0.001506
4.995000E-8	0.001644
5.000000E-8	0.001559
5.005000E-8	0.001584
5.010000E-8	0.001616
5.015000E-8	0.001741
5.020000E-8	0.001725
5.025000E-8	0.001791
5.030000E-8	0.001838
5.035000E-8	0.002078
5.040000E-8	0.002031
5.045000E-8	0.002025
5.050000E-8	0.001906
5.055000E-8	0.001869
5.060000E-8	0.001647
5.065000E-8	0.001659
5.070000E-8	0.001413
5.075000E-8	0.001378
5.080000E-8	0.001206
5.085000E-8	0.001175
5.090000E-8	0.001044
5.095000E-8	0.001031
5.100000E-8	0.000984
5.105000E-8	0.001100
5.110000E-8	0.001222
5.115000E-8	0.001388
5.120000E-8	0.001506
5.125000E-8	0.001747
5.130000E-8	0.001941
5.135000E-8	0.002188
5.140000E-8	0.002216
5.145000E-8	0.002159
5.150000E-8	0.002050
5.155000E-8	0.001928
5.160000E-8	0.001800
5.165000E-8	0.001684
5.170000E-8	0.001519
5.175000E-8	0.001437
5.180000E-8	0.001319
5.185000E-8	0.001384
5.190000E-8	0.001453
5.195000E-8	0.001559
5.200000E-8	0.001722
5.205000E-8	0.001913
5.210000E-8	0.002078
5.215000E-8	0.002353
5.220000E-8	0.002431
5.225000E-8	0.002350
5.230000E-8	0.002247
5.235000E-8	0.002213
5.240000E-8	0.002000
5.245000E-8	0.001828
5.250000E-8	0.001547
5.255000E-8	0.001428
5.260000E-8	0.001256
5.265000E-8	0.001163
5.270000E-8	0.001175
5.275000E-8	0.001169
5.280000E-8	0.001219
5.285000E-8	0.001247
5.290000E-8	0.001331
5.295000E-8	0.001419
5.300000E-8	0.001625
5.305000E-8	0.001850
5.310000E-8	0.001806
5.315000E-8	0.001847
5.320000E-8	0.001875
5.325000E-8	0.001928
5.330000E-8	0.001872
5.335000E-8	0.001791
5.340000E-8	0.001703
5.345000E-8	0.001578
5.350000E-8	0.001456
5.355000E-8	0.001322
5.360000E-8	0.001088
5.365000E-8	0.001109
5.370000E-8	0.001006
5.375000E-8	0.000988
5.380000E-8	0.001047
5.385000E-8	0.001125
5.390000E-8	0.001166
5.395000E-8	0.001409
5.400000E-8	0.001566
5.405000E-8	0.001694
5.410000E-8	0.001809
5.415000E-8	0.001934
5.420000E-8	0.002019
5.425000E-8	0.002053
5.430000E-8	0.001978
5.435000E-8	0.001900
5.440000E-8	0.001875
5.445000E-8	0.001566
5.450000E-8	0.001281
5.455000E-8	0.001234
5.460000E-8	0.001100
5.465000E-8	0.001181
5.470000E-8	0.001134
5.475000E-8	0.001175
5.480000E-8	0.001322
5.485000E-8	0.001559
5.490000E-8	0.001738
5.495000E-8	0.001937
5.500000E-8	0.002044
5.505000E-8	0.002106
5.510000E-8	0.002144
5.515000E-8	0.002263
5.520000E-8	0.002075
5.525000E-8	0.002003
5.530000E-8	0.001913
5.535000E-8	0.001831
5.540000E-8	0.001725
5.545000E-8	0.001634
5.550000E-8	0.001584
5.555000E-8	0.001500
5.560000E-8	0.001500
5.565000E-8	0.001597
5.570000E-8	0.001584
5.575000E-8	0.001625
5.580000E-8	0.001625
5.585000E-8	0.001731
5.590000E-8	0.001641
5.595000E-8	0.001797
5.600000E-8	0.001747
5.605000E-8	0.001888
5.610000E-8	0.001853
5.615000E-8	0.001928
5.620000E-8	0.001838
5.625000E-8	0.001741
5.630000E-8	0.001538
5.635000E-8	0.001463
5.640000E-8	0.001459
5.645000E-8	0.001319
5.650000E-8	0.001263
5.655000E-8	0.001309
5.660000E-8	0.001372
5.665000E-8	0.001547
5.670000E-8	0.001666
5.675000E-8	0.001947
5.680000E-8	0.001966
5.685000E-8	0.002200
5.690000E-8	0.002209
5.695000E-8	0.002228
5.700000E-8	0.002266
5.705000E-8	0.002150
5.710000E-8	0.002041
5.715000E-8	0.001947
5.720000E-8	0.001803
5.725000E-8	0.001731
5.730000E-8	0.001594
5.735000E-8	0.001509
5.740000E-8	0.001478
5.745000E-8	0.001625
5.750000E-8	0.001638
5.755000E-8	0.001706
5.760000E-8	0.001822
5.765000E-8	0.001972
5.770000E-8	0.002028
5.775000E-8	0.002053
5.780000E-8	0.002069
5.785000E-8	0.002044
5.790000E-8	0.002025
5.795000E-8	0.002069
5.800000E-8	0.001919
5.805000E-8	0.001881
5.810000E-8	0.001709
5.815000E-8	0.001706
5.820000E-8	0.001488
5.825000E-8	0.001491
5.830000E-8	0.001500
5.835000E-8	0.001569
5.840000E-8	0.001575
5.845000E-8	0.001675
5.850000E-8	0.001681
5.855000E-8	0.001816
5.860000E-8	0.002006
5.865000E-8	0.002197
5.870000E-8	0.002328
5.875000E-8	0.002319
5.880000E-8	0.002297
5.885000E-8	0.002316
5.890000E-8	0.002184
5.895000E-8	0.001981
5.900000E-8	0.001806
5.905000E-8	0.001584
5.910000E-8	0.001428
5.915000E-8	0.001288
5.920000E-8	0.001075
5.925000E-8	0.001163
5.930000E-8	0.001306
5.935000E-8	0.001431
5.940000E-8	0.001406
5.945000E-8	0.001525
5.950000E-8	0.001697
5.955000E-8	0.001941
5.960000E-8	0.002028
5.965000E-8	0.002022
5.970000E-8	0.002084
5.975000E-8	0.002050
5.980000E-8	0.001872
5.985000E-8	0.001956
5.990000E-8	0.001634
5.995000E-8	0.001456
6.000000E-8	0.001434
6.005000E-8	0.001381
6.010000E-8	0.001378
6.015000E-8	0.001409
6.020000E-8	0.001316
6.025000E-8	0.001434
6.030000E-8	0.001450
6.035000E-8	0.001681
6.040000E-8	0.001669
6.045000E-8	0.001778
6.050000E-8	0.001963
6.055000E-8	0.002050
6.060000E-8	0.002019
6.065000E-8	0.002106
6.070000E-8	0.002156
6.075000E-8	0.002078
6.080000E-8	0.002066
6.085000E-8	0.002012
6.090000E-8	0.001941
6.095000E-8	0.001850
6.100000E-8	0.001663
6.105000E-8	0.001563
6.110000E-8	0.001453
6.115000E-8	0.001500
6.120000E-8	0.001450
6.125000E-8	0.001572
6.130000E-8	0.001600
6.135000E-8	0.001687
6.140000E-8	0.001766
6.145000E-8	0.001963
6.150000E-8	0.002113
6.155000E-8	0.002159
6.160000E-8	0.002197
6.165000E-8	0.002144
6.170000E-8	0.001884
6.175000E-8	0.001900
6.180000E-8	0.001769
6.185000E-8	0.001650
6.190000E-8	0.001497
6.195000E-8	0.001425
6.200000E-8	0.001194
6.205000E-8	0.001234
6.210000E-8	0.001294
6.215000E-8	0.001362
6.220000E-8	0.001434
6.225000E-8	0.001409
6.230000E-8	0.001541
6.235000E-8	0.001706
6.240000E-8	0.001725
6.245000E-8	0.001838
6.250000E-8	0.001844
6.255000E-8	0.001897
6.260000E-8	0.001944
6.265000E-8	0.001869
6.270000E-8	0.001687
6.275000E-8	0.001687
6.280000E-8	0.001719
6.285000E-8	0.001616
6.290000E-8	0.001422
6.295000E-8	0.001456
6.300000E-8	0.001453
6.305000E-8	0.001538
6.310000E-8	0.001509
6.315000E-8	0.001566
6.320000E-8	0.001747
6.325000E-8	0.001769
6.330000E-8	0.001934
6.335000E-8	0.002072
6.340000E-8	0.002078
6.345000E-8	0.002200
6.350000E-8	0.002259
6.355000E-8	0.002263
6.360000E-8	0.002169
6.365000E-8	0.002162
6.370000E-8	0.002000
6.375000E-8	0.001888
6.380000E-8	0.001834
6.385000E-8	0.001750
6.390000E-8	0.001672
6.395000E-8	0.001650
6.400000E-8	0.001591
6.405000E-8	0.001709
6.410000E-8	0.001634
6.415000E-8	0.001697
6.420000E-8	0.001884
6.425000E-8	0.001853
6.430000E-8	0.001963
6.435000E-8	0.002019
6.440000E-8	0.002138
6.445000E-8	0.002159
6.450000E-8	0.002138
6.455000E-8	0.002113
6.460000E-8	0.001916
6.465000E-8	0.001878
6.470000E-8	0.001744
6.475000E-8	0.001656
6.480000E-8	0.001588
6.485000E-8	0.001622
6.490000E-8	0.001669
6.495000E-8	0.001719
6.500000E-8	0.001753
6.505000E-8	0.001838
6.510000E-8	0.001966
6.515000E-8	0.002056
6.520000E-8	0.002078
6.525000E-8	0.002178
6.530000E-8	0.002172
6.535000E-8	0.002234
6.540000E-8	0.002181
6.545000E-8	0.002050
6.550000E-8	0.001934
6.555000E-8	0.001841
6.560000E-8	0.001656
6.565000E-8	0.001625
6.570000E-8	0.001444
6.575000E-8	0.001472
6.580000E-8	0.001469
6.585000E-8	0.001497
6.590000E-8	0.001538
6.595000E-8	0.001659
6.600000E-8	0.001769
6.605000E-8	0.001838
6.610000E-8	0.001909
6.615000E-8	0.002097
6.620000E-8	0.002141
6.625000E-8	0.002144
6.630000E-8	0.002197
6.635000E-8	0.002175
6.640000E-8	0.002103
6.645000E-8	0.002094
6.650000E-8	0.002056
6.655000E-8	0.002031
6.660000E-8	0.002019
6.665000E-8	0.001850
6.670000E-8	0.001791
6.675000E-8	0.001781
6.680000E-8	0.001713
6.685000E-8	0.001709
6.690000E-8	0.001609
6.695000E-8	0.001681
6.700000E-8	0.001916
6.705000E-8	0.001828
6.710000E-8	0.001981
6.715000E-8	0.002063
6.720000E-8	0.002019
6.725000E-8	0.002066
6.730000E-8	0.001956
6.735000E-8	0.002025
6.740000E-8	0.001913
6.745000E-8	0.001925
6.750000E-8	0.001731
6.755000E-8	0.001647
6.760000E-8	0.001437
6.765000E-8	0.001522
6.770000E-8	0.001503
6.775000E-8	0.001353
6.780000E-8	0.001369
6.785000E-8	0.001441
6.790000E-8	0.001444
6.795000E-8	0.001544
6.800000E-8	0.001566
6.805000E-8	0.001691
6.810000E-8	0.001694
6.815000E-8	0.001763
6.820000E-8	0.001728
6.825000E-8	0.001772
6.830000E-8	0.001709
6.835000E-8	0.001687
6.840000E-8	0.001659
6.845000E-8	0.001638
6.850000E-8	0.001463
6.855000E-8	0.001437
6.860000E-8	0.001334
6.865000E-8	0.001300
6.870000E-8	0.001231
6.875000E-8	0.001275
6.880000E-8	0.001272
6.885000E-8	0.001444
6.890000E-8	0.001628
6.895000E-8	0.001734
6.900000E-8	0.001919
6.905000E-8	0.002122
6.910000E-8	0.002188
6.915000E-8	0.002222
6.920000E-8	0.002269
6.925000E-8	0.002237
6.930000E-8	0.002072
6.935000E-8	0.001944
6.940000E-8	0.001803
6.945000E-8	0.001669
6.950000E-8	0.001513
6.955000E-8	0.001481
6.960000E-8	0.001403
6.965000E-8	0.001559
6.970000E-8	0.001534
6.975000E-8	0.001703
6.980000E-8	0.001731
6.985000E-8	0.001828
6.990000E-8	0.001828
6.995000E-8	0.001894
7.000000E-8	0.001881
7.005000E-8	0.001928
7.010000E-8	0.001841
7.015000E-8	0.001759
7.020000E-8	0.001759
7.025000E-8	0.001622
7.030000E-8	0.001591
7.035000E-8	0.001519
7.040000E-8	0.001506
7.045000E-8	0.001456
7.050000E-8	0.001344
7.055000E-8	0.001394
7.060000E-8	0.001362
7.065000E-8	0.001491
7.070000E-8	0.001494
7.075000E-8	0.001600
7.080000E-8	0.001606
7.085000E-8	0.001669
7.090000E-8	0.001672
7.095000E-8	0.001759
7.100000E-8	0.001750
7.105000E-8	0.001769
7.110000E-8	0.001700
7.115000E-8	0.001675
7.120000E-8	0.001600
7.125000E-8	0.001697
7.130000E-8	0.001541
7.135000E-8	0.001450
7.140000E-8	0.001331
7.145000E-8	0.001369
7.150000E-8	0.001475
7.155000E-8	0.001581
7.160000E-8	0.001687
7.165000E-8	0.001834
7.170000E-8	0.001919
7.175000E-8	0.002097
7.180000E-8	0.002181
7.185000E-8	0.002309
7.190000E-8	0.002406
7.195000E-8	0.002369
7.200000E-8	0.002325
7.205000E-8	0.002113
7.210000E-8	0.001988
7.215000E-8	0.001966
7.220000E-8	0.001781
7.225000E-8	0.001675
7.230000E-8	0.001544
7.235000E-8	0.001559
7.240000E-8	0.001544
7.245000E-8	0.001588
7.250000E-8	0.001591
7.255000E-8	0.001675
7.260000E-8	0.001931
7.265000E-8	0.001975
7.270000E-8	0.001950
7.275000E-8	0.002100
7.280000E-8	0.002022
7.285000E-8	0.002172
7.290000E-8	0.001959
7.295000E-8	0.001894
7.300000E-8	0.001769
7.305000E-8	0.001675
7.310000E-8	0.001556
7.315000E-8	0.001634
7.320000E-8	0.001475
7.325000E-8	0.001269
7.330000E-8	0.001181
7.335000E-8	0.001197
7.340000E-8	0.001106
7.345000E-8	0.001166
7.350000E-8	0.001347
7.355000E-8	0.001463
7.360000E-8	0.001547
7.365000E-8	0.001703
7.370000E-8	0.001878
7.375000E-8	0.002038
7.380000E-8	0.001991
7.385000E-8	0.001981
7.390000E-8	0.002034
7.395000E-8	0.001981
7.400000E-8	0.001766
7.405000E-8	0.001734
7.410000E-8	0.001631
7.415000E-8	0.001431
7.420000E-8	0.001434
7.425000E-8	0.001444
7.430000E-8	0.001447
7.435000E-8	0.001547
7.440000E-8	0.001666
7.445000E-8	0.001769
7.450000E-8	0.001991
7.455000E-8	0.001978
7.460000E-8	0.002063
7.465000E-8	0.002106
7.470000E-8	0.001981
7.475000E-8	0.001956
7.480000E-8	0.001828
7.485000E-8	0.001709
7.490000E-8	0.001481
7.495000E-8	0.001434
7.500000E-8	0.001328
7.505000E-8	0.001266
7.510000E-8	0.001222
7.515000E-8	0.001275
7.520000E-8	0.001319
7.525000E-8	0.001375
7.530000E-8	0.001425
7.535000E-8	0.001534
7.540000E-8	0.001622
7.545000E-8	0.001684
7.550000E-8	0.001781
7.555000E-8	0.001934
7.560000E-8	0.001913
7.565000E-8	0.001906
7.570000E-8	0.001763
7.575000E-8	0.001763
7.580000E-8	0.001603
7.585000E-8	0.001575
7.590000E-8	0.001422
7.595000E-8	0.001316
7.600000E-8	0.001425
7.605000E-8	0.001469
7.610000E-8	0.001413
7.615000E-8	0.001588
7.620000E-8	0.001772
7.625000E-8	0.001953
7.630000E-8	0.001966
7.635000E-8	0.002128
7.640000E-8	0.001984
7.645000E-8	0.002141
7.650000E-8	0.002016
7.655000E-8	0.002053
7.660000E-8	0.001975
7.665000E-8	0.001803
7.670000E-8	0.001656
7.675000E-8	0.001653
7.680000E-8	0.001634
7.685000E-8	0.001703
7.690000E-8	0.001622
7.695000E-8	0.001722
7.700000E-8	0.001753
7.705000E-8	0.001763
7.710000E-8	0.001791
7.715000E-8	0.001903
7.720000E-8	0.001891
7.725000E-8	0.001969
7.730000E-8	0.001981
7.735000E-8	0.002034
7.740000E-8	0.001937
7.745000E-8	0.001941
7.750000E-8	0.001859
7.755000E-8	0.001803
7.760000E-8	0.001781
7.765000E-8	0.001719
7.770000E-8	0.001672
7.775000E-8	0.001672
7.780000E-8	0.001616
7.785000E-8	0.001584
7.790000E-8	0.001409
7.795000E-8	0.001550
7.800000E-8	0.001541
7.805000E-8	0.001725
7.810000E-8	0.001731
7.815000E-8	0.001744
7.820000E-8	0.001759
7.825000E-8	0.001816
7.830000E-8	0.001900
7.835000E-8	0.001959
7.840000E-8	0.001916
7.845000E-8	0.001934
7.850000E-8	0.001903
7.855000E-8	0.001878
7.860000E-8	0.001788
7.865000E-8	0.001672
7.870000E-8	0.001534
7.875000E-8	0.001488
7.880000E-8	0.001347
7.885000E-8	0.001313
7.890000E-8	0.001406
7.895000E-8	0.001516
7.900000E-8	0.001606
7.905000E-8	0.001666
7.910000E-8	0.001591
7.915000E-8	0.001709
7.920000E-8	0.001691
7.925000E-8	0.001666
7.930000E-8	0.001575
7.935000E-8	0.001472
7.940000E-8	0.001419
7.945000E-8	0.001459
7.950000E-8	0.001306
7.955000E-8	0.001431
7.960000E-8	0.001359
7.965000E-8	0.001378
7.970000E-8	0.001437
7.975000E-8	0.001606
7.980000E-8	0.001616
7.985000E-8	0.001691
7.990000E-8	0.001681
7.995000E-8	0.001669
8.000000E-8	0.001716
8.005000E-8	0.001856
8.010000E-8	0.001734
8.015000E-8	0.001809
8.020000E-8	0.001803
8.025000E-8	0.001863
8.030000E-8	0.001800
8.035000E-8	0.002016
8.040000E-8	0.001931
8.045000E-8	0.001834
8.050000E-8	0.001753
8.055000E-8	0.001816
8.060000E-8	0.001844
8.065000E-8	0.001881
8.070000E-8	0.001716
8.075000E-8	0.001900
8.080000E-8	0.001759
8.085000E-8	0.001806
8.090000E-8	0.001784
8.095000E-8	0.001991
8.100000E-8	0.001953
8.105000E-8	0.002019
8.110000E-8	0.002038
8.115000E-8	0.002075
8.120000E-8	0.002050
8.125000E-8	0.002012
8.130000E-8	0.001997
8.135000E-8	0.001934
8.140000E-8	0.001872
8.145000E-8	0.001684
8.150000E-8	0.001494
8.155000E-8	0.001381
8.160000E-8	0.001316
8.165000E-8	0.001309
8.170000E-8	0.001369
8.175000E-8	0.001394
8.180000E-8	0.001347
8.185000E-8	0.001494
8.190000E-8	0.001609
8.195000E-8	0.001634
8.200000E-8	0.001663
8.205000E-8	0.001681
8.210000E-8	0.001603
8.215000E-8	0.001625
8.220000E-8	0.001509
8.225000E-8	0.001431
8.230000E-8	0.001437
8.235000E-8	0.001478
8.240000E-8	0.001431
8.245000E-8	0.001550
8.250000E-8	0.001528
8.255000E-8	0.001500
8.260000E-8	0.001563
8.265000E-8	0.001597
8.270000E-8	0.001522
8.275000E-8	0.001703
8.280000E-8	0.001706
8.285000E-8	0.001791
8.290000E-8	0.001700
8.295000E-8	0.001753
8.300000E-8	0.001809
8.305000E-8	0.001838
8.310000E-8	0.001819
8.315000E-8	0.001928
8.320000E-8	0.001906
8.325000E-8	0.002006
8.330000E-8	0.001959
8.335000E-8	0.001959
8.340000E-8	0.002019
8.345000E-8	0.002028
8.350000E-8	0.001853
8.355000E-8	0.001909
8.360000E-8	0.001738
8.365000E-8	0.001853
8.370000E-8	0.001694
8.375000E-8	0.001675
8.380000E-8	0.001669
8.385000E-8	0.001622
8.390000E-8	0.001584
8.395000E-8	0.001609
8.400000E-8	0.001700
8.405000E-8	0.001850
8.410000E-8	0.001894
8.415000E-8	0.001975
8.420000E-8	0.001894
8.425000E-8	0.001969
8.430000E-8	0.002053
8.435000E-8	0.001934
8.440000E-8	0.001884
8.445000E-8	0.001894
8.450000E-8	0.001856
8.455000E-8	0.001700
8.460000E-8	0.001719
8.465000E-8	0.001609
8.470000E-8	0.001684
8.475000E-8	0.001713
8.480000E-8	0.001641
8.485000E-8	0.001825
8.490000E-8	0.001794
8.495000E-8	0.002009
8.500000E-8	0.001925
8.505000E-8	0.001906
8.510000E-8	0.001925
8.515000E-8	0.001831
8.520000E-8	0.001803
8.525000E-8	0.001741
8.530000E-8	0.001884
8.535000E-8	0.001819
8.540000E-8	0.001722
8.545000E-8	0.001731
8.550000E-8	0.001700
8.555000E-8	0.001659
8.560000E-8	0.001759
8.565000E-8	0.001709
8.570000E-8	0.001806
8.575000E-8	0.001825
8.580000E-8	0.001759
8.585000E-8	0.001719
8.590000E-8	0.001731
8.595000E-8	0.001728
8.600000E-8	0.001738
8.605000E-8	0.001738
8.610000E-8	0.001597
8.615000E-8	0.001575
8.620000E-8	0.001609
8.625000E-8	0.001631
8.630000E-8	0.001606
8.635000E-8	0.001603
8.640000E-8	0.001556
8.645000E-8	0.001647
8.650000E-8	0.001656
8.655000E-8	0.001706
8.660000E-8	0.001631
8.665000E-8	0.001609
8.670000E-8	0.001722
8.675000E-8	0.001847
8.680000E-8	0.001781
8.685000E-8	0.001791
8.690000E-8	0.001891
8.695000E-8	0.001831
8.700000E-8	0.001825
8.705000E-8	0.001947
8.710000E-8	0.001978
8.715000E-8	0.001922
8.720000E-8	0.001913
8.725000E-8	0.001825
8.730000E-8	0.001775
8.735000E-8	0.001856
8.740000E-8	0.001806
8.745000E-8	0.001719
8.750000E-8	0.001609
8.755000E-8	0.001606
8.760000E-8	0.001647
8.765000E-8	0.001700
8.770000E-8	0.001703
8.775000E-8	0.001734
8.780000E-8	0.001653
8.785000E-8	0.001709
8.790000E-8	0.001672
8.795000E-8	0.001728
8.800000E-8	0.001706
8.805000E-8	0.001687
8.810000E-8	0.001606
8.815000E-8	0.001581
8.820000E-8	0.001450
8.825000E-8	0.001475
8.830000E-8	0.001384
8.835000E-8	0.001484
8.840000E-8	0.001488
8.845000E-8	0.001437
8.850000E-8	0.001378
8.855000E-8	0.001419
8.860000E-8	0.001450
8.865000E-8	0.001622
8.870000E-8	0.001716
8.875000E-8	0.001738
8.880000E-8	0.001687
8.885000E-8	0.001769
8.890000E-8	0.001584
8.895000E-8	0.001456
8.900000E-8	0.001478
8.905000E-8	0.001497
8.910000E-8	0.001403
8.915000E-8	0.001484
8.920000E-8	0.001556
8.925000E-8	0.001725
8.930000E-8	0.001813
8.935000E-8	0.001847
8.940000E-8	0.001931
8.945000E-8	0.001922
8.950000E-8	0.001994
8.955000E-8	0.001928
8.960000E-8	0.001903
8.965000E-8	0.001759
8.970000E-8	0.001684
8.975000E-8	0.001550
8.980000E-8	0.001453
8.985000E-8	0.001591
8.990000E-8	0.001431
8.995000E-8	0.001344
9.000000E-8	0.001344
9.005000E-8	0.001397
9.010000E-8	0.001434
9.015000E-8	0.001578
9.020000E-8	0.001572
9.025000E-8	0.001713
9.030000E-8	0.001772
9.035000E-8	0.001719
9.040000E-8	0.001759
9.045000E-8	0.001841
9.050000E-8	0.001856
9.055000E-8	0.001972
9.060000E-8	0.001984
9.065000E-8	0.001963
9.070000E-8	0.001913
9.075000E-8	0.001950
9.080000E-8	0.001888
9.085000E-8	0.001959
9.090000E-8	0.001934
9.095000E-8	0.001947
9.100000E-8	0.001906
9.105000E-8	0.001925
9.110000E-8	0.001838
9.115000E-8	0.001825
9.120000E-8	0.001725
9.125000E-8	0.001766
9.130000E-8	0.001803
9.135000E-8	0.001838
9.140000E-8	0.001791
9.145000E-8	0.001759
9.150000E-8	0.001791
9.155000E-8	0.001853
9.160000E-8	0.001759
9.165000E-8	0.001825
9.170000E-8	0.001788
9.175000E-8	0.001916
9.180000E-8	0.001891
9.185000E-8	0.001813
9.190000E-8	0.001747
9.195000E-8	0.001687
9.200000E-8	0.001628
9.205000E-8	0.001569
9.210000E-8	0.001488
9.215000E-8	0.001547
9.220000E-8	0.001581
9.225000E-8	0.001600
9.230000E-8	0.001669
9.235000E-8	0.001741
9.240000E-8	0.001697
9.245000E-8	0.001784
9.250000E-8	0.001763
9.255000E-8	0.001706
9.260000E-8	0.001734
9.265000E-8	0.001753
9.270000E-8	0.001791
9.275000E-8	0.001666
9.280000E-8	0.001681
9.285000E-8	0.001725
9.290000E-8	0.001644
9.295000E-8	0.001631
9.300000E-8	0.001741
9.305000E-8	0.001741
9.310000E-8	0.001784
9.315000E-8	0.001903
9.320000E-8	0.001772
9.325000E-8	0.001800
9.330000E-8	0.001878
9.335000E-8	0.001931
9.340000E-8	0.001906
9.345000E-8	0.001906
9.350000E-8	0.001747
9.355000E-8	0.001819
9.360000E-8	0.001713
9.365000E-8	0.001722
9.370000E-8	0.001675
9.375000E-8	0.001753
9.380000E-8	0.001731
9.385000E-8	0.001800
9.390000E-8	0.001744
9.395000E-8	0.001869
9.400000E-8	0.001841
9.405000E-8	0.001859
9.410000E-8	0.001806
9.415000E-8	0.001822
9.420000E-8	0.001781
9.425000E-8	0.001747
9.430000E-8	0.001616
9.435000E-8	0.001625
9.440000E-8	0.001503
9.445000E-8	0.001509
9.450000E-8	0.001497
9.455000E-8	0.001472
9.460000E-8	0.001422
9.465000E-8	0.001413
9.470000E-8	0.001369
9.475000E-8	0.001388
9.480000E-8	0.001422
9.485000E-8	0.001481
9.490000E-8	0.001459
9.495000E-8	0.001544
9.500000E-8	0.001616
9.505000E-8	0.001675
9.510000E-8	0.001647
9.515000E-8	0.001675
9.520000E-8	0.001700
9.525000E-8	0.001700
9.530000E-8	0.001659
9.535000E-8	0.001791
9.540000E-8	0.001606
9.545000E-8	0.001609
9.550000E-8	0.001612
9.555000E-8	0.001722
9.560000E-8	0.001663
9.565000E-8	0.001650
9.570000E-8	0.001634
9.575000E-8	0.001728
9.580000E-8	0.001647
9.585000E-8	0.001634
9.590000E-8	0.001713
9.595000E-8	0.001687
9.600000E-8	0.001753
9.605000E-8	0.001759
9.610000E-8	0.001578
9.615000E-8	0.001700
9.620000E-8	0.001691
9.625000E-8	0.001638
9.630000E-8	0.001578
9.635000E-8	0.001631
9.640000E-8	0.001556
9.645000E-8	0.001528
9.650000E-8	0.001475
9.655000E-8	0.001541
9.660000E-8	0.001594
9.665000E-8	0.001619
9.670000E-8	0.001691
9.675000E-8	0.001653
9.680000E-8	0.001634
9.685000E-8	0.001794
9.690000E-8	0.001828
9.695000E-8	0.001813
9.700000E-8	0.001709
9.705000E-8	0.001728
9.710000E-8	0.001653
9.715000E-8	0.001656
9.720000E-8	0.001553
9.725000E-8	0.001603
9.730000E-8	0.001547
9.735000E-8	0.001503
9.740000E-8	0.001525
9.745000E-8	0.001563
9.750000E-8	0.001694
9.755000E-8	0.001719
9.760000E-8	0.001622
9.765000E-8	0.001847
9.770000E-8	0.001756
9.775000E-8	0.001822
9.780000E-8	0.001759
9.785000E-8	0.001784
9.790000E-8	0.001669
9.795000E-8	0.001616
9.800000E-8	0.001588
9.805000E-8	0.001563
9.810000E-8	0.001444
9.815000E-8	0.001569
9.820000E-8	0.001503
9.825000E-8	0.001563
9.830000E-8	0.001603
9.835000E-8	0.001678
9.840000E-8	0.001694
9.845000E-8	0.001838
9.850000E-8	0.001794
9.855000E-8	0.001884
9.860000E-8	0.001822
9.865000E-8	0.001897
9.870000E-8	0.001919
9.875000E-8	0.001919
9.880000E-8	0.002075
9.885000E-8	0.002166
9.890000E-8	0.002128
9.895000E-8	0.002109
9.900000E-8	0.001997
9.905000E-8	0.002019
9.910000E-8	0.001947
9.915000E-8	0.001925
9.920000E-8	0.001772
9.925000E-8	0.001775
9.930000E-8	0.001725
9.935000E-8	0.001738
9.940000E-8	0.001697
9.945000E-8	0.001719
9.950000E-8	0.001753
9.955000E-8	0.001859
9.960000E-8	0.001809
9.965000E-8	0.001937
9.970000E-8	0.001972
9.975000E-8	0.001966
9.980000E-8	0.001884
9.985000E-8	0.001922
9.990000E-8	0.001738
9.995000E-8	0.001806
