LabVIEW Measurement	
Writer_Version	2
Reader_Version	2
Separator	Tab
Decimal_Separator	.
Multi_Headings	No
X_Columns	Multi
Time_Pref	Relative
Operator	TG lab
Date	2015/03/07
Time	10:35:25.9018869400024414063
***End_of_Header***	
	
Channels	1	
Samples	2000	
Date	1903/12/31	
Time	19:00:00	
X_Dimension	Time	
X0	0.0000000000000000E+0	
Delta_X	5.000000E-11	
***End_of_Header***		
X_Value	Untitled	Comment
0.000000	0.002006
5.000000E-11	0.002069
1.000000E-10	0.002009
1.500000E-10	0.001947
2.000000E-10	0.001931
2.500000E-10	0.001956
3.000000E-10	0.001841
3.500000E-10	0.001775
4.000000E-10	0.001597
4.500000E-10	0.001716
5.000000E-10	0.001597
5.500000E-10	0.001563
6.000000E-10	0.001591
6.500000E-10	0.001663
7.000000E-10	0.001638
7.500000E-10	0.001622
8.000000E-10	0.001609
8.500000E-10	0.001619
9.000000E-10	0.001581
9.500000E-10	0.001684
1.000000E-9	0.001681
1.050000E-9	0.001716
1.100000E-9	0.001666
1.150000E-9	0.001700
1.200000E-9	0.001675
1.250000E-9	0.001744
1.300000E-9	0.001756
1.350000E-9	0.001828
1.400000E-9	0.001881
1.450000E-9	0.002016
1.500000E-9	0.002081
1.550000E-9	0.002144
1.600000E-9	0.002206
1.650000E-9	0.002300
1.700000E-9	0.002172
1.750000E-9	0.002100
1.800000E-9	0.002087
1.850000E-9	0.002000
1.900000E-9	0.001947
1.950000E-9	0.001975
2.000000E-9	0.001884
2.050000E-9	0.001891
2.100000E-9	0.001944
2.150000E-9	0.002109
2.200000E-9	0.001994
2.250000E-9	0.002162
2.300000E-9	0.002197
2.350000E-9	0.002272
2.400000E-9	0.002144
2.450000E-9	0.002141
2.500000E-9	0.002153
2.550000E-9	0.001950
2.600000E-9	0.001800
2.650000E-9	0.001738
2.700000E-9	0.001697
2.750000E-9	0.001775
2.800000E-9	0.001866
2.850000E-9	0.002028
2.900000E-9	0.002044
2.950000E-9	0.002234
3.000000E-9	0.002319
3.050000E-9	0.002584
3.100000E-9	0.002600
3.150000E-9	0.002650
3.200000E-9	0.002556
3.250000E-9	0.002459
3.300000E-9	0.002456
3.350000E-9	0.002506
3.400000E-9	0.002447
3.450000E-9	0.002459
3.500000E-9	0.002528
3.550000E-9	0.002519
3.600000E-9	0.002587
3.650000E-9	0.002725
3.700000E-9	0.002816
3.750000E-9	0.002806
3.800000E-9	0.002872
3.850000E-9	0.002925
3.900000E-9	0.003134
3.950000E-9	0.003256
4.000000E-9	0.003247
4.050000E-9	0.003313
4.100000E-9	0.003378
4.150000E-9	0.003550
4.200000E-9	0.003741
4.250000E-9	0.003897
4.300000E-9	0.004109
4.350000E-9	0.004422
4.400000E-9	0.004806
4.450000E-9	0.005369
4.500000E-9	0.005956
4.550000E-9	0.006684
4.600000E-9	0.007666
4.650000E-9	0.008556
4.700000E-9	0.009675
4.750000E-9	0.010700
4.800000E-9	0.011934
4.850000E-9	0.013241
4.900000E-9	0.014516
4.950000E-9	0.015953
5.000000E-9	0.017341
5.050000E-9	0.018838
5.100000E-9	0.020287
5.150000E-9	0.021844
5.200000E-9	0.023181
5.250000E-9	0.024572
5.300000E-9	0.025716
5.350000E-9	0.026681
5.400000E-9	0.027391
5.450000E-9	0.027794
5.500000E-9	0.027728
5.550000E-9	0.027425
5.600000E-9	0.026822
5.650000E-9	0.025916
5.700000E-9	0.024872
5.750000E-9	0.023425
5.800000E-9	0.021900
5.850000E-9	0.020403
5.900000E-9	0.018906
5.950000E-9	0.017681
6.000000E-9	0.016463
6.050000E-9	0.015863
6.100000E-9	0.015344
6.150000E-9	0.015275
6.200000E-9	0.015422
6.250000E-9	0.015878
6.300000E-9	0.016400
6.350000E-9	0.016925
6.400000E-9	0.017400
6.450000E-9	0.017516
6.500000E-9	0.017394
6.550000E-9	0.016916
6.600000E-9	0.016241
6.650000E-9	0.015369
6.700000E-9	0.014222
6.750000E-9	0.012969
6.800000E-9	0.011625
6.850000E-9	0.010600
6.900000E-9	0.009544
6.950000E-9	0.008944
7.000000E-9	0.008506
7.050000E-9	0.008391
7.100000E-9	0.008547
7.150000E-9	0.009075
7.200000E-9	0.009766
7.250000E-9	0.010500
7.300000E-9	0.011050
7.350000E-9	0.011616
7.400000E-9	0.011878
7.450000E-9	0.011947
7.500000E-9	0.011628
7.550000E-9	0.011159
7.600000E-9	0.010200
7.650000E-9	0.009231
7.700000E-9	0.008022
7.750000E-9	0.007078
7.800000E-9	0.006038
7.850000E-9	0.005284
7.900000E-9	0.004878
7.950000E-9	0.004816
8.000000E-9	0.004903
8.050000E-9	0.005409
8.100000E-9	0.006103
8.150000E-9	0.006884
8.200000E-9	0.007578
8.250000E-9	0.008347
8.300000E-9	0.008822
8.350000E-9	0.008991
8.400000E-9	0.008934
8.450000E-9	0.008591
8.500000E-9	0.007966
8.550000E-9	0.007106
8.600000E-9	0.006197
8.650000E-9	0.005156
8.700000E-9	0.004091
8.750000E-9	0.003325
8.800000E-9	0.002681
8.850000E-9	0.002434
8.900000E-9	0.002375
8.950000E-9	0.002684
9.000000E-9	0.003184
9.050000E-9	0.004050
9.100000E-9	0.004769
9.150000E-9	0.005759
9.200000E-9	0.006381
9.250000E-9	0.006913
9.300000E-9	0.007172
9.350000E-9	0.007075
9.400000E-9	0.006741
9.450000E-9	0.006088
9.500000E-9	0.005309
9.550000E-9	0.004297
9.600000E-9	0.003091
9.650000E-9	0.002113
9.700000E-9	0.001291
9.750000E-9	0.000756
9.800000E-9	0.000556
9.850000E-9	0.000869
9.900000E-9	0.001147
9.950000E-9	0.002038
1.000000E-8	0.002853
1.005000E-8	0.003859
1.010000E-8	0.004841
1.015000E-8	0.005763
1.020000E-8	0.006234
1.025000E-8	0.006441
1.030000E-8	0.006206
1.035000E-8	0.005819
1.040000E-8	0.005116
1.045000E-8	0.004237
1.050000E-8	0.003191
1.055000E-8	0.002234
1.060000E-8	0.001300
1.065000E-8	0.000806
1.070000E-8	0.000481
1.075000E-8	0.000397
1.080000E-8	0.000647
1.085000E-8	0.001309
1.090000E-8	0.002047
1.095000E-8	0.002906
1.100000E-8	0.003844
1.105000E-8	0.004738
1.110000E-8	0.005247
1.115000E-8	0.005691
1.120000E-8	0.005687
1.125000E-8	0.005356
1.130000E-8	0.004763
1.135000E-8	0.003969
1.140000E-8	0.003056
1.145000E-8	0.002153
1.150000E-8	0.001253
1.155000E-8	0.000656
1.160000E-8	5.000000E-5
1.165000E-8	-3.437500E-5
1.170000E-8	2.187500E-5
1.175000E-8	0.000491
1.180000E-8	0.001172
1.185000E-8	0.001959
1.190000E-8	0.002703
1.195000E-8	0.003644
1.200000E-8	0.004222
1.205000E-8	0.004741
1.210000E-8	0.004869
1.215000E-8	0.004722
1.220000E-8	0.004391
1.225000E-8	0.003841
1.230000E-8	0.003003
1.235000E-8	0.002231
1.240000E-8	0.001419
1.245000E-8	0.000694
1.250000E-8	0.000119
1.255000E-8	-0.000113
1.260000E-8	-0.000237
1.265000E-8	4.375000E-5
1.270000E-8	0.000513
1.275000E-8	0.001253
1.280000E-8	0.001969
1.285000E-8	0.002916
1.290000E-8	0.003622
1.295000E-8	0.004291
1.300000E-8	0.004706
1.305000E-8	0.004913
1.310000E-8	0.004669
1.315000E-8	0.004234
1.320000E-8	0.003600
1.325000E-8	0.002806
1.330000E-8	0.001994
1.335000E-8	0.001250
1.340000E-8	0.000494
1.345000E-8	-6.562500E-5
1.350000E-8	-0.000316
1.355000E-8	-0.000237
1.360000E-8	2.500000E-5
1.365000E-8	0.000663
1.370000E-8	0.001328
1.375000E-8	0.002216
1.380000E-8	0.002834
1.385000E-8	0.003694
1.390000E-8	0.004269
1.395000E-8	0.004616
1.400000E-8	0.004697
1.405000E-8	0.004459
1.410000E-8	0.004022
1.415000E-8	0.003416
1.420000E-8	0.002609
1.425000E-8	0.001775
1.430000E-8	0.001075
1.435000E-8	0.000338
1.440000E-8	-0.000159
1.445000E-8	-0.000222
1.450000E-8	-0.000216
1.455000E-8	6.562500E-5
1.460000E-8	0.000594
1.465000E-8	0.001256
1.470000E-8	0.001838
1.475000E-8	0.002731
1.480000E-8	0.003247
1.485000E-8	0.003844
1.490000E-8	0.004109
1.495000E-8	0.004191
1.500000E-8	0.003978
1.505000E-8	0.003434
1.510000E-8	0.002722
1.515000E-8	0.002063
1.520000E-8	0.001213
1.525000E-8	0.000656
1.530000E-8	6.250000E-6
1.535000E-8	-0.000172
1.540000E-8	-0.000269
1.545000E-8	-3.125000E-6
1.550000E-8	0.000475
1.555000E-8	0.001072
1.560000E-8	0.001856
1.565000E-8	0.002600
1.570000E-8	0.003219
1.575000E-8	0.003794
1.580000E-8	0.004138
1.585000E-8	0.004266
1.590000E-8	0.004084
1.595000E-8	0.003653
1.600000E-8	0.003006
1.605000E-8	0.002388
1.610000E-8	0.001669
1.615000E-8	0.001022
1.620000E-8	0.000400
1.625000E-8	0.000191
1.630000E-8	-7.500000E-5
1.635000E-8	0.000141
1.640000E-8	0.000488
1.645000E-8	0.001050
1.650000E-8	0.001672
1.655000E-8	0.002384
1.660000E-8	0.003097
1.665000E-8	0.003794
1.670000E-8	0.004172
1.675000E-8	0.004472
1.680000E-8	0.004475
1.685000E-8	0.004150
1.690000E-8	0.003691
1.695000E-8	0.002959
1.700000E-8	0.002284
1.705000E-8	0.001584
1.710000E-8	0.000756
1.715000E-8	0.000291
1.720000E-8	-0.000116
1.725000E-8	-0.000281
1.730000E-8	-0.000147
1.735000E-8	0.000228
1.740000E-8	0.000669
1.745000E-8	0.001519
1.750000E-8	0.002159
1.755000E-8	0.002956
1.760000E-8	0.003572
1.765000E-8	0.004125
1.770000E-8	0.004213
1.775000E-8	0.004094
1.780000E-8	0.003569
1.785000E-8	0.003150
1.790000E-8	0.002463
1.795000E-8	0.001678
1.800000E-8	0.000906
1.805000E-8	0.000331
1.810000E-8	-5.937500E-5
1.815000E-8	-0.000194
1.820000E-8	-3.125000E-6
1.825000E-8	0.000353
1.830000E-8	0.000813
1.835000E-8	0.001541
1.840000E-8	0.002100
1.845000E-8	0.002794
1.850000E-8	0.003344
1.855000E-8	0.003856
1.860000E-8	0.004100
1.865000E-8	0.004109
1.870000E-8	0.003897
1.875000E-8	0.003456
1.880000E-8	0.002750
1.885000E-8	0.002119
1.890000E-8	0.001406
1.895000E-8	0.000906
1.900000E-8	0.000403
1.905000E-8	0.000150
1.910000E-8	8.125000E-5
1.915000E-8	0.000266
1.920000E-8	0.000509
1.925000E-8	0.001009
1.930000E-8	0.001575
1.935000E-8	0.002269
1.940000E-8	0.002825
1.945000E-8	0.003578
1.950000E-8	0.003953
1.955000E-8	0.004100
1.960000E-8	0.003978
1.965000E-8	0.003806
1.970000E-8	0.003359
1.975000E-8	0.002741
1.980000E-8	0.002022
1.985000E-8	0.001381
1.990000E-8	0.000734
1.995000E-8	0.000381
2.000000E-8	-3.125000E-5
2.005000E-8	-7.812500E-5
2.010000E-8	0.000100
2.015000E-8	0.000491
2.020000E-8	0.000953
2.025000E-8	0.001600
2.030000E-8	0.002303
2.035000E-8	0.002925
2.040000E-8	0.003325
2.045000E-8	0.003647
2.050000E-8	0.003731
2.055000E-8	0.003638
2.060000E-8	0.003344
2.065000E-8	0.002784
2.070000E-8	0.002038
2.075000E-8	0.001519
2.080000E-8	0.000853
2.085000E-8	0.000334
2.090000E-8	-2.187500E-5
2.095000E-8	-0.000228
2.100000E-8	-0.000166
2.105000E-8	0.000144
2.110000E-8	0.000634
2.115000E-8	0.001191
2.120000E-8	0.001763
2.125000E-8	0.002463
2.130000E-8	0.003056
2.135000E-8	0.003356
2.140000E-8	0.003500
2.145000E-8	0.003613
2.150000E-8	0.003388
2.155000E-8	0.003006
2.160000E-8	0.002391
2.165000E-8	0.001869
2.170000E-8	0.001288
2.175000E-8	0.000828
2.180000E-8	0.000319
2.185000E-8	9.375000E-5
2.190000E-8	-3.125000E-5
2.195000E-8	0.000175
2.200000E-8	0.000400
2.205000E-8	0.000866
2.210000E-8	0.001397
2.215000E-8	0.002113
2.220000E-8	0.002594
2.225000E-8	0.003003
2.230000E-8	0.003281
2.235000E-8	0.003434
2.240000E-8	0.003344
2.245000E-8	0.003200
2.250000E-8	0.002719
2.255000E-8	0.002266
2.260000E-8	0.001609
2.265000E-8	0.001178
2.270000E-8	0.000766
2.275000E-8	0.000331
2.280000E-8	6.875000E-5
2.285000E-8	0.000113
2.290000E-8	0.000225
2.295000E-8	0.000556
2.300000E-8	0.000884
2.305000E-8	0.001447
2.310000E-8	0.001959
2.315000E-8	0.002512
2.320000E-8	0.002919
2.325000E-8	0.003100
2.330000E-8	0.003159
2.335000E-8	0.002950
2.340000E-8	0.002653
2.345000E-8	0.002331
2.350000E-8	0.001856
2.355000E-8	0.001347
2.360000E-8	0.000747
2.365000E-8	0.000363
2.370000E-8	-7.187500E-5
2.375000E-8	-0.000241
2.380000E-8	-0.000241
2.385000E-8	5.312500E-5
2.390000E-8	0.000572
2.395000E-8	0.001184
2.400000E-8	0.001856
2.405000E-8	0.002366
2.410000E-8	0.002884
2.415000E-8	0.003234
2.420000E-8	0.003469
2.425000E-8	0.003484
2.430000E-8	0.003319
2.435000E-8	0.002953
2.440000E-8	0.002434
2.445000E-8	0.001884
2.450000E-8	0.001291
2.455000E-8	0.000784
2.460000E-8	0.000344
2.465000E-8	0.000103
2.470000E-8	6.250000E-5
2.475000E-8	0.000281
2.480000E-8	0.000491
2.485000E-8	0.000972
2.490000E-8	0.001584
2.495000E-8	0.002184
2.500000E-8	0.002628
2.505000E-8	0.003053
2.510000E-8	0.003306
2.515000E-8	0.003416
2.520000E-8	0.003244
2.525000E-8	0.003122
2.530000E-8	0.002700
2.535000E-8	0.002309
2.540000E-8	0.001800
2.545000E-8	0.001369
2.550000E-8	0.000956
2.555000E-8	0.000741
2.560000E-8	0.000528
2.565000E-8	0.000478
2.570000E-8	0.000763
2.575000E-8	0.001119
2.580000E-8	0.001406
2.585000E-8	0.001900
2.590000E-8	0.002291
2.595000E-8	0.002756
2.600000E-8	0.002931
2.605000E-8	0.003200
2.610000E-8	0.003266
2.615000E-8	0.003231
2.620000E-8	0.002841
2.625000E-8	0.002572
2.630000E-8	0.002184
2.635000E-8	0.001609
2.640000E-8	0.001038
2.645000E-8	0.000650
2.650000E-8	0.000272
2.655000E-8	0.000106
2.660000E-8	0.000128
2.665000E-8	0.000400
2.670000E-8	0.000719
2.675000E-8	0.001187
2.680000E-8	0.001675
2.685000E-8	0.002203
2.690000E-8	0.002497
2.695000E-8	0.002875
2.700000E-8	0.002953
2.705000E-8	0.002978
2.710000E-8	0.002678
2.715000E-8	0.002328
2.720000E-8	0.001941
2.725000E-8	0.001428
2.730000E-8	0.000922
2.735000E-8	0.000612
2.740000E-8	0.000353
2.745000E-8	0.000284
2.750000E-8	0.000256
2.755000E-8	0.000569
2.760000E-8	0.000806
2.765000E-8	0.001322
2.770000E-8	0.001703
2.775000E-8	0.002378
2.780000E-8	0.002766
2.785000E-8	0.003109
2.790000E-8	0.003225
2.795000E-8	0.003322
2.800000E-8	0.003113
2.805000E-8	0.002978
2.810000E-8	0.002550
2.815000E-8	0.002113
2.820000E-8	0.001691
2.825000E-8	0.001244
2.830000E-8	0.000934
2.835000E-8	0.000619
2.840000E-8	0.000497
2.845000E-8	0.000491
2.850000E-8	0.000797
2.855000E-8	0.001156
2.860000E-8	0.001344
2.865000E-8	0.001881
2.870000E-8	0.002241
2.875000E-8	0.002575
2.880000E-8	0.002775
2.885000E-8	0.002878
2.890000E-8	0.002778
2.895000E-8	0.002622
2.900000E-8	0.002406
2.905000E-8	0.002150
2.910000E-8	0.001691
2.915000E-8	0.001331
2.920000E-8	0.001000
2.925000E-8	0.000725
2.930000E-8	0.000597
2.935000E-8	0.000666
2.940000E-8	0.000731
2.945000E-8	0.001072
2.950000E-8	0.001313
2.955000E-8	0.001741
2.960000E-8	0.002131
2.965000E-8	0.002587
2.970000E-8	0.002931
2.975000E-8	0.003200
2.980000E-8	0.003228
2.985000E-8	0.003278
2.990000E-8	0.003172
2.995000E-8	0.002822
3.000000E-8	0.002319
3.005000E-8	0.001853
3.010000E-8	0.001325
3.015000E-8	0.001003
3.020000E-8	0.000606
3.025000E-8	0.000475
3.030000E-8	0.000356
3.035000E-8	0.000603
3.040000E-8	0.000831
3.045000E-8	0.001247
3.050000E-8	0.001728
3.055000E-8	0.002022
3.060000E-8	0.002466
3.065000E-8	0.002759
3.070000E-8	0.002903
3.075000E-8	0.002903
3.080000E-8	0.002684
3.085000E-8	0.002469
3.090000E-8	0.002150
3.095000E-8	0.001825
3.100000E-8	0.001338
3.105000E-8	0.001094
3.110000E-8	0.000750
3.115000E-8	0.000634
3.120000E-8	0.000619
3.125000E-8	0.000684
3.130000E-8	0.000878
3.135000E-8	0.001184
3.140000E-8	0.001550
3.145000E-8	0.001941
3.150000E-8	0.002231
3.155000E-8	0.002587
3.160000E-8	0.002916
3.165000E-8	0.003063
3.170000E-8	0.003097
3.175000E-8	0.003084
3.180000E-8	0.002778
3.185000E-8	0.002512
3.190000E-8	0.002034
3.195000E-8	0.001784
3.200000E-8	0.001272
3.205000E-8	0.000850
3.210000E-8	0.000594
3.215000E-8	0.000519
3.220000E-8	0.000397
3.225000E-8	0.000616
3.230000E-8	0.000925
3.235000E-8	0.001359
3.240000E-8	0.001681
3.245000E-8	0.002272
3.250000E-8	0.002587
3.255000E-8	0.002938
3.260000E-8	0.002991
3.265000E-8	0.003038
3.270000E-8	0.002875
3.275000E-8	0.002616
3.280000E-8	0.002078
3.285000E-8	0.001584
3.290000E-8	0.001294
3.295000E-8	0.000956
3.300000E-8	0.000669
3.305000E-8	0.000566
3.310000E-8	0.000578
3.315000E-8	0.000691
3.320000E-8	0.000956
3.325000E-8	0.001372
3.330000E-8	0.001678
3.335000E-8	0.002041
3.340000E-8	0.002431
3.345000E-8	0.002700
3.350000E-8	0.002869
3.355000E-8	0.003038
3.360000E-8	0.002997
3.365000E-8	0.002878
3.370000E-8	0.002475
3.375000E-8	0.002244
3.380000E-8	0.001934
3.385000E-8	0.001669
3.390000E-8	0.001309
3.395000E-8	0.001059
3.400000E-8	0.000863
3.405000E-8	0.000881
3.410000E-8	0.000903
3.415000E-8	0.001203
3.420000E-8	0.001478
3.425000E-8	0.001850
3.430000E-8	0.002022
3.435000E-8	0.002419
3.440000E-8	0.002544
3.445000E-8	0.002681
3.450000E-8	0.002681
3.455000E-8	0.002547
3.460000E-8	0.002250
3.465000E-8	0.001963
3.470000E-8	0.001591
3.475000E-8	0.001347
3.480000E-8	0.001075
3.485000E-8	0.000859
3.490000E-8	0.000750
3.495000E-8	0.000897
3.500000E-8	0.000909
3.505000E-8	0.001147
3.510000E-8	0.001388
3.515000E-8	0.001684
3.520000E-8	0.002000
3.525000E-8	0.002359
3.530000E-8	0.002544
3.535000E-8	0.002909
3.540000E-8	0.002881
3.545000E-8	0.003047
3.550000E-8	0.002894
3.555000E-8	0.002600
3.560000E-8	0.002325
3.565000E-8	0.002041
3.570000E-8	0.001700
3.575000E-8	0.001422
3.580000E-8	0.001088
3.585000E-8	0.000903
3.590000E-8	0.000838
3.595000E-8	0.000906
3.600000E-8	0.000891
3.605000E-8	0.001281
3.610000E-8	0.001494
3.615000E-8	0.001794
3.620000E-8	0.002087
3.625000E-8	0.002459
3.630000E-8	0.002538
3.635000E-8	0.002509
3.640000E-8	0.002388
3.645000E-8	0.002325
3.650000E-8	0.002069
3.655000E-8	0.001781
3.660000E-8	0.001394
3.665000E-8	0.001081
3.670000E-8	0.000734
3.675000E-8	0.000703
3.680000E-8	0.000531
3.685000E-8	0.000697
3.690000E-8	0.000931
3.695000E-8	0.001222
3.700000E-8	0.001550
3.705000E-8	0.001944
3.710000E-8	0.002194
3.715000E-8	0.002416
3.720000E-8	0.002672
3.725000E-8	0.002891
3.730000E-8	0.002784
3.735000E-8	0.002722
3.740000E-8	0.002431
3.745000E-8	0.002134
3.750000E-8	0.001856
3.755000E-8	0.001506
3.760000E-8	0.001122
3.765000E-8	0.000969
3.770000E-8	0.000703
3.775000E-8	0.000722
3.780000E-8	0.000784
3.785000E-8	0.001056
3.790000E-8	0.001328
3.795000E-8	0.001678
3.800000E-8	0.002003
3.805000E-8	0.002366
3.810000E-8	0.002566
3.815000E-8	0.002753
3.820000E-8	0.002725
3.825000E-8	0.002697
3.830000E-8	0.002538
3.835000E-8	0.002288
3.840000E-8	0.002138
3.845000E-8	0.001809
3.850000E-8	0.001409
3.855000E-8	0.001216
3.860000E-8	0.000938
3.865000E-8	0.000803
3.870000E-8	0.000784
3.875000E-8	0.000900
3.880000E-8	0.000975
3.885000E-8	0.001206
3.890000E-8	0.001391
3.895000E-8	0.001838
3.900000E-8	0.001981
3.905000E-8	0.002281
3.910000E-8	0.002331
3.915000E-8	0.002425
3.920000E-8	0.002356
3.925000E-8	0.002216
3.930000E-8	0.001988
3.935000E-8	0.001866
3.940000E-8	0.001563
3.945000E-8	0.001278
3.950000E-8	0.001078
3.955000E-8	0.001078
3.960000E-8	0.000925
3.965000E-8	0.001022
3.970000E-8	0.001178
3.975000E-8	0.001388
3.980000E-8	0.001491
3.985000E-8	0.001825
3.990000E-8	0.002044
3.995000E-8	0.002309
4.000000E-8	0.002294
4.005000E-8	0.002363
4.010000E-8	0.002503
4.015000E-8	0.002406
4.020000E-8	0.002184
4.025000E-8	0.002069
4.030000E-8	0.001669
4.035000E-8	0.001569
4.040000E-8	0.001331
4.045000E-8	0.001141
4.050000E-8	0.000959
4.055000E-8	0.000972
4.060000E-8	0.000941
4.065000E-8	0.001134
4.070000E-8	0.001269
4.075000E-8	0.001481
4.080000E-8	0.001728
4.085000E-8	0.002031
4.090000E-8	0.002219
4.095000E-8	0.002422
4.100000E-8	0.002347
4.105000E-8	0.002478
4.110000E-8	0.002388
4.115000E-8	0.002359
4.120000E-8	0.002234
4.125000E-8	0.001991
4.130000E-8	0.001781
4.135000E-8	0.001444
4.140000E-8	0.001266
4.145000E-8	0.001197
4.150000E-8	0.001050
4.155000E-8	0.001147
4.160000E-8	0.001231
4.165000E-8	0.001400
4.170000E-8	0.001619
4.175000E-8	0.001884
4.180000E-8	0.001975
4.185000E-8	0.002147
4.190000E-8	0.002263
4.195000E-8	0.002369
4.200000E-8	0.002319
4.205000E-8	0.002256
4.210000E-8	0.002066
4.215000E-8	0.001878
4.220000E-8	0.001669
4.225000E-8	0.001472
4.230000E-8	0.001269
4.235000E-8	0.001244
4.240000E-8	0.001106
4.245000E-8	0.001209
4.250000E-8	0.001169
4.255000E-8	0.001247
4.260000E-8	0.001381
4.265000E-8	0.001541
4.270000E-8	0.001697
4.275000E-8	0.001916
4.280000E-8	0.002103
4.285000E-8	0.002222
4.290000E-8	0.002278
4.295000E-8	0.002306
4.300000E-8	0.002119
4.305000E-8	0.002103
4.310000E-8	0.001878
4.315000E-8	0.001697
4.320000E-8	0.001356
4.325000E-8	0.001300
4.330000E-8	0.001044
4.335000E-8	0.001034
4.340000E-8	0.001056
4.345000E-8	0.001088
4.350000E-8	0.001325
4.355000E-8	0.001588
4.360000E-8	0.001788
4.365000E-8	0.002122
4.370000E-8	0.002347
4.375000E-8	0.002538
4.380000E-8	0.002653
4.385000E-8	0.002662
4.390000E-8	0.002512
4.395000E-8	0.002331
4.400000E-8	0.002134
4.405000E-8	0.001894
4.410000E-8	0.001666
4.415000E-8	0.001509
4.420000E-8	0.001378
4.425000E-8	0.001256
4.430000E-8	0.001284
4.435000E-8	0.001294
4.440000E-8	0.001503
4.445000E-8	0.001753
4.450000E-8	0.001853
4.455000E-8	0.002091
4.460000E-8	0.002209
4.465000E-8	0.002344
4.470000E-8	0.002437
4.475000E-8	0.002375
4.480000E-8	0.002272
4.485000E-8	0.002244
4.490000E-8	0.002069
4.495000E-8	0.001897
4.500000E-8	0.001547
4.505000E-8	0.001447
4.510000E-8	0.001325
4.515000E-8	0.001156
4.520000E-8	0.000981
4.525000E-8	0.000947
4.530000E-8	0.001006
4.535000E-8	0.001100
4.540000E-8	0.001247
4.545000E-8	0.001434
4.550000E-8	0.001672
4.555000E-8	0.001863
4.560000E-8	0.002116
4.565000E-8	0.002313
4.570000E-8	0.002334
4.575000E-8	0.002328
4.580000E-8	0.002203
4.585000E-8	0.002031
4.590000E-8	0.001731
4.595000E-8	0.001531
4.600000E-8	0.001334
4.605000E-8	0.001125
4.610000E-8	0.001031
4.615000E-8	0.001000
4.620000E-8	0.001069
4.625000E-8	0.001153
4.630000E-8	0.001306
4.635000E-8	0.001550
4.640000E-8	0.001763
4.645000E-8	0.001972
4.650000E-8	0.002197
4.655000E-8	0.002478
4.660000E-8	0.002566
4.665000E-8	0.002638
4.670000E-8	0.002544
4.675000E-8	0.002475
4.680000E-8	0.002181
4.685000E-8	0.001997
4.690000E-8	0.001747
4.695000E-8	0.001616
4.700000E-8	0.001441
4.705000E-8	0.001328
4.710000E-8	0.001203
4.715000E-8	0.001303
4.720000E-8	0.001437
4.725000E-8	0.001713
4.730000E-8	0.001809
4.735000E-8	0.001984
4.740000E-8	0.002113
4.745000E-8	0.002228
4.750000E-8	0.002400
4.755000E-8	0.002531
4.760000E-8	0.002369
4.765000E-8	0.002294
4.770000E-8	0.001981
4.775000E-8	0.001697
4.780000E-8	0.001431
4.785000E-8	0.001100
4.790000E-8	0.000875
4.795000E-8	0.000772
4.800000E-8	0.000703
4.805000E-8	0.000775
4.810000E-8	0.000872
4.815000E-8	0.001203
4.820000E-8	0.001450
4.825000E-8	0.001784
4.830000E-8	0.001931
4.835000E-8	0.002200
4.840000E-8	0.002309
4.845000E-8	0.002338
4.850000E-8	0.002300
4.855000E-8	0.002184
4.860000E-8	0.002059
4.865000E-8	0.001838
4.870000E-8	0.001491
4.875000E-8	0.001369
4.880000E-8	0.001263
4.885000E-8	0.001228
4.890000E-8	0.001200
4.895000E-8	0.001169
4.900000E-8	0.001150
4.905000E-8	0.001375
4.910000E-8	0.001528
4.915000E-8	0.001744
4.920000E-8	0.001766
4.925000E-8	0.002022
4.930000E-8	0.002131
4.935000E-8	0.002297
4.940000E-8	0.002263
4.945000E-8	0.002288
4.950000E-8	0.002291
4.955000E-8	0.002288
4.960000E-8	0.002059
4.965000E-8	0.001834
4.970000E-8	0.001600
4.975000E-8	0.001453
4.980000E-8	0.001209
4.985000E-8	0.001159
4.990000E-8	0.001163
4.995000E-8	0.001359
5.000000E-8	0.001353
5.005000E-8	0.001547
5.010000E-8	0.001734
5.015000E-8	0.002066
5.020000E-8	0.002169
5.025000E-8	0.002328
5.030000E-8	0.002378
5.035000E-8	0.002297
5.040000E-8	0.002231
5.045000E-8	0.002050
5.050000E-8	0.001872
5.055000E-8	0.001653
5.060000E-8	0.001413
5.065000E-8	0.001231
5.070000E-8	0.001100
5.075000E-8	0.001100
5.080000E-8	0.001081
5.085000E-8	0.001278
5.090000E-8	0.001325
5.095000E-8	0.001513
5.100000E-8	0.001681
5.105000E-8	0.001844
5.110000E-8	0.001950
5.115000E-8	0.002109
5.120000E-8	0.002241
5.125000E-8	0.002334
5.130000E-8	0.002194
5.135000E-8	0.002228
5.140000E-8	0.001919
5.145000E-8	0.001875
5.150000E-8	0.001697
5.155000E-8	0.001578
5.160000E-8	0.001497
5.165000E-8	0.001444
5.170000E-8	0.001356
5.175000E-8	0.001406
5.180000E-8	0.001475
5.185000E-8	0.001697
5.190000E-8	0.001856
5.195000E-8	0.001937
5.200000E-8	0.002016
5.205000E-8	0.002178
5.210000E-8	0.002203
5.215000E-8	0.002284
5.220000E-8	0.002306
5.225000E-8	0.002313
5.230000E-8	0.002281
5.235000E-8	0.002275
5.240000E-8	0.001909
5.245000E-8	0.001734
5.250000E-8	0.001556
5.255000E-8	0.001466
5.260000E-8	0.001313
5.265000E-8	0.001156
5.270000E-8	0.001213
5.275000E-8	0.001259
5.280000E-8	0.001297
5.285000E-8	0.001563
5.290000E-8	0.001631
5.295000E-8	0.001975
5.300000E-8	0.002162
5.305000E-8	0.002219
5.310000E-8	0.002113
5.315000E-8	0.002181
5.320000E-8	0.001984
5.325000E-8	0.001869
5.330000E-8	0.001703
5.335000E-8	0.001425
5.340000E-8	0.001269
5.345000E-8	0.001238
5.350000E-8	0.001166
5.355000E-8	0.001134
5.360000E-8	0.001112
5.365000E-8	0.001281
5.370000E-8	0.001509
5.375000E-8	0.001656
5.380000E-8	0.001713
5.385000E-8	0.001953
5.390000E-8	0.002000
5.395000E-8	0.002094
5.400000E-8	0.002103
5.405000E-8	0.002069
5.410000E-8	0.002063
5.415000E-8	0.001969
5.420000E-8	0.001838
5.425000E-8	0.001734
5.430000E-8	0.001628
5.435000E-8	0.001513
5.440000E-8	0.001328
5.445000E-8	0.001234
5.450000E-8	0.001144
5.455000E-8	0.001231
5.460000E-8	0.001231
5.465000E-8	0.001341
5.470000E-8	0.001513
5.475000E-8	0.001738
5.480000E-8	0.001897
5.485000E-8	0.002156
5.490000E-8	0.002200
5.495000E-8	0.002197
5.500000E-8	0.002416
5.505000E-8	0.002319
5.510000E-8	0.002244
5.515000E-8	0.002159
5.520000E-8	0.002038
5.525000E-8	0.001856
5.530000E-8	0.001678
5.535000E-8	0.001494
5.540000E-8	0.001513
5.545000E-8	0.001556
5.550000E-8	0.001491
5.555000E-8	0.001547
5.560000E-8	0.001581
5.565000E-8	0.001766
5.570000E-8	0.001813
5.575000E-8	0.001969
5.580000E-8	0.002053
5.585000E-8	0.002213
5.590000E-8	0.002269
5.595000E-8	0.002297
5.600000E-8	0.002241
5.605000E-8	0.002084
5.610000E-8	0.001806
5.615000E-8	0.001675
5.620000E-8	0.001566
5.625000E-8	0.001472
5.630000E-8	0.001288
5.635000E-8	0.001216
5.640000E-8	0.001147
5.645000E-8	0.001203
5.650000E-8	0.001128
5.655000E-8	0.001147
5.660000E-8	0.001375
5.665000E-8	0.001350
5.670000E-8	0.001419
5.675000E-8	0.001647
5.680000E-8	0.001747
5.685000E-8	0.001972
5.690000E-8	0.001903
5.695000E-8	0.001969
5.700000E-8	0.001925
5.705000E-8	0.001859
5.710000E-8	0.001703
5.715000E-8	0.001684
5.720000E-8	0.001513
5.725000E-8	0.001450
5.730000E-8	0.001484
5.735000E-8	0.001528
5.740000E-8	0.001603
5.745000E-8	0.001728
5.750000E-8	0.001834
5.755000E-8	0.001906
5.760000E-8	0.002059
5.765000E-8	0.002263
5.770000E-8	0.002284
5.775000E-8	0.002475
5.780000E-8	0.002463
5.785000E-8	0.002406
5.790000E-8	0.002378
5.795000E-8	0.002322
5.800000E-8	0.002266
5.805000E-8	0.002162
5.810000E-8	0.001959
5.815000E-8	0.001834
5.820000E-8	0.001769
5.825000E-8	0.001784
5.830000E-8	0.001672
5.835000E-8	0.001675
5.840000E-8	0.001666
5.845000E-8	0.001681
5.850000E-8	0.001681
5.855000E-8	0.001878
5.860000E-8	0.001941
5.865000E-8	0.002087
5.870000E-8	0.002087
5.875000E-8	0.002075
5.880000E-8	0.001969
5.885000E-8	0.001925
5.890000E-8	0.001744
5.895000E-8	0.001463
5.900000E-8	0.001397
5.905000E-8	0.001131
5.910000E-8	0.000975
5.915000E-8	0.000819
5.920000E-8	0.000847
5.925000E-8	0.001078
5.930000E-8	0.001166
5.935000E-8	0.001394
5.940000E-8	0.001575
5.945000E-8	0.001841
5.950000E-8	0.002063
5.955000E-8	0.002266
5.960000E-8	0.002331
5.965000E-8	0.002316
5.970000E-8	0.002172
5.975000E-8	0.002138
5.980000E-8	0.001859
5.985000E-8	0.001619
5.990000E-8	0.001612
5.995000E-8	0.001566
6.000000E-8	0.001388
6.005000E-8	0.001444
6.010000E-8	0.001359
6.015000E-8	0.001422
6.020000E-8	0.001500
6.025000E-8	0.001687
6.030000E-8	0.001841
6.035000E-8	0.001819
6.040000E-8	0.001966
6.045000E-8	0.002119
6.050000E-8	0.002094
6.055000E-8	0.002094
6.060000E-8	0.001956
6.065000E-8	0.002028
6.070000E-8	0.001831
6.075000E-8	0.001847
6.080000E-8	0.001616
6.085000E-8	0.001509
6.090000E-8	0.001356
6.095000E-8	0.001222
6.100000E-8	0.001153
6.105000E-8	0.001091
6.110000E-8	0.001078
6.115000E-8	0.001094
6.120000E-8	0.001138
6.125000E-8	0.001272
6.130000E-8	0.001272
6.135000E-8	0.001419
6.140000E-8	0.001553
6.145000E-8	0.001784
6.150000E-8	0.001859
6.155000E-8	0.001844
6.160000E-8	0.001741
6.165000E-8	0.001778
6.170000E-8	0.001631
6.175000E-8	0.001616
6.180000E-8	0.001378
6.185000E-8	0.001384
6.190000E-8	0.001234
6.195000E-8	0.001228
6.200000E-8	0.001091
6.205000E-8	0.001131
6.210000E-8	0.001284
6.215000E-8	0.001409
6.220000E-8	0.001566
6.225000E-8	0.001725
6.230000E-8	0.001825
6.235000E-8	0.002028
6.240000E-8	0.002094
6.245000E-8	0.002178
6.250000E-8	0.002006
6.255000E-8	0.001931
6.260000E-8	0.001788
6.265000E-8	0.001691
6.270000E-8	0.001503
6.275000E-8	0.001369
6.280000E-8	0.001194
6.285000E-8	0.001213
6.290000E-8	0.001209
6.295000E-8	0.001334
6.300000E-8	0.001422
6.305000E-8	0.001553
6.310000E-8	0.001766
6.315000E-8	0.001791
6.320000E-8	0.001866
6.325000E-8	0.001991
6.330000E-8	0.001922
6.335000E-8	0.002103
6.340000E-8	0.002028
6.345000E-8	0.002066
6.350000E-8	0.001919
6.355000E-8	0.001969
6.360000E-8	0.001794
6.365000E-8	0.001800
6.370000E-8	0.001709
6.375000E-8	0.001663
6.380000E-8	0.001553
6.385000E-8	0.001703
6.390000E-8	0.001625
6.395000E-8	0.001687
6.400000E-8	0.001753
6.405000E-8	0.001906
6.410000E-8	0.001969
6.415000E-8	0.002162
6.420000E-8	0.002078
6.425000E-8	0.002216
6.430000E-8	0.002156
6.435000E-8	0.001988
6.440000E-8	0.001856
6.445000E-8	0.001809
6.450000E-8	0.001575
6.455000E-8	0.001453
6.460000E-8	0.001219
6.465000E-8	0.001213
6.470000E-8	0.001047
6.475000E-8	0.001163
6.480000E-8	0.001191
6.485000E-8	0.001322
6.490000E-8	0.001441
6.495000E-8	0.001441
6.500000E-8	0.001491
6.505000E-8	0.001681
6.510000E-8	0.001763
6.515000E-8	0.001856
6.520000E-8	0.001828
6.525000E-8	0.001984
6.530000E-8	0.001953
6.535000E-8	0.001847
6.540000E-8	0.001719
6.545000E-8	0.001716
6.550000E-8	0.001544
6.555000E-8	0.001531
6.560000E-8	0.001469
6.565000E-8	0.001331
6.570000E-8	0.001313
6.575000E-8	0.001459
6.580000E-8	0.001600
6.585000E-8	0.001763
6.590000E-8	0.001900
6.595000E-8	0.002087
6.600000E-8	0.002356
6.605000E-8	0.002603
6.610000E-8	0.002606
6.615000E-8	0.002678
6.620000E-8	0.002472
6.625000E-8	0.002488
6.630000E-8	0.002116
6.635000E-8	0.002063
6.640000E-8	0.001828
6.645000E-8	0.001628
6.650000E-8	0.001475
6.655000E-8	0.001456
6.660000E-8	0.001403
6.665000E-8	0.001566
6.670000E-8	0.001544
6.675000E-8	0.001725
6.680000E-8	0.001791
6.685000E-8	0.001963
6.690000E-8	0.001925
6.695000E-8	0.001972
6.700000E-8	0.002034
6.705000E-8	0.002056
6.710000E-8	0.001925
6.715000E-8	0.001909
6.720000E-8	0.001975
6.725000E-8	0.001947
6.730000E-8	0.001906
6.735000E-8	0.001909
6.740000E-8	0.001828
6.745000E-8	0.001884
6.750000E-8	0.001894
6.755000E-8	0.001784
6.760000E-8	0.001694
6.765000E-8	0.001687
6.770000E-8	0.001628
6.775000E-8	0.001622
6.780000E-8	0.001644
6.785000E-8	0.001731
6.790000E-8	0.001638
6.795000E-8	0.001772
6.800000E-8	0.001725
6.805000E-8	0.001803
6.810000E-8	0.001747
6.815000E-8	0.001706
6.820000E-8	0.001722
6.825000E-8	0.001619
6.830000E-8	0.001456
6.835000E-8	0.001494
6.840000E-8	0.001319
6.845000E-8	0.001250
6.850000E-8	0.001225
6.855000E-8	0.001241
6.860000E-8	0.001197
6.865000E-8	0.001266
6.870000E-8	0.001341
6.875000E-8	0.001459
6.880000E-8	0.001559
6.885000E-8	0.001653
6.890000E-8	0.001572
6.895000E-8	0.001684
6.900000E-8	0.001697
6.905000E-8	0.001722
6.910000E-8	0.001700
6.915000E-8	0.001703
6.920000E-8	0.001478
6.925000E-8	0.001469
6.930000E-8	0.001447
6.935000E-8	0.001406
6.940000E-8	0.001456
6.945000E-8	0.001478
6.950000E-8	0.001403
6.955000E-8	0.001484
6.960000E-8	0.001472
6.965000E-8	0.001591
6.970000E-8	0.001606
6.975000E-8	0.001663
6.980000E-8	0.001691
6.985000E-8	0.001834
6.990000E-8	0.001941
6.995000E-8	0.001847
7.000000E-8	0.001716
7.005000E-8	0.001753
7.010000E-8	0.001669
7.015000E-8	0.001600
7.020000E-8	0.001447
7.025000E-8	0.001297
7.030000E-8	0.001259
7.035000E-8	0.001391
7.040000E-8	0.001256
7.045000E-8	0.001266
7.050000E-8	0.001359
7.055000E-8	0.001494
7.060000E-8	0.001591
7.065000E-8	0.001687
7.070000E-8	0.001669
7.075000E-8	0.001797
7.080000E-8	0.001675
7.085000E-8	0.001847
7.090000E-8	0.001825
7.095000E-8	0.001828
7.100000E-8	0.001794
7.105000E-8	0.001791
7.110000E-8	0.001634
7.115000E-8	0.001766
7.120000E-8	0.001669
7.125000E-8	0.001669
7.130000E-8	0.001591
7.135000E-8	0.001600
7.140000E-8	0.001681
7.145000E-8	0.001663
7.150000E-8	0.001784
7.155000E-8	0.001922
7.160000E-8	0.001934
7.165000E-8	0.002097
7.170000E-8	0.002038
7.175000E-8	0.002084
7.180000E-8	0.001972
7.185000E-8	0.002059
7.190000E-8	0.001872
7.195000E-8	0.001888
7.200000E-8	0.001841
7.205000E-8	0.001766
7.210000E-8	0.001609
7.215000E-8	0.001644
7.220000E-8	0.001631
7.225000E-8	0.001647
7.230000E-8	0.001575
7.235000E-8	0.001625
7.240000E-8	0.001669
7.245000E-8	0.001825
7.250000E-8	0.001847
7.255000E-8	0.001869
7.260000E-8	0.001844
7.265000E-8	0.001941
7.270000E-8	0.001891
7.275000E-8	0.001994
7.280000E-8	0.001909
7.285000E-8	0.001978
7.290000E-8	0.001806
7.295000E-8	0.001816
7.300000E-8	0.001731
7.305000E-8	0.001700
7.310000E-8	0.001681
7.315000E-8	0.001769
7.320000E-8	0.001778
7.325000E-8	0.001788
7.330000E-8	0.001666
7.335000E-8	0.001822
7.340000E-8	0.001741
7.345000E-8	0.001963
7.350000E-8	0.002028
7.355000E-8	0.002122
7.360000E-8	0.002078
7.365000E-8	0.002222
7.370000E-8	0.002063
7.375000E-8	0.002197
7.380000E-8	0.002116
7.385000E-8	0.002097
7.390000E-8	0.002038
7.395000E-8	0.001922
7.400000E-8	0.001869
7.405000E-8	0.001847
7.410000E-8	0.001731
7.415000E-8	0.001628
7.420000E-8	0.001506
7.425000E-8	0.001584
7.430000E-8	0.001628
7.435000E-8	0.001703
7.440000E-8	0.001644
7.445000E-8	0.001706
7.450000E-8	0.001891
7.455000E-8	0.002028
7.460000E-8	0.002069
7.465000E-8	0.002222
7.470000E-8	0.002038
7.475000E-8	0.002116
7.480000E-8	0.001991
7.485000E-8	0.001844
7.490000E-8	0.001612
7.495000E-8	0.001559
7.500000E-8	0.001434
7.505000E-8	0.001334
7.510000E-8	0.001275
7.515000E-8	0.001325
7.520000E-8	0.001419
7.525000E-8	0.001694
7.530000E-8	0.001859
7.535000E-8	0.001956
7.540000E-8	0.002038
7.545000E-8	0.002184
7.550000E-8	0.002078
7.555000E-8	0.002022
7.560000E-8	0.001913
7.565000E-8	0.001828
7.570000E-8	0.001675
7.575000E-8	0.001547
7.580000E-8	0.001513
7.585000E-8	0.001625
7.590000E-8	0.001525
7.595000E-8	0.001766
7.600000E-8	0.001800
7.605000E-8	0.001931
7.610000E-8	0.001953
7.615000E-8	0.002053
7.620000E-8	0.001981
7.625000E-8	0.002203
7.630000E-8	0.002066
7.635000E-8	0.002138
7.640000E-8	0.002025
7.645000E-8	0.002147
7.650000E-8	0.001994
7.655000E-8	0.002028
7.660000E-8	0.001925
7.665000E-8	0.002072
7.670000E-8	0.001966
7.675000E-8	0.002128
7.680000E-8	0.002000
7.685000E-8	0.001988
7.690000E-8	0.001909
7.695000E-8	0.002019
7.700000E-8	0.001828
7.705000E-8	0.001800
7.710000E-8	0.001722
7.715000E-8	0.001741
7.720000E-8	0.001625
7.725000E-8	0.001691
7.730000E-8	0.001716
7.735000E-8	0.001744
7.740000E-8	0.001809
7.745000E-8	0.002012
7.750000E-8	0.002000
7.755000E-8	0.002028
7.760000E-8	0.002028
7.765000E-8	0.002012
7.770000E-8	0.001913
7.775000E-8	0.002091
7.780000E-8	0.002028
7.785000E-8	0.002141
7.790000E-8	0.002022
7.795000E-8	0.002028
7.800000E-8	0.001969
7.805000E-8	0.001972
7.810000E-8	0.001884
7.815000E-8	0.001897
7.820000E-8	0.001872
7.825000E-8	0.001891
7.830000E-8	0.001863
7.835000E-8	0.001975
7.840000E-8	0.001925
7.845000E-8	0.001919
7.850000E-8	0.001913
7.855000E-8	0.001888
7.860000E-8	0.001763
7.865000E-8	0.001900
7.870000E-8	0.001781
7.875000E-8	0.001797
7.880000E-8	0.001706
7.885000E-8	0.001600
7.890000E-8	0.001625
7.895000E-8	0.001738
7.900000E-8	0.001709
7.905000E-8	0.001853
7.910000E-8	0.001850
7.915000E-8	0.001875
7.920000E-8	0.001741
7.925000E-8	0.001825
7.930000E-8	0.001859
7.935000E-8	0.001738
7.940000E-8	0.001666
7.945000E-8	0.001672
7.950000E-8	0.001681
7.955000E-8	0.001709
7.960000E-8	0.001616
7.965000E-8	0.001628
7.970000E-8	0.001544
7.975000E-8	0.001644
7.980000E-8	0.001569
7.985000E-8	0.001750
7.990000E-8	0.001606
7.995000E-8	0.001650
8.000000E-8	0.001669
8.005000E-8	0.001622
8.010000E-8	0.001597
8.015000E-8	0.001641
8.020000E-8	0.001494
8.025000E-8	0.001531
8.030000E-8	0.001569
8.035000E-8	0.001591
8.040000E-8	0.001503
8.045000E-8	0.001622
8.050000E-8	0.001547
8.055000E-8	0.001584
8.060000E-8	0.001516
8.065000E-8	0.001469
8.070000E-8	0.001563
8.075000E-8	0.001550
8.080000E-8	0.001466
8.085000E-8	0.001488
8.090000E-8	0.001478
8.095000E-8	0.001519
8.100000E-8	0.001472
8.105000E-8	0.001591
8.110000E-8	0.001788
8.115000E-8	0.001844
8.120000E-8	0.001728
8.125000E-8	0.001612
8.130000E-8	0.001578
8.135000E-8	0.001547
8.140000E-8	0.001503
8.145000E-8	0.001563
8.150000E-8	0.001619
8.155000E-8	0.001694
8.160000E-8	0.001653
8.165000E-8	0.001672
8.170000E-8	0.001666
8.175000E-8	0.001834
8.180000E-8	0.001850
8.185000E-8	0.001922
8.190000E-8	0.002012
8.195000E-8	0.001941
8.200000E-8	0.001847
8.205000E-8	0.001841
8.210000E-8	0.001681
8.215000E-8	0.001647
8.220000E-8	0.001644
8.225000E-8	0.001694
8.230000E-8	0.001719
8.235000E-8	0.001775
8.240000E-8	0.001616
8.245000E-8	0.001612
8.250000E-8	0.001609
8.255000E-8	0.001687
8.260000E-8	0.001644
8.265000E-8	0.001903
8.270000E-8	0.001766
8.275000E-8	0.001881
8.280000E-8	0.001813
8.285000E-8	0.001863
8.290000E-8	0.001694
8.295000E-8	0.001650
8.300000E-8	0.001625
8.305000E-8	0.001694
8.310000E-8	0.001541
8.315000E-8	0.001431
8.320000E-8	0.001453
8.325000E-8	0.001563
8.330000E-8	0.001400
8.335000E-8	0.001466
8.340000E-8	0.001553
8.345000E-8	0.001675
8.350000E-8	0.001578
8.355000E-8	0.001716
8.360000E-8	0.001900
8.365000E-8	0.001878
8.370000E-8	0.001903
8.375000E-8	0.001944
8.380000E-8	0.001909
8.385000E-8	0.001966
8.390000E-8	0.001900
8.395000E-8	0.001784
8.400000E-8	0.001563
8.405000E-8	0.001578
8.410000E-8	0.001375
8.415000E-8	0.001519
8.420000E-8	0.001484
8.425000E-8	0.001584
8.430000E-8	0.001672
8.435000E-8	0.001809
8.440000E-8	0.001813
8.445000E-8	0.001972
8.450000E-8	0.002116
8.455000E-8	0.002094
8.460000E-8	0.002222
8.465000E-8	0.002200
8.470000E-8	0.002150
8.475000E-8	0.002166
8.480000E-8	0.002113
8.485000E-8	0.002050
8.490000E-8	0.001913
8.495000E-8	0.002006
8.500000E-8	0.001888
8.505000E-8	0.001856
8.510000E-8	0.001766
8.515000E-8	0.001697
8.520000E-8	0.001647
8.525000E-8	0.001691
8.530000E-8	0.001687
8.535000E-8	0.001784
8.540000E-8	0.001784
8.545000E-8	0.001866
8.550000E-8	0.001797
8.555000E-8	0.001781
8.560000E-8	0.001634
8.565000E-8	0.001784
8.570000E-8	0.001691
8.575000E-8	0.001728
8.580000E-8	0.001616
8.585000E-8	0.001647
8.590000E-8	0.001634
8.595000E-8	0.001728
8.600000E-8	0.001706
8.605000E-8	0.001703
8.610000E-8	0.001641
8.615000E-8	0.001750
8.620000E-8	0.001650
8.625000E-8	0.001728
8.630000E-8	0.001675
8.635000E-8	0.001772
8.640000E-8	0.001659
8.645000E-8	0.001609
8.650000E-8	0.001503
8.655000E-8	0.001597
8.660000E-8	0.001669
8.665000E-8	0.001569
8.670000E-8	0.001506
8.675000E-8	0.001494
8.680000E-8	0.001475
8.685000E-8	0.001544
8.690000E-8	0.001509
8.695000E-8	0.001559
8.700000E-8	0.001581
8.705000E-8	0.001713
8.710000E-8	0.001716
8.715000E-8	0.001709
8.720000E-8	0.001706
8.725000E-8	0.001638
8.730000E-8	0.001641
8.735000E-8	0.001691
8.740000E-8	0.001612
8.745000E-8	0.001741
8.750000E-8	0.001694
8.755000E-8	0.001653
8.760000E-8	0.001709
8.765000E-8	0.001856
8.770000E-8	0.001903
8.775000E-8	0.002028
8.780000E-8	0.002200
8.785000E-8	0.002216
8.790000E-8	0.002084
8.795000E-8	0.002206
8.800000E-8	0.002141
8.805000E-8	0.002178
8.810000E-8	0.002109
8.815000E-8	0.002122
8.820000E-8	0.001897
8.825000E-8	0.001925
8.830000E-8	0.001878
8.835000E-8	0.001897
8.840000E-8	0.001831
8.845000E-8	0.001831
8.850000E-8	0.001763
8.855000E-8	0.001800
8.860000E-8	0.001903
8.865000E-8	0.001934
8.870000E-8	0.001937
8.875000E-8	0.002056
8.880000E-8	0.001994
8.885000E-8	0.002063
8.890000E-8	0.001981
8.895000E-8	0.001988
8.900000E-8	0.001838
8.905000E-8	0.001788
8.910000E-8	0.001747
8.915000E-8	0.001725
8.920000E-8	0.001588
8.925000E-8	0.001622
8.930000E-8	0.001556
8.935000E-8	0.001634
8.940000E-8	0.001722
8.945000E-8	0.001750
8.950000E-8	0.001709
8.955000E-8	0.001822
8.960000E-8	0.001947
8.965000E-8	0.001853
8.970000E-8	0.001788
8.975000E-8	0.001725
8.980000E-8	0.001713
8.985000E-8	0.001625
8.990000E-8	0.001516
8.995000E-8	0.001472
9.000000E-8	0.001509
9.005000E-8	0.001556
9.010000E-8	0.001563
9.015000E-8	0.001519
9.020000E-8	0.001581
9.025000E-8	0.001666
9.030000E-8	0.001734
9.035000E-8	0.001597
9.040000E-8	0.001597
9.045000E-8	0.001753
9.050000E-8	0.001825
9.055000E-8	0.001806
9.060000E-8	0.001747
9.065000E-8	0.001853
9.070000E-8	0.001788
9.075000E-8	0.001919
9.080000E-8	0.001769
9.085000E-8	0.001775
9.090000E-8	0.001719
9.095000E-8	0.001691
9.100000E-8	0.001656
9.105000E-8	0.001719
9.110000E-8	0.001584
9.115000E-8	0.001634
9.120000E-8	0.001538
9.125000E-8	0.001603
9.130000E-8	0.001494
9.135000E-8	0.001513
9.140000E-8	0.001616
9.145000E-8	0.001703
9.150000E-8	0.001672
9.155000E-8	0.001647
9.160000E-8	0.001794
9.165000E-8	0.001766
9.170000E-8	0.001612
9.175000E-8	0.001566
9.180000E-8	0.001450
9.185000E-8	0.001528
9.190000E-8	0.001409
9.195000E-8	0.001441
9.200000E-8	0.001413
9.205000E-8	0.001391
9.210000E-8	0.001528
9.215000E-8	0.001559
9.220000E-8	0.001509
9.225000E-8	0.001606
9.230000E-8	0.001634
9.235000E-8	0.001763
9.240000E-8	0.001759
9.245000E-8	0.001816
9.250000E-8	0.001772
9.255000E-8	0.001878
9.260000E-8	0.001706
9.265000E-8	0.001819
9.270000E-8	0.001813
9.275000E-8	0.001809
9.280000E-8	0.001734
9.285000E-8	0.001784
9.290000E-8	0.001809
9.295000E-8	0.001863
9.300000E-8	0.001791
9.305000E-8	0.001853
9.310000E-8	0.001694
9.315000E-8	0.001684
9.320000E-8	0.001669
9.325000E-8	0.001722
9.330000E-8	0.001644
9.335000E-8	0.001675
9.340000E-8	0.001703
9.345000E-8	0.001650
9.350000E-8	0.001669
9.355000E-8	0.001706
9.360000E-8	0.001719
9.365000E-8	0.001800
9.370000E-8	0.001756
9.375000E-8	0.001847
9.380000E-8	0.001825
9.385000E-8	0.002006
9.390000E-8	0.001937
9.395000E-8	0.002022
9.400000E-8	0.001981
9.405000E-8	0.002000
9.410000E-8	0.001925
9.415000E-8	0.002016
9.420000E-8	0.001953
9.425000E-8	0.002041
9.430000E-8	0.001925
9.435000E-8	0.001931
9.440000E-8	0.002016
9.445000E-8	0.001894
9.450000E-8	0.001888
9.455000E-8	0.001934
9.460000E-8	0.001863
9.465000E-8	0.001913
9.470000E-8	0.001866
9.475000E-8	0.001734
9.480000E-8	0.001744
9.485000E-8	0.001725
9.490000E-8	0.001728
9.495000E-8	0.001769
9.500000E-8	0.001722
9.505000E-8	0.001825
9.510000E-8	0.001831
9.515000E-8	0.001897
9.520000E-8	0.001797
9.525000E-8	0.001875
9.530000E-8	0.001850
9.535000E-8	0.001906
9.540000E-8	0.001650
9.545000E-8	0.001594
9.550000E-8	0.001488
9.555000E-8	0.001503
9.560000E-8	0.001428
9.565000E-8	0.001503
9.570000E-8	0.001563
9.575000E-8	0.001703
9.580000E-8	0.001800
9.585000E-8	0.001909
9.590000E-8	0.001903
9.595000E-8	0.002125
9.600000E-8	0.002147
9.605000E-8	0.002025
9.610000E-8	0.001937
9.615000E-8	0.001941
9.620000E-8	0.001763
9.625000E-8	0.001678
9.630000E-8	0.001513
9.635000E-8	0.001484
9.640000E-8	0.001428
9.645000E-8	0.001425
9.650000E-8	0.001478
9.655000E-8	0.001475
9.660000E-8	0.001594
9.665000E-8	0.001687
9.670000E-8	0.001731
9.675000E-8	0.001988
9.680000E-8	0.002019
9.685000E-8	0.002178
9.690000E-8	0.002234
9.695000E-8	0.002372
9.700000E-8	0.002294
9.705000E-8	0.002203
9.710000E-8	0.002109
9.715000E-8	0.002144
9.720000E-8	0.002031
9.725000E-8	0.001988
9.730000E-8	0.001944
9.735000E-8	0.001856
9.740000E-8	0.001763
9.745000E-8	0.001725
9.750000E-8	0.001666
9.755000E-8	0.001659
9.760000E-8	0.001634
9.765000E-8	0.001616
9.770000E-8	0.001522
9.775000E-8	0.001706
9.780000E-8	0.001600
9.785000E-8	0.001681
9.790000E-8	0.001741
9.795000E-8	0.001931
9.800000E-8	0.001847
9.805000E-8	0.001838
9.810000E-8	0.001913
9.815000E-8	0.002012
9.820000E-8	0.001894
9.825000E-8	0.001903
9.830000E-8	0.001819
9.835000E-8	0.001781
9.840000E-8	0.001766
9.845000E-8	0.001800
9.850000E-8	0.001831
9.855000E-8	0.001897
9.860000E-8	0.001759
9.865000E-8	0.001813
9.870000E-8	0.001838
9.875000E-8	0.001847
9.880000E-8	0.001681
9.885000E-8	0.001781
9.890000E-8	0.001694
9.895000E-8	0.001691
9.900000E-8	0.001631
9.905000E-8	0.001775
9.910000E-8	0.001738
9.915000E-8	0.001800
9.920000E-8	0.001753
9.925000E-8	0.001956
9.930000E-8	0.001875
9.935000E-8	0.001906
9.940000E-8	0.001772
9.945000E-8	0.001781
9.950000E-8	0.001703
9.955000E-8	0.001588
9.960000E-8	0.001578
9.965000E-8	0.001775
9.970000E-8	0.001753
9.975000E-8	0.001819
9.980000E-8	0.001847
9.985000E-8	0.002016
9.990000E-8	0.001956
9.995000E-8	0.001969
