LabVIEW Measurement	
Writer_Version	2
Reader_Version	2
Separator	Tab
Decimal_Separator	.
Multi_Headings	No
X_Columns	Multi
Time_Pref	Relative
Operator	TG lab
Date	2015/03/06
Time	18:53:05.4339570999145507813
***End_of_Header***	
	
Channels	1	
Samples	2000	
Date	2015/03/06	
Time	18:53:05.4339570999145507813	
X_Dimension	Time	
X0	0.0000000000000000E+0	
Delta_X	5.000000E-11	
***End_of_Header***		
X_Value	Untitled	Comment
0.000000	0.001395
5.000000E-11	0.001411
1.000000E-10	0.001448
1.500000E-10	0.001481
2.000000E-10	0.001430
2.500000E-10	0.001527
3.000000E-10	0.001453
3.500000E-10	0.001378
4.000000E-10	0.001419
4.500000E-10	0.001389
5.000000E-10	0.001369
5.500000E-10	0.001381
6.000000E-10	0.001422
6.500000E-10	0.001461
7.000000E-10	0.001534
7.500000E-10	0.001541
8.000000E-10	0.001545
8.500000E-10	0.001541
9.000000E-10	0.001547
9.500000E-10	0.001538
1.000000E-9	0.001422
1.050000E-9	0.001373
1.100000E-9	0.001331
1.150000E-9	0.001213
1.200000E-9	0.001158
1.250000E-9	0.001223
1.300000E-9	0.001197
1.350000E-9	0.001233
1.400000E-9	0.001200
1.450000E-9	0.001272
1.500000E-9	0.001266
1.550000E-9	0.001308
1.600000E-9	0.001308
1.650000E-9	0.001284
1.700000E-9	0.001248
1.750000E-9	0.001277
1.800000E-9	0.001250
1.850000E-9	0.001367
1.900000E-9	0.001319
1.950000E-9	0.001383
2.000000E-9	0.001400
2.050000E-9	0.001436
2.100000E-9	0.001475
2.150000E-9	0.001539
2.200000E-9	0.001505
2.250000E-9	0.001603
2.300000E-9	0.001566
2.350000E-9	0.001592
2.400000E-9	0.001492
2.450000E-9	0.001459
2.500000E-9	0.001383
2.550000E-9	0.001356
2.600000E-9	0.001213
2.650000E-9	0.001197
2.700000E-9	0.001123
2.750000E-9	0.001169
2.800000E-9	0.001102
2.850000E-9	0.001130
2.900000E-9	0.001105
2.950000E-9	0.001184
3.000000E-9	0.001166
3.050000E-9	0.001186
3.100000E-9	0.001114
3.150000E-9	0.001130
3.200000E-9	0.001127
3.250000E-9	0.001144
3.300000E-9	0.001080
3.350000E-9	0.001069
3.400000E-9	0.001058
3.450000E-9	0.001105
3.500000E-9	0.001011
3.550000E-9	0.000906
3.600000E-9	0.000930
3.650000E-9	0.000917
3.700000E-9	0.000866
3.750000E-9	0.000869
3.800000E-9	0.000888
3.850000E-9	0.000889
3.900000E-9	0.000925
3.950000E-9	0.000984
4.000000E-9	0.001041
4.050000E-9	0.001094
4.100000E-9	0.001091
4.150000E-9	0.001127
4.200000E-9	0.001141
4.250000E-9	0.001186
4.300000E-9	0.001131
4.350000E-9	0.001111
4.400000E-9	0.001064
4.450000E-9	0.001102
4.500000E-9	0.001033
4.550000E-9	0.001033
4.600000E-9	0.001058
4.650000E-9	0.001031
4.700000E-9	0.000920
4.750000E-9	0.000731
4.800000E-9	0.000414
4.850000E-9	-9.843750E-5
4.900000E-9	-0.000819
4.950000E-9	-0.001705
5.000000E-9	-0.002792
5.050000E-9	-0.004070
5.100000E-9	-0.005570
5.150000E-9	-0.007048
5.200000E-9	-0.008602
5.250000E-9	-0.010144
5.300000E-9	-0.011661
5.350000E-9	-0.012955
5.400000E-9	-0.014263
5.450000E-9	-0.015248
5.500000E-9	-0.016091
5.550000E-9	-0.016670
5.600000E-9	-0.017111
5.650000E-9	-0.017272
5.700000E-9	-0.017273
5.750000E-9	-0.016966
5.800000E-9	-0.016514
5.850000E-9	-0.015855
5.900000E-9	-0.015066
5.950000E-9	-0.014086
6.000000E-9	-0.013137
6.050000E-9	-0.012092
6.100000E-9	-0.011117
6.150000E-9	-0.010192
6.200000E-9	-0.009428
6.250000E-9	-0.008863
6.300000E-9	-0.008539
6.350000E-9	-0.008409
6.400000E-9	-0.008461
6.450000E-9	-0.008747
6.500000E-9	-0.009173
6.550000E-9	-0.009608
6.600000E-9	-0.010086
6.650000E-9	-0.010536
6.700000E-9	-0.010989
6.750000E-9	-0.011295
6.800000E-9	-0.011544
6.850000E-9	-0.011608
6.900000E-9	-0.011638
6.950000E-9	-0.011373
7.000000E-9	-0.011078
7.050000E-9	-0.010566
7.100000E-9	-0.009978
7.150000E-9	-0.009269
7.200000E-9	-0.008556
7.250000E-9	-0.007763
7.300000E-9	-0.007025
7.350000E-9	-0.006202
7.400000E-9	-0.005586
7.450000E-9	-0.005014
7.500000E-9	-0.004608
7.550000E-9	-0.004297
7.600000E-9	-0.004292
7.650000E-9	-0.004314
7.700000E-9	-0.004533
7.750000E-9	-0.004748
7.800000E-9	-0.005122
7.850000E-9	-0.005467
7.900000E-9	-0.005875
7.950000E-9	-0.006327
8.000000E-9	-0.006739
8.050000E-9	-0.007048
8.100000E-9	-0.007384
8.150000E-9	-0.007525
8.200000E-9	-0.007609
8.250000E-9	-0.007434
8.300000E-9	-0.007148
8.350000E-9	-0.006752
8.400000E-9	-0.006145
8.450000E-9	-0.005472
8.500000E-9	-0.004695
8.550000E-9	-0.003952
8.600000E-9	-0.003259
8.650000E-9	-0.002567
8.700000E-9	-0.002052
8.750000E-9	-0.001627
8.800000E-9	-0.001420
8.850000E-9	-0.001309
8.900000E-9	-0.001456
8.950000E-9	-0.001703
9.000000E-9	-0.002048
9.050000E-9	-0.002539
9.100000E-9	-0.003122
9.150000E-9	-0.003669
9.200000E-9	-0.004325
9.250000E-9	-0.004841
9.300000E-9	-0.005306
9.350000E-9	-0.005700
9.400000E-9	-0.005895
9.450000E-9	-0.005947
9.500000E-9	-0.005878
9.550000E-9	-0.005616
9.600000E-9	-0.005264
9.650000E-9	-0.004781
9.700000E-9	-0.004112
9.750000E-9	-0.003477
9.800000E-9	-0.002823
9.850000E-9	-0.002127
9.900000E-9	-0.001581
9.950000E-9	-0.001039
1.000000E-8	-0.000652
1.005000E-8	-0.000291
1.010000E-8	-0.000217
1.015000E-8	-0.000120
1.020000E-8	-0.000294
1.025000E-8	-0.000575
1.030000E-8	-0.000952
1.035000E-8	-0.001444
1.040000E-8	-0.001967
1.045000E-8	-0.002491
1.050000E-8	-0.003059
1.055000E-8	-0.003527
1.060000E-8	-0.003956
1.065000E-8	-0.004161
1.070000E-8	-0.004272
1.075000E-8	-0.004264
1.080000E-8	-0.004034
1.085000E-8	-0.003609
1.090000E-8	-0.003127
1.095000E-8	-0.002413
1.100000E-8	-0.001702
1.105000E-8	-0.000984
1.110000E-8	-0.000327
1.115000E-8	0.000284
1.120000E-8	0.000828
1.125000E-8	0.001255
1.130000E-8	0.001513
1.135000E-8	0.001652
1.140000E-8	0.001581
1.145000E-8	0.001373
1.150000E-8	0.001045
1.155000E-8	0.000498
1.160000E-8	-8.906250E-5
1.165000E-8	-0.000720
1.170000E-8	-0.001375
1.175000E-8	-0.002009
1.180000E-8	-0.002552
1.185000E-8	-0.003028
1.190000E-8	-0.003345
1.195000E-8	-0.003488
1.200000E-8	-0.003514
1.205000E-8	-0.003286
1.210000E-8	-0.002902
1.215000E-8	-0.002439
1.220000E-8	-0.001891
1.225000E-8	-0.001164
1.230000E-8	-0.000502
1.235000E-8	0.000267
1.240000E-8	0.000855
1.245000E-8	0.001395
1.250000E-8	0.001803
1.255000E-8	0.001984
1.260000E-8	0.002078
1.265000E-8	0.001986
1.270000E-8	0.001717
1.275000E-8	0.001273
1.280000E-8	0.000689
1.285000E-8	0.000203
1.290000E-8	-0.000433
1.295000E-8	-0.000992
1.300000E-8	-0.001509
1.305000E-8	-0.001942
1.310000E-8	-0.002311
1.315000E-8	-0.002552
1.320000E-8	-0.002647
1.325000E-8	-0.002556
1.330000E-8	-0.002344
1.335000E-8	-0.001975
1.340000E-8	-0.001517
1.345000E-8	-0.000861
1.350000E-8	-0.000277
1.355000E-8	0.000367
1.360000E-8	0.000983
1.365000E-8	0.001614
1.370000E-8	0.002138
1.375000E-8	0.002531
1.380000E-8	0.002756
1.385000E-8	0.002861
1.390000E-8	0.002716
1.395000E-8	0.002484
1.400000E-8	0.002105
1.405000E-8	0.001639
1.410000E-8	0.001086
1.415000E-8	0.000544
1.420000E-8	7.812500E-6
1.425000E-8	-0.000575
1.430000E-8	-0.001086
1.435000E-8	-0.001406
1.440000E-8	-0.001717
1.445000E-8	-0.001928
1.450000E-8	-0.001994
1.455000E-8	-0.001853
1.460000E-8	-0.001602
1.465000E-8	-0.001250
1.470000E-8	-0.000816
1.475000E-8	-0.000291
1.480000E-8	0.000273
1.485000E-8	0.000914
1.490000E-8	0.001525
1.495000E-8	0.001978
1.500000E-8	0.002355
1.505000E-8	0.002589
1.510000E-8	0.002642
1.515000E-8	0.002542
1.520000E-8	0.002339
1.525000E-8	0.002028
1.530000E-8	0.001502
1.535000E-8	0.001033
1.540000E-8	0.000486
1.545000E-8	-5.312500E-5
1.550000E-8	-0.000631
1.555000E-8	-0.001011
1.560000E-8	-0.001436
1.565000E-8	-0.001634
1.570000E-8	-0.001736
1.575000E-8	-0.001709
1.580000E-8	-0.001494
1.585000E-8	-0.001231
1.590000E-8	-0.000852
1.595000E-8	-0.000383
1.600000E-8	0.000183
1.605000E-8	0.000727
1.610000E-8	0.001286
1.615000E-8	0.001870
1.620000E-8	0.002284
1.625000E-8	0.002706
1.630000E-8	0.002970
1.635000E-8	0.003098
1.640000E-8	0.003098
1.645000E-8	0.003019
1.650000E-8	0.002759
1.655000E-8	0.002439
1.660000E-8	0.001970
1.665000E-8	0.001436
1.670000E-8	0.000897
1.675000E-8	0.000273
1.680000E-8	-0.000209
1.685000E-8	-0.000523
1.690000E-8	-0.000884
1.695000E-8	-0.001033
1.700000E-8	-0.001128
1.705000E-8	-0.001008
1.710000E-8	-0.000900
1.715000E-8	-0.000509
1.720000E-8	-6.093750E-5
1.725000E-8	0.000469
1.730000E-8	0.001056
1.735000E-8	0.001652
1.740000E-8	0.002166
1.745000E-8	0.002589
1.750000E-8	0.002973
1.755000E-8	0.003203
1.760000E-8	0.003295
1.765000E-8	0.003297
1.770000E-8	0.003056
1.775000E-8	0.002716
1.780000E-8	0.002225
1.785000E-8	0.001763
1.790000E-8	0.001184
1.795000E-8	0.000644
1.800000E-8	0.000111
1.805000E-8	-0.000389
1.810000E-8	-0.000795
1.815000E-8	-0.001075
1.820000E-8	-0.001233
1.825000E-8	-0.001177
1.830000E-8	-0.001052
1.835000E-8	-0.000709
1.840000E-8	-0.000347
1.845000E-8	7.968750E-5
1.850000E-8	0.000522
1.855000E-8	0.001112
1.860000E-8	0.001552
1.865000E-8	0.002055
1.870000E-8	0.002425
1.875000E-8	0.002764
1.880000E-8	0.002928
1.885000E-8	0.003064
1.890000E-8	0.002959
1.895000E-8	0.002898
1.900000E-8	0.002677
1.905000E-8	0.002386
1.910000E-8	0.001967
1.915000E-8	0.001548
1.920000E-8	0.001048
1.925000E-8	0.000573
1.930000E-8	0.000166
1.935000E-8	-0.000255
1.940000E-8	-0.000545
1.945000E-8	-0.000705
1.950000E-8	-0.000800
1.955000E-8	-0.000670
1.960000E-8	-0.000548
1.965000E-8	-0.000247
1.970000E-8	0.000113
1.975000E-8	0.000619
1.980000E-8	0.001066
1.985000E-8	0.001578
1.990000E-8	0.002011
1.995000E-8	0.002373
2.000000E-8	0.002698
2.005000E-8	0.002902
2.010000E-8	0.003002
2.015000E-8	0.003041
2.020000E-8	0.002902
2.025000E-8	0.002641
2.030000E-8	0.002314
2.035000E-8	0.001875
2.040000E-8	0.001478
2.045000E-8	0.000989
2.050000E-8	0.000502
2.055000E-8	5.625000E-5
2.060000E-8	-0.000356
2.065000E-8	-0.000602
2.070000E-8	-0.000864
2.075000E-8	-0.000964
2.080000E-8	-0.000902
2.085000E-8	-0.000750
2.090000E-8	-0.000523
2.095000E-8	-0.000144
2.100000E-8	0.000347
2.105000E-8	0.000870
2.110000E-8	0.001333
2.115000E-8	0.001845
2.120000E-8	0.002234
2.125000E-8	0.002645
2.130000E-8	0.002842
2.135000E-8	0.003005
2.140000E-8	0.002959
2.145000E-8	0.002866
2.150000E-8	0.002613
2.155000E-8	0.002306
2.160000E-8	0.001902
2.165000E-8	0.001533
2.170000E-8	0.000973
2.175000E-8	0.000544
2.180000E-8	0.000113
2.185000E-8	-0.000230
2.190000E-8	-0.000536
2.195000E-8	-0.000625
2.200000E-8	-0.000698
2.205000E-8	-0.000577
2.210000E-8	-0.000391
2.215000E-8	-5.781250E-5
2.220000E-8	0.000303
2.225000E-8	0.000777
2.230000E-8	0.001186
2.235000E-8	0.001678
2.240000E-8	0.002044
2.245000E-8	0.002453
2.250000E-8	0.002706
2.255000E-8	0.003003
2.260000E-8	0.003095
2.265000E-8	0.003142
2.270000E-8	0.003050
2.275000E-8	0.002903
2.280000E-8	0.002572
2.285000E-8	0.002297
2.290000E-8	0.001889
2.295000E-8	0.001448
2.300000E-8	0.000967
2.305000E-8	0.000528
2.310000E-8	0.000133
2.315000E-8	-0.000172
2.320000E-8	-0.000388
2.325000E-8	-0.000537
2.330000E-8	-0.000514
2.335000E-8	-0.000395
2.340000E-8	-8.750000E-5
2.345000E-8	0.000256
2.350000E-8	0.000616
2.355000E-8	0.001088
2.360000E-8	0.001538
2.365000E-8	0.001994
2.370000E-8	0.002325
2.375000E-8	0.002653
2.380000E-8	0.002908
2.385000E-8	0.003020
2.390000E-8	0.003002
2.395000E-8	0.002873
2.400000E-8	0.002659
2.405000E-8	0.002441
2.410000E-8	0.002059
2.415000E-8	0.001589
2.420000E-8	0.001194
2.425000E-8	0.000722
2.430000E-8	0.000334
2.435000E-8	-3.125000E-6
2.440000E-8	-0.000267
2.445000E-8	-0.000438
2.450000E-8	-0.000494
2.455000E-8	-0.000488
2.460000E-8	-0.000334
2.465000E-8	-6.718750E-5
2.470000E-8	0.000161
2.475000E-8	0.000547
2.480000E-8	0.000913
2.485000E-8	0.001370
2.490000E-8	0.001742
2.495000E-8	0.002113
2.500000E-8	0.002383
2.505000E-8	0.002670
2.510000E-8	0.002883
2.515000E-8	0.002950
2.520000E-8	0.002864
2.525000E-8	0.002728
2.530000E-8	0.002439
2.535000E-8	0.002098
2.540000E-8	0.001716
2.545000E-8	0.001334
2.550000E-8	0.000889
2.555000E-8	0.000509
2.560000E-8	0.000177
2.565000E-8	-0.000120
2.570000E-8	-0.000317
2.575000E-8	-0.000380
2.580000E-8	-0.000384
2.585000E-8	-0.000298
2.590000E-8	-0.000122
2.595000E-8	0.000181
2.600000E-8	0.000489
2.605000E-8	0.000936
2.610000E-8	0.001333
2.615000E-8	0.001825
2.620000E-8	0.002294
2.625000E-8	0.002675
2.630000E-8	0.003000
2.635000E-8	0.003211
2.640000E-8	0.003323
2.645000E-8	0.003317
2.650000E-8	0.003098
2.655000E-8	0.002877
2.660000E-8	0.002472
2.665000E-8	0.002028
2.670000E-8	0.001519
2.675000E-8	0.001066
2.680000E-8	0.000522
2.685000E-8	0.000153
2.690000E-8	-0.000158
2.695000E-8	-0.000333
2.700000E-8	-0.000478
2.705000E-8	-0.000375
2.710000E-8	-0.000311
2.715000E-8	1.406250E-5
2.720000E-8	0.000336
2.725000E-8	0.000758
2.730000E-8	0.001225
2.735000E-8	0.001652
2.740000E-8	0.002161
2.745000E-8	0.002505
2.750000E-8	0.002767
2.755000E-8	0.002934
2.760000E-8	0.003081
2.765000E-8	0.003064
2.770000E-8	0.002905
2.775000E-8	0.002742
2.780000E-8	0.002489
2.785000E-8	0.002250
2.790000E-8	0.001869
2.795000E-8	0.001561
2.800000E-8	0.001206
2.805000E-8	0.000945
2.810000E-8	0.000614
2.815000E-8	0.000392
2.820000E-8	0.000241
2.825000E-8	0.000227
2.830000E-8	0.000194
2.835000E-8	0.000236
2.840000E-8	0.000386
2.845000E-8	0.000612
2.850000E-8	0.000848
2.855000E-8	0.001195
2.860000E-8	0.001436
2.865000E-8	0.001734
2.870000E-8	0.002056
2.875000E-8	0.002322
2.880000E-8	0.002530
2.885000E-8	0.002670
2.890000E-8	0.002786
2.895000E-8	0.002795
2.900000E-8	0.002756
2.905000E-8	0.002608
2.910000E-8	0.002367
2.915000E-8	0.002156
2.920000E-8	0.001830
2.925000E-8	0.001461
2.930000E-8	0.001098
2.935000E-8	0.000714
2.940000E-8	0.000359
2.945000E-8	0.000120
2.950000E-8	-7.187500E-5
2.955000E-8	-0.000200
2.960000E-8	-0.000191
2.965000E-8	-8.906250E-5
2.970000E-8	0.000153
2.975000E-8	0.000537
2.980000E-8	0.000853
2.985000E-8	0.001309
2.990000E-8	0.001739
2.995000E-8	0.002200
3.000000E-8	0.002442
3.005000E-8	0.002700
3.010000E-8	0.002870
3.015000E-8	0.002906
3.020000E-8	0.002756
3.025000E-8	0.002658
3.030000E-8	0.002356
3.035000E-8	0.002056
3.040000E-8	0.001700
3.045000E-8	0.001328
3.050000E-8	0.001006
3.055000E-8	0.000808
3.060000E-8	0.000523
3.065000E-8	0.000373
3.070000E-8	0.000295
3.075000E-8	0.000195
3.080000E-8	0.000277
3.085000E-8	0.000306
3.090000E-8	0.000430
3.095000E-8	0.000583
3.100000E-8	0.000877
3.105000E-8	0.001163
3.110000E-8	0.001480
3.115000E-8	0.001827
3.120000E-8	0.002098
3.125000E-8	0.002388
3.130000E-8	0.002558
3.135000E-8	0.002672
3.140000E-8	0.002684
3.145000E-8	0.002658
3.150000E-8	0.002517
3.155000E-8	0.002298
3.160000E-8	0.002039
3.165000E-8	0.001803
3.170000E-8	0.001494
3.175000E-8	0.001270
3.180000E-8	0.001022
3.185000E-8	0.000856
3.190000E-8	0.000622
3.195000E-8	0.000455
3.200000E-8	0.000353
3.205000E-8	0.000300
3.210000E-8	0.000319
3.215000E-8	0.000287
3.220000E-8	0.000441
3.225000E-8	0.000711
3.230000E-8	0.001006
3.235000E-8	0.001409
3.240000E-8	0.001720
3.245000E-8	0.002056
3.250000E-8	0.002361
3.255000E-8	0.002648
3.260000E-8	0.002722
3.265000E-8	0.002780
3.270000E-8	0.002719
3.275000E-8	0.002609
3.280000E-8	0.002384
3.285000E-8	0.002084
3.290000E-8	0.001772
3.295000E-8	0.001502
3.300000E-8	0.001161
3.305000E-8	0.000794
3.310000E-8	0.000489
3.315000E-8	0.000300
3.320000E-8	0.000156
3.325000E-8	0.000195
3.330000E-8	0.000133
3.335000E-8	0.000258
3.340000E-8	0.000395
3.345000E-8	0.000639
3.350000E-8	0.000891
3.355000E-8	0.001284
3.360000E-8	0.001563
3.365000E-8	0.001848
3.370000E-8	0.002080
3.375000E-8	0.002342
3.380000E-8	0.002528
3.385000E-8	0.002659
3.390000E-8	0.002725
3.395000E-8	0.002711
3.400000E-8	0.002569
3.405000E-8	0.002430
3.410000E-8	0.002155
3.415000E-8	0.001802
3.420000E-8	0.001498
3.425000E-8	0.001214
3.430000E-8	0.000881
3.435000E-8	0.000588
3.440000E-8	0.000350
3.445000E-8	0.000205
3.450000E-8	0.000125
3.455000E-8	7.812500E-5
3.460000E-8	8.437500E-5
3.465000E-8	0.000233
3.470000E-8	0.000441
3.475000E-8	0.000597
3.480000E-8	0.000844
3.485000E-8	0.001153
3.490000E-8	0.001423
3.495000E-8	0.001708
3.500000E-8	0.001947
3.505000E-8	0.002253
3.510000E-8	0.002344
3.515000E-8	0.002428
3.520000E-8	0.002439
3.525000E-8	0.002386
3.530000E-8	0.002261
3.535000E-8	0.002108
3.540000E-8	0.001863
3.545000E-8	0.001539
3.550000E-8	0.001252
3.555000E-8	0.001019
3.560000E-8	0.000714
3.565000E-8	0.000563
3.570000E-8	0.000400
3.575000E-8	0.000373
3.580000E-8	0.000436
3.585000E-8	0.000506
3.590000E-8	0.000542
3.595000E-8	0.000775
3.600000E-8	0.000967
3.605000E-8	0.001213
3.610000E-8	0.001391
3.615000E-8	0.001644
3.620000E-8	0.001848
3.625000E-8	0.002103
3.630000E-8	0.002144
3.635000E-8	0.002237
3.640000E-8	0.002305
3.645000E-8	0.002344
3.650000E-8	0.002275
3.655000E-8	0.002175
3.660000E-8	0.002087
3.665000E-8	0.001898
3.670000E-8	0.001792
3.675000E-8	0.001581
3.680000E-8	0.001269
3.685000E-8	0.001042
3.690000E-8	0.000794
3.695000E-8	0.000619
3.700000E-8	0.000439
3.705000E-8	0.000333
3.710000E-8	0.000317
3.715000E-8	0.000378
3.720000E-8	0.000480
3.725000E-8	0.000683
3.730000E-8	0.000886
3.735000E-8	0.001152
3.740000E-8	0.001480
3.745000E-8	0.001753
3.750000E-8	0.001953
3.755000E-8	0.002216
3.760000E-8	0.002341
3.765000E-8	0.002475
3.770000E-8	0.002503
3.775000E-8	0.002503
3.780000E-8	0.002348
3.785000E-8	0.002255
3.790000E-8	0.002045
3.795000E-8	0.001792
3.800000E-8	0.001477
3.805000E-8	0.001228
3.810000E-8	0.000928
3.815000E-8	0.000666
3.820000E-8	0.000442
3.825000E-8	0.000377
3.830000E-8	0.000298
3.835000E-8	0.000325
3.840000E-8	0.000347
3.845000E-8	0.000470
3.850000E-8	0.000663
3.855000E-8	0.000902
3.860000E-8	0.001144
3.865000E-8	0.001375
3.870000E-8	0.001687
3.875000E-8	0.001908
3.880000E-8	0.002147
3.885000E-8	0.002367
3.890000E-8	0.002459
3.895000E-8	0.002519
3.900000E-8	0.002442
3.905000E-8	0.002289
3.910000E-8	0.002092
3.915000E-8	0.001850
3.920000E-8	0.001494
3.925000E-8	0.001186
3.930000E-8	0.000898
3.935000E-8	0.000683
3.940000E-8	0.000409
3.945000E-8	0.000237
3.950000E-8	0.000159
3.955000E-8	0.000158
3.960000E-8	0.000170
3.965000E-8	0.000319
3.970000E-8	0.000466
3.975000E-8	0.000686
3.980000E-8	0.000938
3.985000E-8	0.001253
3.990000E-8	0.001559
3.995000E-8	0.001831
4.000000E-8	0.002117
4.005000E-8	0.002366
4.010000E-8	0.002447
4.015000E-8	0.002561
4.020000E-8	0.002611
4.025000E-8	0.002641
4.030000E-8	0.002464
4.035000E-8	0.002336
4.040000E-8	0.002242
4.045000E-8	0.002017
4.050000E-8	0.001752
4.055000E-8	0.001586
4.060000E-8	0.001241
4.065000E-8	0.001005
4.070000E-8	0.000763
4.075000E-8	0.000627
4.080000E-8	0.000478
4.085000E-8	0.000444
4.090000E-8	0.000425
4.095000E-8	0.000534
4.100000E-8	0.000611
4.105000E-8	0.000813
4.110000E-8	0.001030
4.115000E-8	0.001317
4.120000E-8	0.001577
4.125000E-8	0.001889
4.130000E-8	0.002139
4.135000E-8	0.002342
4.140000E-8	0.002383
4.145000E-8	0.002484
4.150000E-8	0.002467
4.155000E-8	0.002383
4.160000E-8	0.002228
4.165000E-8	0.002053
4.170000E-8	0.001814
4.175000E-8	0.001627
4.180000E-8	0.001350
4.185000E-8	0.001170
4.190000E-8	0.000953
4.195000E-8	0.000795
4.200000E-8	0.000680
4.205000E-8	0.000539
4.210000E-8	0.000537
4.215000E-8	0.000602
4.220000E-8	0.000655
4.225000E-8	0.000814
4.230000E-8	0.000980
4.235000E-8	0.001200
4.240000E-8	0.001463
4.245000E-8	0.001680
4.250000E-8	0.001827
4.255000E-8	0.002019
4.260000E-8	0.002186
4.265000E-8	0.002244
4.270000E-8	0.002173
4.275000E-8	0.002172
4.280000E-8	0.002066
4.285000E-8	0.001919
4.290000E-8	0.001709
4.295000E-8	0.001502
4.300000E-8	0.001244
4.305000E-8	0.001061
4.310000E-8	0.000838
4.315000E-8	0.000661
4.320000E-8	0.000498
4.325000E-8	0.000352
4.330000E-8	0.000294
4.335000E-8	0.000352
4.340000E-8	0.000412
4.345000E-8	0.000584
4.350000E-8	0.000720
4.355000E-8	0.000998
4.360000E-8	0.001244
4.365000E-8	0.001542
4.370000E-8	0.001747
4.375000E-8	0.001964
4.380000E-8	0.002166
4.385000E-8	0.002284
4.390000E-8	0.002361
4.395000E-8	0.002414
4.400000E-8	0.002341
4.405000E-8	0.002348
4.410000E-8	0.002211
4.415000E-8	0.002064
4.420000E-8	0.001809
4.425000E-8	0.001638
4.430000E-8	0.001388
4.435000E-8	0.001187
4.440000E-8	0.000986
4.445000E-8	0.000895
4.450000E-8	0.000792
4.455000E-8	0.000789
4.460000E-8	0.000867
4.465000E-8	0.000969
4.470000E-8	0.001084
4.475000E-8	0.001264
4.480000E-8	0.001409
4.485000E-8	0.001495
4.490000E-8	0.001638
4.495000E-8	0.001792
4.500000E-8	0.001870
4.505000E-8	0.002011
4.510000E-8	0.001995
4.515000E-8	0.002034
4.520000E-8	0.002059
4.525000E-8	0.002083
4.530000E-8	0.002041
4.535000E-8	0.002014
4.540000E-8	0.001930
4.545000E-8	0.001864
4.550000E-8	0.001700
4.555000E-8	0.001545
4.560000E-8	0.001320
4.565000E-8	0.001144
4.570000E-8	0.000977
4.575000E-8	0.000906
4.580000E-8	0.000770
4.585000E-8	0.000714
4.590000E-8	0.000716
4.595000E-8	0.000811
4.600000E-8	0.000913
4.605000E-8	0.001091
4.610000E-8	0.001303
4.615000E-8	0.001527
4.620000E-8	0.001659
4.625000E-8	0.001894
4.630000E-8	0.002073
4.635000E-8	0.002256
4.640000E-8	0.002317
4.645000E-8	0.002413
4.650000E-8	0.002295
4.655000E-8	0.002297
4.660000E-8	0.002114
4.665000E-8	0.001937
4.670000E-8	0.001719
4.675000E-8	0.001484
4.680000E-8	0.001244
4.685000E-8	0.001006
4.690000E-8	0.000870
4.695000E-8	0.000748
4.700000E-8	0.000702
4.705000E-8	0.000659
4.710000E-8	0.000697
4.715000E-8	0.000817
4.720000E-8	0.000980
4.725000E-8	0.001145
4.730000E-8	0.001352
4.735000E-8	0.001528
4.740000E-8	0.001656
4.745000E-8	0.001831
4.750000E-8	0.001933
4.755000E-8	0.002083
4.760000E-8	0.002100
4.765000E-8	0.002086
4.770000E-8	0.002045
4.775000E-8	0.002017
4.780000E-8	0.001880
4.785000E-8	0.001808
4.790000E-8	0.001692
4.795000E-8	0.001612
4.800000E-8	0.001389
4.805000E-8	0.001291
4.810000E-8	0.001078
4.815000E-8	0.000994
4.820000E-8	0.000850
4.825000E-8	0.000803
4.830000E-8	0.000813
4.835000E-8	0.000836
4.840000E-8	0.000855
4.845000E-8	0.000948
4.850000E-8	0.001125
4.855000E-8	0.001358
4.860000E-8	0.001486
4.865000E-8	0.001653
4.870000E-8	0.001833
4.875000E-8	0.002045
4.880000E-8	0.002175
4.885000E-8	0.002297
4.890000E-8	0.002352
4.895000E-8	0.002339
4.900000E-8	0.002348
4.905000E-8	0.002203
4.910000E-8	0.002022
4.915000E-8	0.001881
4.920000E-8	0.001713
4.925000E-8	0.001470
4.930000E-8	0.001247
4.935000E-8	0.001081
4.940000E-8	0.000886
4.945000E-8	0.000758
4.950000E-8	0.000655
4.955000E-8	0.000641
4.960000E-8	0.000564
4.965000E-8	0.000516
4.970000E-8	0.000563
4.975000E-8	0.000717
4.980000E-8	0.000838
4.985000E-8	0.001044
4.990000E-8	0.001253
4.995000E-8	0.001475
5.000000E-8	0.001634
5.005000E-8	0.001856
5.010000E-8	0.001967
5.015000E-8	0.002153
5.020000E-8	0.002161
5.025000E-8	0.002148
5.030000E-8	0.002119
5.035000E-8	0.001994
5.040000E-8	0.001875
5.045000E-8	0.001695
5.050000E-8	0.001459
5.055000E-8	0.001298
5.060000E-8	0.001050
5.065000E-8	0.000880
5.070000E-8	0.000797
5.075000E-8	0.000702
5.080000E-8	0.000691
5.085000E-8	0.000720
5.090000E-8	0.000781
5.095000E-8	0.000869
5.100000E-8	0.000989
5.105000E-8	0.001161
5.110000E-8	0.001350
5.115000E-8	0.001517
5.120000E-8	0.001633
5.125000E-8	0.001806
5.130000E-8	0.001977
5.135000E-8	0.002063
5.140000E-8	0.002162
5.145000E-8	0.002148
5.150000E-8	0.002162
5.155000E-8	0.002106
5.160000E-8	0.001988
5.165000E-8	0.001872
5.170000E-8	0.001656
5.175000E-8	0.001567
5.180000E-8	0.001350
5.185000E-8	0.001217
5.190000E-8	0.001019
5.195000E-8	0.000834
5.200000E-8	0.000761
5.205000E-8	0.000664
5.210000E-8	0.000567
5.215000E-8	0.000669
5.220000E-8	0.000638
5.225000E-8	0.000784
5.230000E-8	0.000931
5.235000E-8	0.001161
5.240000E-8	0.001330
5.245000E-8	0.001541
5.250000E-8	0.001722
5.255000E-8	0.001852
5.260000E-8	0.001981
5.265000E-8	0.002098
5.270000E-8	0.002144
5.275000E-8	0.002194
5.280000E-8	0.002116
5.285000E-8	0.002103
5.290000E-8	0.001977
5.295000E-8	0.001895
5.300000E-8	0.001713
5.305000E-8	0.001603
5.310000E-8	0.001388
5.315000E-8	0.001244
5.320000E-8	0.001127
5.325000E-8	0.000953
5.330000E-8	0.000914
5.335000E-8	0.000831
5.340000E-8	0.000703
5.345000E-8	0.000813
5.350000E-8	0.000791
5.355000E-8	0.000891
5.360000E-8	0.000966
5.365000E-8	0.001145
5.370000E-8	0.001292
5.375000E-8	0.001434
5.380000E-8	0.001616
5.385000E-8	0.001814
5.390000E-8	0.001939
5.395000E-8	0.002045
5.400000E-8	0.002030
5.405000E-8	0.002102
5.410000E-8	0.002036
5.415000E-8	0.002036
5.420000E-8	0.001902
5.425000E-8	0.001738
5.430000E-8	0.001591
5.435000E-8	0.001372
5.440000E-8	0.001183
5.445000E-8	0.001002
5.450000E-8	0.000833
5.455000E-8	0.000716
5.460000E-8	0.000656
5.465000E-8	0.000641
5.470000E-8	0.000702
5.475000E-8	0.000770
5.480000E-8	0.000884
5.485000E-8	0.001080
5.490000E-8	0.001288
5.495000E-8	0.001534
5.500000E-8	0.001705
5.505000E-8	0.001897
5.510000E-8	0.001952
5.515000E-8	0.001977
5.520000E-8	0.001933
5.525000E-8	0.001911
5.530000E-8	0.001820
5.535000E-8	0.001852
5.540000E-8	0.001738
5.545000E-8	0.001677
5.550000E-8	0.001658
5.555000E-8	0.001600
5.560000E-8	0.001463
5.565000E-8	0.001386
5.570000E-8	0.001308
5.575000E-8	0.001172
5.580000E-8	0.001014
5.585000E-8	0.000845
5.590000E-8	0.000713
5.595000E-8	0.000634
5.600000E-8	0.000584
5.605000E-8	0.000578
5.610000E-8	0.000678
5.615000E-8	0.000842
5.620000E-8	0.001014
5.625000E-8	0.001200
5.630000E-8	0.001386
5.635000E-8	0.001634
5.640000E-8	0.001778
5.645000E-8	0.001934
5.650000E-8	0.002031
5.655000E-8	0.002102
5.660000E-8	0.002103
5.665000E-8	0.002056
5.670000E-8	0.001998
5.675000E-8	0.001892
5.680000E-8	0.001666
5.685000E-8	0.001530
5.690000E-8	0.001294
5.695000E-8	0.001106
5.700000E-8	0.000886
5.705000E-8	0.000788
5.710000E-8	0.000664
5.715000E-8	0.000602
5.720000E-8	0.000600
5.725000E-8	0.000744
5.730000E-8	0.000880
5.735000E-8	0.001027
5.740000E-8	0.001236
5.745000E-8	0.001458
5.750000E-8	0.001658
5.755000E-8	0.001864
5.760000E-8	0.001948
5.765000E-8	0.002067
5.770000E-8	0.002078
5.775000E-8	0.002097
5.780000E-8	0.002083
5.785000E-8	0.002002
5.790000E-8	0.001950
5.795000E-8	0.001753
5.800000E-8	0.001600
5.805000E-8	0.001444
5.810000E-8	0.001333
5.815000E-8	0.001245
5.820000E-8	0.001112
5.825000E-8	0.001084
5.830000E-8	0.000934
5.835000E-8	0.000953
5.840000E-8	0.000902
5.845000E-8	0.000975
5.850000E-8	0.001027
5.855000E-8	0.001194
5.860000E-8	0.001352
5.865000E-8	0.001448
5.870000E-8	0.001564
5.875000E-8	0.001788
5.880000E-8	0.001961
5.885000E-8	0.002109
5.890000E-8	0.002142
5.895000E-8	0.002225
5.900000E-8	0.002159
5.905000E-8	0.002180
5.910000E-8	0.002034
5.915000E-8	0.001930
5.920000E-8	0.001783
5.925000E-8	0.001673
5.930000E-8	0.001569
5.935000E-8	0.001402
5.940000E-8	0.001241
5.945000E-8	0.001214
5.950000E-8	0.001080
5.955000E-8	0.001052
5.960000E-8	0.000981
5.965000E-8	0.001081
5.970000E-8	0.001095
5.975000E-8	0.001180
5.980000E-8	0.001295
5.985000E-8	0.001381
5.990000E-8	0.001539
5.995000E-8	0.001633
6.000000E-8	0.001777
6.005000E-8	0.001925
6.010000E-8	0.002028
6.015000E-8	0.002128
6.020000E-8	0.002198
6.025000E-8	0.002248
6.030000E-8	0.002228
6.035000E-8	0.002219
6.040000E-8	0.002178
6.045000E-8	0.002198
6.050000E-8	0.002084
6.055000E-8	0.001978
6.060000E-8	0.001853
6.065000E-8	0.001805
6.070000E-8	0.001611
6.075000E-8	0.001475
6.080000E-8	0.001366
6.085000E-8	0.001281
6.090000E-8	0.001244
6.095000E-8	0.001325
6.100000E-8	0.001292
6.105000E-8	0.001348
6.110000E-8	0.001470
6.115000E-8	0.001548
6.120000E-8	0.001686
6.125000E-8	0.001783
6.130000E-8	0.001839
6.135000E-8	0.001939
6.140000E-8	0.001969
6.145000E-8	0.002000
6.150000E-8	0.001998
6.155000E-8	0.001916
6.160000E-8	0.001783
6.165000E-8	0.001741
6.170000E-8	0.001583
6.175000E-8	0.001417
6.180000E-8	0.001281
6.185000E-8	0.001186
6.190000E-8	0.001047
6.195000E-8	0.001003
6.200000E-8	0.000880
6.205000E-8	0.000856
6.210000E-8	0.000794
6.215000E-8	0.000834
6.220000E-8	0.000833
6.225000E-8	0.000881
6.230000E-8	0.000920
6.235000E-8	0.001048
6.240000E-8	0.001197
6.245000E-8	0.001309
6.250000E-8	0.001469
6.255000E-8	0.001667
6.260000E-8	0.001734
6.265000E-8	0.001880
6.270000E-8	0.001894
6.275000E-8	0.001947
6.280000E-8	0.001978
6.285000E-8	0.001913
6.290000E-8	0.001844
6.295000E-8	0.001758
6.300000E-8	0.001663
6.305000E-8	0.001528
6.310000E-8	0.001403
6.315000E-8	0.001306
6.320000E-8	0.001228
6.325000E-8	0.001228
6.330000E-8	0.001214
6.335000E-8	0.001227
6.340000E-8	0.001258
6.345000E-8	0.001311
6.350000E-8	0.001330
6.355000E-8	0.001331
6.360000E-8	0.001369
6.365000E-8	0.001389
6.370000E-8	0.001420
6.375000E-8	0.001545
6.380000E-8	0.001578
6.385000E-8	0.001748
6.390000E-8	0.001766
6.395000E-8	0.001905
6.400000E-8	0.001831
6.405000E-8	0.001905
6.410000E-8	0.001873
6.415000E-8	0.001803
6.420000E-8	0.001695
6.425000E-8	0.001573
6.430000E-8	0.001452
6.435000E-8	0.001302
6.440000E-8	0.001214
6.445000E-8	0.001130
6.450000E-8	0.001077
6.455000E-8	0.001098
6.460000E-8	0.001053
6.465000E-8	0.001092
6.470000E-8	0.001152
6.475000E-8	0.001183
6.480000E-8	0.001292
6.485000E-8	0.001380
6.490000E-8	0.001416
6.495000E-8	0.001497
6.500000E-8	0.001631
6.505000E-8	0.001719
6.510000E-8	0.001777
6.515000E-8	0.001906
6.520000E-8	0.001883
6.525000E-8	0.002028
6.530000E-8	0.001986
6.535000E-8	0.001977
6.540000E-8	0.001931
6.545000E-8	0.001895
6.550000E-8	0.001848
6.555000E-8	0.001694
6.560000E-8	0.001619
6.565000E-8	0.001472
6.570000E-8	0.001352
6.575000E-8	0.001244
6.580000E-8	0.001144
6.585000E-8	0.001105
6.590000E-8	0.001002
6.595000E-8	0.001034
6.600000E-8	0.001031
6.605000E-8	0.001017
6.610000E-8	0.001083
6.615000E-8	0.001092
6.620000E-8	0.001139
6.625000E-8	0.001281
6.630000E-8	0.001400
6.635000E-8	0.001602
6.640000E-8	0.001644
6.645000E-8	0.001747
6.650000E-8	0.001834
6.655000E-8	0.001944
6.660000E-8	0.001953
6.665000E-8	0.001906
6.670000E-8	0.001863
6.675000E-8	0.001725
6.680000E-8	0.001595
6.685000E-8	0.001466
6.690000E-8	0.001250
6.695000E-8	0.001134
6.700000E-8	0.000991
6.705000E-8	0.000944
6.710000E-8	0.000873
6.715000E-8	0.000919
6.720000E-8	0.001030
6.725000E-8	0.001125
6.730000E-8	0.001214
6.735000E-8	0.001386
6.740000E-8	0.001434
6.745000E-8	0.001505
6.750000E-8	0.001563
6.755000E-8	0.001636
6.760000E-8	0.001669
6.765000E-8	0.001711
6.770000E-8	0.001731
6.775000E-8	0.001825
6.780000E-8	0.001833
6.785000E-8	0.001838
6.790000E-8	0.001831
6.795000E-8	0.001780
6.800000E-8	0.001723
6.805000E-8	0.001681
6.810000E-8	0.001492
6.815000E-8	0.001319
6.820000E-8	0.001245
6.825000E-8	0.001058
6.830000E-8	0.000961
6.835000E-8	0.000934
6.840000E-8	0.000884
6.845000E-8	0.000867
6.850000E-8	0.000889
6.855000E-8	0.000966
6.860000E-8	0.000998
6.865000E-8	0.001117
6.870000E-8	0.001214
6.875000E-8	0.001386
6.880000E-8	0.001514
6.885000E-8	0.001689
6.890000E-8	0.001834
6.895000E-8	0.002044
6.900000E-8	0.002056
6.905000E-8	0.002077
6.910000E-8	0.002044
6.915000E-8	0.001991
6.920000E-8	0.001739
6.925000E-8	0.001670
6.930000E-8	0.001525
6.935000E-8	0.001364
6.940000E-8	0.001220
6.945000E-8	0.001063
6.950000E-8	0.000956
6.955000E-8	0.001000
6.960000E-8	0.001014
6.965000E-8	0.001088
6.970000E-8	0.001050
6.975000E-8	0.001205
6.980000E-8	0.001319
6.985000E-8	0.001463
6.990000E-8	0.001530
6.995000E-8	0.001681
7.000000E-8	0.001772
7.005000E-8	0.001852
7.010000E-8	0.001941
7.015000E-8	0.002063
7.020000E-8	0.002155
7.025000E-8	0.002116
7.030000E-8	0.002094
7.035000E-8	0.002053
7.040000E-8	0.001997
7.045000E-8	0.001911
7.050000E-8	0.001795
7.055000E-8	0.001684
7.060000E-8	0.001605
7.065000E-8	0.001520
7.070000E-8	0.001414
7.075000E-8	0.001392
7.080000E-8	0.001313
7.085000E-8	0.001255
7.090000E-8	0.001308
7.095000E-8	0.001275
7.100000E-8	0.001255
7.105000E-8	0.001284
7.110000E-8	0.001291
7.115000E-8	0.001520
7.120000E-8	0.001644
7.125000E-8	0.001738
7.130000E-8	0.001844
7.135000E-8	0.002031
7.140000E-8	0.002145
7.145000E-8	0.002153
7.150000E-8	0.002216
7.155000E-8	0.002245
7.160000E-8	0.002175
7.165000E-8	0.002166
7.170000E-8	0.002102
7.175000E-8	0.002023
7.180000E-8	0.001917
7.185000E-8	0.001777
7.190000E-8	0.001605
7.195000E-8	0.001494
7.200000E-8	0.001367
7.205000E-8	0.001314
7.210000E-8	0.001192
7.215000E-8	0.001081
7.220000E-8	0.001056
7.225000E-8	0.001094
7.230000E-8	0.001142
7.235000E-8	0.001236
7.240000E-8	0.001308
7.245000E-8	0.001434
7.250000E-8	0.001558
7.255000E-8	0.001650
7.260000E-8	0.001753
7.265000E-8	0.001738
7.270000E-8	0.001777
7.275000E-8	0.001769
7.280000E-8	0.001659
7.285000E-8	0.001686
7.290000E-8	0.001594
7.295000E-8	0.001600
7.300000E-8	0.001572
7.305000E-8	0.001456
7.310000E-8	0.001437
7.315000E-8	0.001370
7.320000E-8	0.001230
7.325000E-8	0.001202
7.330000E-8	0.001147
7.335000E-8	0.001066
7.340000E-8	0.001034
7.345000E-8	0.001061
7.350000E-8	0.001116
7.355000E-8	0.001147
7.360000E-8	0.001239
7.365000E-8	0.001356
7.370000E-8	0.001388
7.375000E-8	0.001548
7.380000E-8	0.001572
7.385000E-8	0.001709
7.390000E-8	0.001750
7.395000E-8	0.001800
7.400000E-8	0.001795
7.405000E-8	0.001797
7.410000E-8	0.001786
7.415000E-8	0.001766
7.420000E-8	0.001705
7.425000E-8	0.001619
7.430000E-8	0.001558
7.435000E-8	0.001463
7.440000E-8	0.001423
7.445000E-8	0.001364
7.450000E-8	0.001245
7.455000E-8	0.001208
7.460000E-8	0.001128
7.465000E-8	0.001066
7.470000E-8	0.001036
7.475000E-8	0.001014
7.480000E-8	0.001050
7.485000E-8	0.001145
7.490000E-8	0.001267
7.495000E-8	0.001437
7.500000E-8	0.001578
7.505000E-8	0.001747
7.510000E-8	0.001878
7.515000E-8	0.001992
7.520000E-8	0.002038
7.525000E-8	0.002106
7.530000E-8	0.002130
7.535000E-8	0.002045
7.540000E-8	0.001969
7.545000E-8	0.001891
7.550000E-8	0.001761
7.555000E-8	0.001700
7.560000E-8	0.001600
7.565000E-8	0.001453
7.570000E-8	0.001414
7.575000E-8	0.001336
7.580000E-8	0.001266
7.585000E-8	0.001245
7.590000E-8	0.001200
7.595000E-8	0.001191
7.600000E-8	0.001122
7.605000E-8	0.001072
7.610000E-8	0.001088
7.615000E-8	0.001197
7.620000E-8	0.001236
7.625000E-8	0.001367
7.630000E-8	0.001414
7.635000E-8	0.001489
7.640000E-8	0.001552
7.645000E-8	0.001628
7.650000E-8	0.001669
7.655000E-8	0.001738
7.660000E-8	0.001698
7.665000E-8	0.001689
7.670000E-8	0.001588
7.675000E-8	0.001534
7.680000E-8	0.001437
7.685000E-8	0.001333
7.690000E-8	0.001200
7.695000E-8	0.001155
7.700000E-8	0.001048
7.705000E-8	0.000995
7.710000E-8	0.000900
7.715000E-8	0.000922
7.720000E-8	0.000880
7.725000E-8	0.000900
7.730000E-8	0.000966
7.735000E-8	0.001008
7.740000E-8	0.001086
7.745000E-8	0.001266
7.750000E-8	0.001384
7.755000E-8	0.001453
7.760000E-8	0.001583
7.765000E-8	0.001691
7.770000E-8	0.001733
7.775000E-8	0.001744
7.780000E-8	0.001680
7.785000E-8	0.001755
7.790000E-8	0.001681
7.795000E-8	0.001653
7.800000E-8	0.001555
7.805000E-8	0.001497
7.810000E-8	0.001492
7.815000E-8	0.001439
7.820000E-8	0.001333
7.825000E-8	0.001330
7.830000E-8	0.001230
7.835000E-8	0.001213
7.840000E-8	0.001112
7.845000E-8	0.001148
7.850000E-8	0.001111
7.855000E-8	0.001153
7.860000E-8	0.001189
7.865000E-8	0.001259
7.870000E-8	0.001288
7.875000E-8	0.001369
7.880000E-8	0.001425
7.885000E-8	0.001520
7.890000E-8	0.001497
7.895000E-8	0.001561
7.900000E-8	0.001581
7.905000E-8	0.001588
7.910000E-8	0.001480
7.915000E-8	0.001383
7.920000E-8	0.001314
7.925000E-8	0.001264
7.930000E-8	0.001192
7.935000E-8	0.001192
7.940000E-8	0.001156
7.945000E-8	0.001180
7.950000E-8	0.001161
7.955000E-8	0.001155
7.960000E-8	0.001063
7.965000E-8	0.001128
7.970000E-8	0.001148
7.975000E-8	0.001217
7.980000E-8	0.001186
7.985000E-8	0.001294
7.990000E-8	0.001280
7.995000E-8	0.001372
8.000000E-8	0.001380
8.005000E-8	0.001445
8.010000E-8	0.001459
8.015000E-8	0.001420
8.020000E-8	0.001373
8.025000E-8	0.001394
8.030000E-8	0.001414
8.035000E-8	0.001355
8.040000E-8	0.001448
8.045000E-8	0.001433
8.050000E-8	0.001380
8.055000E-8	0.001497
8.060000E-8	0.001416
8.065000E-8	0.001431
8.070000E-8	0.001422
8.075000E-8	0.001355
8.080000E-8	0.001341
8.085000E-8	0.001353
8.090000E-8	0.001322
8.095000E-8	0.001234
8.100000E-8	0.001230
8.105000E-8	0.001230
8.110000E-8	0.001223
8.115000E-8	0.001228
8.120000E-8	0.001231
8.125000E-8	0.001309
8.130000E-8	0.001359
8.135000E-8	0.001384
8.140000E-8	0.001498
8.145000E-8	0.001480
8.150000E-8	0.001559
8.155000E-8	0.001636
8.160000E-8	0.001750
8.165000E-8	0.001683
8.170000E-8	0.001642
8.175000E-8	0.001583
8.180000E-8	0.001536
8.185000E-8	0.001383
8.190000E-8	0.001309
8.195000E-8	0.001203
8.200000E-8	0.001153
8.205000E-8	0.001109
8.210000E-8	0.001014
8.215000E-8	0.001038
8.220000E-8	0.000983
8.225000E-8	0.001063
8.230000E-8	0.001081
8.235000E-8	0.001119
8.240000E-8	0.001148
8.245000E-8	0.001200
8.250000E-8	0.001220
8.255000E-8	0.001275
8.260000E-8	0.001245
8.265000E-8	0.001308
8.270000E-8	0.001306
8.275000E-8	0.001323
8.280000E-8	0.001311
8.285000E-8	0.001367
8.290000E-8	0.001370
8.295000E-8	0.001384
8.300000E-8	0.001406
8.305000E-8	0.001359
8.310000E-8	0.001377
8.315000E-8	0.001408
8.320000E-8	0.001358
8.325000E-8	0.001356
8.330000E-8	0.001320
8.335000E-8	0.001381
8.340000E-8	0.001328
8.345000E-8	0.001380
8.350000E-8	0.001394
8.355000E-8	0.001409
8.360000E-8	0.001433
8.365000E-8	0.001444
8.370000E-8	0.001439
8.375000E-8	0.001473
8.380000E-8	0.001486
8.385000E-8	0.001502
8.390000E-8	0.001477
8.395000E-8	0.001517
8.400000E-8	0.001530
8.405000E-8	0.001559
8.410000E-8	0.001630
8.415000E-8	0.001692
8.420000E-8	0.001683
8.425000E-8	0.001741
8.430000E-8	0.001706
8.435000E-8	0.001681
8.440000E-8	0.001622
8.445000E-8	0.001603
8.450000E-8	0.001500
8.455000E-8	0.001383
8.460000E-8	0.001334
8.465000E-8	0.001288
8.470000E-8	0.001209
8.475000E-8	0.001211
8.480000E-8	0.001138
8.485000E-8	0.001167
8.490000E-8	0.001138
8.495000E-8	0.001247
8.500000E-8	0.001320
8.505000E-8	0.001361
8.510000E-8	0.001459
8.515000E-8	0.001563
8.520000E-8	0.001631
8.525000E-8	0.001714
8.530000E-8	0.001739
8.535000E-8	0.001745
8.540000E-8	0.001703
8.545000E-8	0.001612
8.550000E-8	0.001522
8.555000E-8	0.001461
8.560000E-8	0.001339
8.565000E-8	0.001305
8.570000E-8	0.001153
8.575000E-8	0.001122
8.580000E-8	0.001028
8.585000E-8	0.001053
8.590000E-8	0.001030
8.595000E-8	0.001039
8.600000E-8	0.001058
8.605000E-8	0.001108
8.610000E-8	0.001144
8.615000E-8	0.001177
8.620000E-8	0.001191
8.625000E-8	0.001248
8.630000E-8	0.001291
8.635000E-8	0.001373
8.640000E-8	0.001484
8.645000E-8	0.001519
8.650000E-8	0.001620
8.655000E-8	0.001720
8.660000E-8	0.001728
8.665000E-8	0.001780
8.670000E-8	0.001852
8.675000E-8	0.001817
8.680000E-8	0.001766
8.685000E-8	0.001672
8.690000E-8	0.001580
8.695000E-8	0.001455
8.700000E-8	0.001434
8.705000E-8	0.001302
8.710000E-8	0.001097
8.715000E-8	0.000970
8.720000E-8	0.000842
8.725000E-8	0.000783
8.730000E-8	0.000798
8.735000E-8	0.000811
8.740000E-8	0.000973
8.745000E-8	0.001080
8.750000E-8	0.001198
8.755000E-8	0.001397
8.760000E-8	0.001497
8.765000E-8	0.001603
8.770000E-8	0.001742
8.775000E-8	0.001798
8.780000E-8	0.001809
8.785000E-8	0.001802
8.790000E-8	0.001763
8.795000E-8	0.001731
8.800000E-8	0.001631
8.805000E-8	0.001539
8.810000E-8	0.001544
8.815000E-8	0.001445
8.820000E-8	0.001366
8.825000E-8	0.001306
8.830000E-8	0.001297
8.835000E-8	0.001306
8.840000E-8	0.001244
8.845000E-8	0.001183
8.850000E-8	0.001203
8.855000E-8	0.001231
8.860000E-8	0.001222
8.865000E-8	0.001263
8.870000E-8	0.001311
8.875000E-8	0.001375
8.880000E-8	0.001416
8.885000E-8	0.001467
8.890000E-8	0.001442
8.895000E-8	0.001544
8.900000E-8	0.001513
8.905000E-8	0.001575
8.910000E-8	0.001556
8.915000E-8	0.001600
8.920000E-8	0.001611
8.925000E-8	0.001558
8.930000E-8	0.001514
8.935000E-8	0.001530
8.940000E-8	0.001450
8.945000E-8	0.001411
8.950000E-8	0.001328
8.955000E-8	0.001261
8.960000E-8	0.001169
8.965000E-8	0.001169
8.970000E-8	0.001106
8.975000E-8	0.001083
8.980000E-8	0.001069
8.985000E-8	0.001131
8.990000E-8	0.001061
8.995000E-8	0.001208
9.000000E-8	0.001248
9.005000E-8	0.001280
9.010000E-8	0.001358
9.015000E-8	0.001469
9.020000E-8	0.001569
9.025000E-8	0.001653
9.030000E-8	0.001638
9.035000E-8	0.001733
9.040000E-8	0.001703
9.045000E-8	0.001781
9.050000E-8	0.001761
9.055000E-8	0.001781
9.060000E-8	0.001697
9.065000E-8	0.001644
9.070000E-8	0.001519
9.075000E-8	0.001458
9.080000E-8	0.001350
9.085000E-8	0.001402
9.090000E-8	0.001381
9.095000E-8	0.001297
9.100000E-8	0.001328
9.105000E-8	0.001367
9.110000E-8	0.001383
9.115000E-8	0.001383
9.120000E-8	0.001358
9.125000E-8	0.001448
9.130000E-8	0.001445
9.135000E-8	0.001500
9.140000E-8	0.001534
9.145000E-8	0.001531
9.150000E-8	0.001505
9.155000E-8	0.001505
9.160000E-8	0.001536
9.165000E-8	0.001494
9.170000E-8	0.001516
9.175000E-8	0.001517
9.180000E-8	0.001503
9.185000E-8	0.001497
9.190000E-8	0.001416
9.195000E-8	0.001406
9.200000E-8	0.001339
9.205000E-8	0.001364
9.210000E-8	0.001359
9.215000E-8	0.001241
9.220000E-8	0.001187
9.225000E-8	0.001272
9.230000E-8	0.001308
9.235000E-8	0.001347
9.240000E-8	0.001338
9.245000E-8	0.001422
9.250000E-8	0.001523
9.255000E-8	0.001631
9.260000E-8	0.001711
9.265000E-8	0.001795
9.270000E-8	0.001775
9.275000E-8	0.001794
9.280000E-8	0.001719
9.285000E-8	0.001673
9.290000E-8	0.001608
9.295000E-8	0.001583
9.300000E-8	0.001517
9.305000E-8	0.001484
9.310000E-8	0.001342
9.315000E-8	0.001309
9.320000E-8	0.001298
9.325000E-8	0.001230
9.330000E-8	0.001217
9.335000E-8	0.001278
9.340000E-8	0.001195
9.345000E-8	0.001180
9.350000E-8	0.001130
9.355000E-8	0.001075
9.360000E-8	0.001056
9.365000E-8	0.001108
9.370000E-8	0.001058
9.375000E-8	0.001080
9.380000E-8	0.001153
9.385000E-8	0.001273
9.390000E-8	0.001353
9.395000E-8	0.001477
9.400000E-8	0.001553
9.405000E-8	0.001583
9.410000E-8	0.001564
9.415000E-8	0.001580
9.420000E-8	0.001497
9.425000E-8	0.001448
9.430000E-8	0.001409
9.435000E-8	0.001366
9.440000E-8	0.001284
9.445000E-8	0.001283
9.450000E-8	0.001227
9.455000E-8	0.001322
9.460000E-8	0.001320
9.465000E-8	0.001380
9.470000E-8	0.001417
9.475000E-8	0.001450
9.480000E-8	0.001519
9.485000E-8	0.001467
9.490000E-8	0.001548
9.495000E-8	0.001448
9.500000E-8	0.001388
9.505000E-8	0.001423
9.510000E-8	0.001403
9.515000E-8	0.001455
9.520000E-8	0.001447
9.525000E-8	0.001481
9.530000E-8	0.001509
9.535000E-8	0.001545
9.540000E-8	0.001555
9.545000E-8	0.001598
9.550000E-8	0.001567
9.555000E-8	0.001572
9.560000E-8	0.001464
9.565000E-8	0.001437
9.570000E-8	0.001305
9.575000E-8	0.001213
9.580000E-8	0.001100
9.585000E-8	0.001070
9.590000E-8	0.001036
9.595000E-8	0.001025
9.600000E-8	0.000970
9.605000E-8	0.001059
9.610000E-8	0.001053
9.615000E-8	0.001116
9.620000E-8	0.001141
9.625000E-8	0.001222
9.630000E-8	0.001273
9.635000E-8	0.001364
9.640000E-8	0.001441
9.645000E-8	0.001475
9.650000E-8	0.001517
9.655000E-8	0.001609
9.660000E-8	0.001628
9.665000E-8	0.001706
9.670000E-8	0.001697
9.675000E-8	0.001658
9.680000E-8	0.001616
9.685000E-8	0.001525
9.690000E-8	0.001464
9.695000E-8	0.001430
9.700000E-8	0.001294
9.705000E-8	0.001258
9.710000E-8	0.001161
9.715000E-8	0.001134
9.720000E-8	0.001053
9.725000E-8	0.001072
9.730000E-8	0.001089
9.735000E-8	0.001150
9.740000E-8	0.001089
9.745000E-8	0.001253
9.750000E-8	0.001284
9.755000E-8	0.001377
9.760000E-8	0.001431
9.765000E-8	0.001547
9.770000E-8	0.001566
9.775000E-8	0.001642
9.780000E-8	0.001675
9.785000E-8	0.001598
9.790000E-8	0.001563
9.795000E-8	0.001475
9.800000E-8	0.001347
9.805000E-8	0.001266
9.810000E-8	0.001227
9.815000E-8	0.001269
9.820000E-8	0.001195
9.825000E-8	0.001216
9.830000E-8	0.001256
9.835000E-8	0.001341
9.840000E-8	0.001338
9.845000E-8	0.001394
9.850000E-8	0.001430
9.855000E-8	0.001413
9.860000E-8	0.001437
9.865000E-8	0.001361
9.870000E-8	0.001322
9.875000E-8	0.001298
9.880000E-8	0.001266
9.885000E-8	0.001252
9.890000E-8	0.001244
9.895000E-8	0.001328
9.900000E-8	0.001295
9.905000E-8	0.001372
9.910000E-8	0.001497
9.915000E-8	0.001550
9.920000E-8	0.001589
9.925000E-8	0.001648
9.930000E-8	0.001619
9.935000E-8	0.001678
9.940000E-8	0.001617
9.945000E-8	0.001563
9.950000E-8	0.001484
9.955000E-8	0.001398
9.960000E-8	0.001309
9.965000E-8	0.001261
9.970000E-8	0.001159
9.975000E-8	0.001123
9.980000E-8	0.001058
9.985000E-8	0.001039
9.990000E-8	0.001100
9.995000E-8	0.001148
