LabVIEW Measurement	
Writer_Version	2
Reader_Version	2
Separator	Tab
Decimal_Separator	.
Multi_Headings	No
X_Columns	Multi
Time_Pref	Relative
Operator	TG lab
Date	2015/03/06
Time	18:59:35.5502705574035644531
***End_of_Header***	
	
Channels	1	
Samples	2000	
Date	1903/12/31	
Time	19:00:00	
X_Dimension	Time	
X0	0.0000000000000000E+0	
Delta_X	5.000000E-11	
***End_of_Header***		
X_Value	Untitled	Comment
0.000000	0.002353
5.000000E-11	0.002409
1.000000E-10	0.002359
1.500000E-10	0.002369
2.000000E-10	0.002381
2.500000E-10	0.002378
3.000000E-10	0.002459
3.500000E-10	0.002519
4.000000E-10	0.002406
4.500000E-10	0.002409
5.000000E-10	0.002394
5.500000E-10	0.002400
6.000000E-10	0.002450
6.500000E-10	0.002463
7.000000E-10	0.002328
7.500000E-10	0.002338
8.000000E-10	0.002341
8.500000E-10	0.002344
9.000000E-10	0.002334
9.500000E-10	0.002338
1.000000E-9	0.002266
1.050000E-9	0.002441
1.100000E-9	0.002397
1.150000E-9	0.002422
1.200000E-9	0.002256
1.250000E-9	0.002300
1.300000E-9	0.002209
1.350000E-9	0.002144
1.400000E-9	0.001966
1.450000E-9	0.001941
1.500000E-9	0.001859
1.550000E-9	0.001841
1.600000E-9	0.001791
1.650000E-9	0.001813
1.700000E-9	0.001859
1.750000E-9	0.001919
1.800000E-9	0.001950
1.850000E-9	0.002028
1.900000E-9	0.001919
1.950000E-9	0.001981
2.000000E-9	0.001966
2.050000E-9	0.002041
2.100000E-9	0.002053
2.150000E-9	0.001950
2.200000E-9	0.001919
2.250000E-9	0.001819
2.300000E-9	0.001763
2.350000E-9	0.001844
2.400000E-9	0.001759
2.450000E-9	0.001709
2.500000E-9	0.001756
2.550000E-9	0.001816
2.600000E-9	0.001869
2.650000E-9	0.001991
2.700000E-9	0.002050
2.750000E-9	0.002134
2.800000E-9	0.002022
2.850000E-9	0.002081
2.900000E-9	0.001925
2.950000E-9	0.001981
3.000000E-9	0.001922
3.050000E-9	0.001884
3.100000E-9	0.001553
3.150000E-9	0.001503
3.200000E-9	0.001459
3.250000E-9	0.001494
3.300000E-9	0.001406
3.350000E-9	0.001475
3.400000E-9	0.001425
3.450000E-9	0.001594
3.500000E-9	0.001553
3.550000E-9	0.001519
3.600000E-9	0.001556
3.650000E-9	0.001547
3.700000E-9	0.001459
3.750000E-9	0.001437
3.800000E-9	0.001359
3.850000E-9	0.001309
3.900000E-9	0.001263
3.950000E-9	0.001181
4.000000E-9	0.001150
4.050000E-9	0.001153
4.100000E-9	0.001081
4.150000E-9	0.001100
4.200000E-9	0.001241
4.250000E-9	0.001284
4.300000E-9	0.001388
4.350000E-9	0.001516
4.400000E-9	0.001503
4.450000E-9	0.001469
4.500000E-9	0.001538
4.550000E-9	0.001409
4.600000E-9	0.001159
4.650000E-9	0.001109
4.700000E-9	0.000716
4.750000E-9	0.000359
4.800000E-9	-0.000281
4.850000E-9	-0.000947
4.900000E-9	-0.002016
4.950000E-9	-0.003241
5.000000E-9	-0.004875
5.050000E-9	-0.006766
5.100000E-9	-0.008819
5.150000E-9	-0.011028
5.200000E-9	-0.013559
5.250000E-9	-0.016159
5.300000E-9	-0.018703
5.350000E-9	-0.021166
5.400000E-9	-0.023481
5.450000E-9	-0.025388
5.500000E-9	-0.026959
5.550000E-9	-0.028166
5.600000E-9	-0.029019
5.650000E-9	-0.029400
5.700000E-9	-0.029434
5.750000E-9	-0.029034
5.800000E-9	-0.028363
5.850000E-9	-0.027172
5.900000E-9	-0.025931
5.950000E-9	-0.024450
6.000000E-9	-0.022859
6.050000E-9	-0.021169
6.100000E-9	-0.019425
6.150000E-9	-0.018044
6.200000E-9	-0.016759
6.250000E-9	-0.015791
6.300000E-9	-0.015184
6.350000E-9	-0.014778
6.400000E-9	-0.014847
6.450000E-9	-0.015184
6.500000E-9	-0.015828
6.550000E-9	-0.016578
6.600000E-9	-0.017413
6.650000E-9	-0.018150
6.700000E-9	-0.018794
6.750000E-9	-0.019325
6.800000E-9	-0.019678
6.850000E-9	-0.019844
6.900000E-9	-0.019753
6.950000E-9	-0.019416
7.000000E-9	-0.019056
7.050000E-9	-0.018363
7.100000E-9	-0.017569
7.150000E-9	-0.016500
7.200000E-9	-0.015331
7.250000E-9	-0.014169
7.300000E-9	-0.012941
7.350000E-9	-0.011600
7.400000E-9	-0.010419
7.450000E-9	-0.009303
7.500000E-9	-0.008466
7.550000E-9	-0.007859
7.600000E-9	-0.007522
7.650000E-9	-0.007441
7.700000E-9	-0.007475
7.750000E-9	-0.007991
7.800000E-9	-0.008619
7.850000E-9	-0.009344
7.900000E-9	-0.010225
7.950000E-9	-0.011053
8.000000E-9	-0.011928
8.050000E-9	-0.012575
8.100000E-9	-0.013166
8.150000E-9	-0.013319
8.200000E-9	-0.013234
8.250000E-9	-0.012925
8.300000E-9	-0.012444
8.350000E-9	-0.011603
8.400000E-9	-0.010603
8.450000E-9	-0.009328
8.500000E-9	-0.008203
8.550000E-9	-0.006900
8.600000E-9	-0.005816
8.650000E-9	-0.004747
8.700000E-9	-0.003878
8.750000E-9	-0.003256
8.800000E-9	-0.002781
8.850000E-9	-0.002459
8.900000E-9	-0.002609
8.950000E-9	-0.002853
9.000000E-9	-0.003313
9.050000E-9	-0.004016
9.100000E-9	-0.004766
9.150000E-9	-0.005581
9.200000E-9	-0.006544
9.250000E-9	-0.007375
9.300000E-9	-0.008244
9.350000E-9	-0.008900
9.400000E-9	-0.009369
9.450000E-9	-0.009531
9.500000E-9	-0.009388
9.550000E-9	-0.009056
9.600000E-9	-0.008606
9.650000E-9	-0.007691
9.700000E-9	-0.006716
9.750000E-9	-0.005544
9.800000E-9	-0.004306
9.850000E-9	-0.003119
9.900000E-9	-0.002100
9.950000E-9	-0.001078
1.000000E-8	-0.000275
1.005000E-8	0.000188
1.010000E-8	0.000425
1.015000E-8	0.000338
1.020000E-8	-3.750000E-5
1.025000E-8	-0.000597
1.030000E-8	-0.001275
1.035000E-8	-0.002144
1.040000E-8	-0.003087
1.045000E-8	-0.004047
1.050000E-8	-0.004909
1.055000E-8	-0.005647
1.060000E-8	-0.006363
1.065000E-8	-0.006816
1.070000E-8	-0.007059
1.075000E-8	-0.006944
1.080000E-8	-0.006728
1.085000E-8	-0.006184
1.090000E-8	-0.005416
1.095000E-8	-0.004438
1.100000E-8	-0.003413
1.105000E-8	-0.002359
1.110000E-8	-0.001362
1.115000E-8	-0.000275
1.120000E-8	0.000603
1.125000E-8	0.001491
1.130000E-8	0.001841
1.135000E-8	0.002078
1.140000E-8	0.002103
1.145000E-8	0.001900
1.150000E-8	0.001419
1.155000E-8	0.000709
1.160000E-8	-0.000250
1.165000E-8	-0.001206
1.170000E-8	-0.002209
1.175000E-8	-0.003272
1.180000E-8	-0.004216
1.185000E-8	-0.004906
1.190000E-8	-0.005588
1.195000E-8	-0.005844
1.200000E-8	-0.005941
1.205000E-8	-0.005687
1.210000E-8	-0.005169
1.215000E-8	-0.004406
1.220000E-8	-0.003531
1.225000E-8	-0.002456
1.230000E-8	-0.001347
1.235000E-8	-9.687500E-5
1.240000E-8	0.000844
1.245000E-8	0.001697
1.250000E-8	0.002512
1.255000E-8	0.002981
1.260000E-8	0.003175
1.265000E-8	0.003178
1.270000E-8	0.002819
1.275000E-8	0.002294
1.280000E-8	0.001506
1.285000E-8	0.000675
1.290000E-8	-0.000269
1.295000E-8	-0.001228
1.300000E-8	-0.002228
1.305000E-8	-0.003075
1.310000E-8	-0.003728
1.315000E-8	-0.004188
1.320000E-8	-0.004491
1.325000E-8	-0.004450
1.330000E-8	-0.004209
1.335000E-8	-0.003813
1.340000E-8	-0.003184
1.345000E-8	-0.002331
1.350000E-8	-0.001341
1.355000E-8	-0.000281
1.360000E-8	0.000666
1.365000E-8	0.001753
1.370000E-8	0.002716
1.375000E-8	0.003434
1.380000E-8	0.003938
1.385000E-8	0.004338
1.390000E-8	0.004328
1.395000E-8	0.004141
1.400000E-8	0.003619
1.405000E-8	0.002978
1.410000E-8	0.002138
1.415000E-8	0.001169
1.420000E-8	0.000184
1.425000E-8	-0.000788
1.430000E-8	-0.001713
1.435000E-8	-0.002469
1.440000E-8	-0.003053
1.445000E-8	-0.003406
1.450000E-8	-0.003622
1.455000E-8	-0.003547
1.460000E-8	-0.003181
1.465000E-8	-0.002484
1.470000E-8	-0.001750
1.475000E-8	-0.000772
1.480000E-8	0.000116
1.485000E-8	0.001263
1.490000E-8	0.002200
1.495000E-8	0.002991
1.500000E-8	0.003541
1.505000E-8	0.004131
1.510000E-8	0.004409
1.515000E-8	0.004194
1.520000E-8	0.003909
1.525000E-8	0.003441
1.530000E-8	0.002800
1.535000E-8	0.002053
1.540000E-8	0.001094
1.545000E-8	0.000103
1.550000E-8	-0.000741
1.555000E-8	-0.001500
1.560000E-8	-0.002106
1.565000E-8	-0.002638
1.570000E-8	-0.002950
1.575000E-8	-0.002966
1.580000E-8	-0.002769
1.585000E-8	-0.002350
1.590000E-8	-0.001753
1.595000E-8	-0.000969
1.600000E-8	-0.000203
1.605000E-8	0.000769
1.610000E-8	0.001612
1.615000E-8	0.002666
1.620000E-8	0.003347
1.625000E-8	0.003941
1.630000E-8	0.004434
1.635000E-8	0.004756
1.640000E-8	0.004775
1.645000E-8	0.004613
1.650000E-8	0.004241
1.655000E-8	0.003725
1.660000E-8	0.002859
1.665000E-8	0.002119
1.670000E-8	0.001288
1.675000E-8	0.000469
1.680000E-8	-0.000388
1.685000E-8	-0.001047
1.690000E-8	-0.001641
1.695000E-8	-0.001872
1.700000E-8	-0.002031
1.705000E-8	-0.001934
1.710000E-8	-0.001575
1.715000E-8	-0.001116
1.720000E-8	-0.000481
1.725000E-8	0.000328
1.730000E-8	0.001009
1.735000E-8	0.001941
1.740000E-8	0.002766
1.745000E-8	0.003553
1.750000E-8	0.004181
1.755000E-8	0.004703
1.760000E-8	0.004872
1.765000E-8	0.004934
1.770000E-8	0.004784
1.775000E-8	0.004359
1.780000E-8	0.003791
1.785000E-8	0.003097
1.790000E-8	0.002203
1.795000E-8	0.001388
1.800000E-8	0.000503
1.805000E-8	-0.000366
1.810000E-8	-0.001056
1.815000E-8	-0.001641
1.820000E-8	-0.002138
1.825000E-8	-0.002144
1.830000E-8	-0.002066
1.835000E-8	-0.001750
1.840000E-8	-0.001256
1.845000E-8	-0.000653
1.850000E-8	0.000103
1.855000E-8	0.000941
1.860000E-8	0.001800
1.865000E-8	0.002584
1.870000E-8	0.003416
1.875000E-8	0.004059
1.880000E-8	0.004541
1.885000E-8	0.004822
1.890000E-8	0.004969
1.895000E-8	0.004806
1.900000E-8	0.004469
1.905000E-8	0.003931
1.910000E-8	0.003313
1.915000E-8	0.002547
1.920000E-8	0.001713
1.925000E-8	0.000906
1.930000E-8	0.000219
1.935000E-8	-0.000397
1.940000E-8	-0.000928
1.945000E-8	-0.001381
1.950000E-8	-0.001478
1.955000E-8	-0.001375
1.960000E-8	-0.001216
1.965000E-8	-0.000828
1.970000E-8	-0.000266
1.975000E-8	0.000459
1.980000E-8	0.001238
1.985000E-8	0.002106
1.990000E-8	0.002888
1.995000E-8	0.003650
2.000000E-8	0.004256
2.005000E-8	0.004863
2.010000E-8	0.005038
2.015000E-8	0.005047
2.020000E-8	0.004844
2.025000E-8	0.004569
2.030000E-8	0.003969
2.035000E-8	0.003369
2.040000E-8	0.002569
2.045000E-8	0.001769
2.050000E-8	0.001006
2.055000E-8	0.000294
2.060000E-8	-0.000438
2.065000E-8	-0.000763
2.070000E-8	-0.001106
2.075000E-8	-0.001353
2.080000E-8	-0.001334
2.085000E-8	-0.001106
2.090000E-8	-0.000881
2.095000E-8	-0.000294
2.100000E-8	0.000425
2.105000E-8	0.001247
2.110000E-8	0.002016
2.115000E-8	0.002772
2.120000E-8	0.003631
2.125000E-8	0.004256
2.130000E-8	0.004719
2.135000E-8	0.005013
2.140000E-8	0.005069
2.145000E-8	0.005072
2.150000E-8	0.004700
2.155000E-8	0.004131
2.160000E-8	0.003563
2.165000E-8	0.002931
2.170000E-8	0.002144
2.175000E-8	0.001366
2.180000E-8	0.000734
2.185000E-8	0.000178
2.190000E-8	-0.000200
2.195000E-8	-0.000553
2.200000E-8	-0.000781
2.205000E-8	-0.000816
2.210000E-8	-0.000537
2.215000E-8	-0.000163
2.220000E-8	0.000300
2.225000E-8	0.000956
2.230000E-8	0.001500
2.235000E-8	0.002250
2.240000E-8	0.002966
2.245000E-8	0.003709
2.250000E-8	0.004247
2.255000E-8	0.004838
2.260000E-8	0.005100
2.265000E-8	0.005359
2.270000E-8	0.005216
2.275000E-8	0.004969
2.280000E-8	0.004391
2.285000E-8	0.003775
2.290000E-8	0.003194
2.295000E-8	0.002534
2.300000E-8	0.001684
2.305000E-8	0.001047
2.310000E-8	0.000400
2.315000E-8	-0.000175
2.320000E-8	-0.000459
2.325000E-8	-0.000737
2.330000E-8	-0.000875
2.335000E-8	-0.000778
2.340000E-8	-0.000506
2.345000E-8	0.000000
2.350000E-8	0.000566
2.355000E-8	0.001253
2.360000E-8	0.001947
2.365000E-8	0.002597
2.370000E-8	0.003347
2.375000E-8	0.004003
2.380000E-8	0.004463
2.385000E-8	0.004850
2.390000E-8	0.004953
2.395000E-8	0.005063
2.400000E-8	0.004719
2.405000E-8	0.004356
2.410000E-8	0.003669
2.415000E-8	0.003047
2.420000E-8	0.002219
2.425000E-8	0.001419
2.430000E-8	0.000734
2.435000E-8	0.000125
2.440000E-8	-0.000384
2.445000E-8	-0.000728
2.450000E-8	-0.001019
2.455000E-8	-0.000969
2.460000E-8	-0.000838
2.465000E-8	-0.000547
2.470000E-8	-8.125000E-5
2.475000E-8	0.000597
2.480000E-8	0.001256
2.485000E-8	0.001956
2.490000E-8	0.002528
2.495000E-8	0.003228
2.500000E-8	0.003856
2.505000E-8	0.004363
2.510000E-8	0.004713
2.515000E-8	0.004856
2.520000E-8	0.004756
2.525000E-8	0.004687
2.530000E-8	0.004359
2.535000E-8	0.003950
2.540000E-8	0.003316
2.545000E-8	0.002653
2.550000E-8	0.001875
2.555000E-8	0.001288
2.560000E-8	0.000619
2.565000E-8	0.000216
2.570000E-8	-0.000150
2.575000E-8	-0.000403
2.580000E-8	-0.000403
2.585000E-8	-0.000306
2.590000E-8	0.000106
2.595000E-8	0.000556
2.600000E-8	0.001141
2.605000E-8	0.001800
2.610000E-8	0.002534
2.615000E-8	0.003222
2.620000E-8	0.003744
2.625000E-8	0.004241
2.630000E-8	0.004631
2.635000E-8	0.004856
2.640000E-8	0.004966
2.645000E-8	0.004925
2.650000E-8	0.004619
2.655000E-8	0.004256
2.660000E-8	0.003788
2.665000E-8	0.003244
2.670000E-8	0.002519
2.675000E-8	0.001975
2.680000E-8	0.001366
2.685000E-8	0.000869
2.690000E-8	0.000428
2.695000E-8	0.000131
2.700000E-8	-7.500000E-5
2.705000E-8	-0.000134
2.710000E-8	6.250000E-6
2.715000E-8	0.000103
2.720000E-8	0.000394
2.725000E-8	0.000991
2.730000E-8	0.001491
2.735000E-8	0.002069
2.740000E-8	0.002581
2.745000E-8	0.003100
2.750000E-8	0.003641
2.755000E-8	0.004025
2.760000E-8	0.004256
2.765000E-8	0.004422
2.770000E-8	0.004503
2.775000E-8	0.004391
2.780000E-8	0.004091
2.785000E-8	0.003791
2.790000E-8	0.003244
2.795000E-8	0.002769
2.800000E-8	0.002181
2.805000E-8	0.001644
2.810000E-8	0.001119
2.815000E-8	0.000528
2.820000E-8	0.000116
2.825000E-8	-0.000144
2.830000E-8	-0.000313
2.835000E-8	-0.000213
2.840000E-8	-0.000106
2.845000E-8	0.000200
2.850000E-8	0.000769
2.855000E-8	0.001369
2.860000E-8	0.001991
2.865000E-8	0.002759
2.870000E-8	0.003416
2.875000E-8	0.004059
2.880000E-8	0.004566
2.885000E-8	0.005009
2.890000E-8	0.005094
2.895000E-8	0.005066
2.900000E-8	0.004881
2.905000E-8	0.004559
2.910000E-8	0.004169
2.915000E-8	0.003638
2.920000E-8	0.003053
2.925000E-8	0.002316
2.930000E-8	0.001687
2.935000E-8	0.001125
2.940000E-8	0.000563
2.945000E-8	0.000153
2.950000E-8	-0.000116
2.955000E-8	-0.000163
2.960000E-8	-0.000284
2.965000E-8	-0.000172
2.970000E-8	9.375000E-5
2.975000E-8	0.000459
2.980000E-8	0.000853
2.985000E-8	0.001550
2.990000E-8	0.002194
2.995000E-8	0.002828
3.000000E-8	0.003350
3.005000E-8	0.003900
3.010000E-8	0.004250
3.015000E-8	0.004422
3.020000E-8	0.004497
3.025000E-8	0.004409
3.030000E-8	0.004147
3.035000E-8	0.003828
3.040000E-8	0.003369
3.045000E-8	0.002884
3.050000E-8	0.002288
3.055000E-8	0.001844
3.060000E-8	0.001281
3.065000E-8	0.000916
3.070000E-8	0.000475
3.075000E-8	0.000159
3.080000E-8	3.125000E-6
3.085000E-8	1.250000E-5
3.090000E-8	1.875000E-5
3.095000E-8	0.000309
3.100000E-8	0.000603
3.105000E-8	0.001128
3.110000E-8	0.001684
3.115000E-8	0.002213
3.120000E-8	0.002734
3.125000E-8	0.003275
3.130000E-8	0.003722
3.135000E-8	0.004106
3.140000E-8	0.004416
3.145000E-8	0.004494
3.150000E-8	0.004475
3.155000E-8	0.004184
3.160000E-8	0.003766
3.165000E-8	0.003206
3.170000E-8	0.002644
3.175000E-8	0.002038
3.180000E-8	0.001331
3.185000E-8	0.000850
3.190000E-8	0.000331
3.195000E-8	2.187500E-5
3.200000E-8	-0.000359
3.205000E-8	-0.000469
3.210000E-8	-0.000322
3.215000E-8	-6.875000E-5
3.220000E-8	0.000228
3.225000E-8	0.000806
3.230000E-8	0.001156
3.235000E-8	0.001741
3.240000E-8	0.002178
3.245000E-8	0.002750
3.250000E-8	0.003128
3.255000E-8	0.003459
3.260000E-8	0.003666
3.265000E-8	0.003897
3.270000E-8	0.003972
3.275000E-8	0.003863
3.280000E-8	0.003559
3.285000E-8	0.003403
3.290000E-8	0.003078
3.295000E-8	0.002587
3.300000E-8	0.002247
3.305000E-8	0.001772
3.310000E-8	0.001350
3.315000E-8	0.000975
3.320000E-8	0.000616
3.325000E-8	0.000347
3.330000E-8	0.000275
3.335000E-8	0.000294
3.340000E-8	0.000325
3.345000E-8	0.000625
3.350000E-8	0.000963
3.355000E-8	0.001284
3.360000E-8	0.001806
3.365000E-8	0.002313
3.370000E-8	0.002750
3.375000E-8	0.003222
3.380000E-8	0.003603
3.385000E-8	0.003938
3.390000E-8	0.004100
3.395000E-8	0.004144
3.400000E-8	0.004003
3.405000E-8	0.003944
3.410000E-8	0.003753
3.415000E-8	0.003400
3.420000E-8	0.003072
3.425000E-8	0.002741
3.430000E-8	0.002291
3.435000E-8	0.001853
3.440000E-8	0.001491
3.445000E-8	0.001234
3.450000E-8	0.000906
3.455000E-8	0.000803
3.460000E-8	0.000719
3.465000E-8	0.000669
3.470000E-8	0.000722
3.475000E-8	0.000947
3.480000E-8	0.001259
3.485000E-8	0.001625
3.490000E-8	0.002134
3.495000E-8	0.002528
3.500000E-8	0.002944
3.505000E-8	0.003463
3.510000E-8	0.003825
3.515000E-8	0.004091
3.520000E-8	0.004313
3.525000E-8	0.004275
3.530000E-8	0.004253
3.535000E-8	0.003916
3.540000E-8	0.003678
3.545000E-8	0.003259
3.550000E-8	0.002813
3.555000E-8	0.002394
3.560000E-8	0.002003
3.565000E-8	0.001500
3.570000E-8	0.001184
3.575000E-8	0.000919
3.580000E-8	0.000703
3.585000E-8	0.000537
3.590000E-8	0.000491
3.595000E-8	0.000734
3.600000E-8	0.001034
3.605000E-8	0.001391
3.610000E-8	0.001756
3.615000E-8	0.002172
3.620000E-8	0.002681
3.625000E-8	0.003106
3.630000E-8	0.003428
3.635000E-8	0.003806
3.640000E-8	0.004041
3.645000E-8	0.004084
3.650000E-8	0.004166
3.655000E-8	0.004028
3.660000E-8	0.003706
3.665000E-8	0.003494
3.670000E-8	0.003050
3.675000E-8	0.002647
3.680000E-8	0.002122
3.685000E-8	0.001788
3.690000E-8	0.001381
3.695000E-8	0.000963
3.700000E-8	0.000803
3.705000E-8	0.000609
3.710000E-8	0.000584
3.715000E-8	0.000634
3.720000E-8	0.000759
3.725000E-8	0.001034
3.730000E-8	0.001350
3.735000E-8	0.001906
3.740000E-8	0.002200
3.745000E-8	0.002603
3.750000E-8	0.003028
3.755000E-8	0.003428
3.760000E-8	0.003828
3.765000E-8	0.004028
3.770000E-8	0.004225
3.775000E-8	0.004247
3.780000E-8	0.004172
3.785000E-8	0.003959
3.790000E-8	0.003691
3.795000E-8	0.003356
3.800000E-8	0.002913
3.805000E-8	0.002531
3.810000E-8	0.002178
3.815000E-8	0.001791
3.820000E-8	0.001419
3.825000E-8	0.001053
3.830000E-8	0.000884
3.835000E-8	0.000709
3.840000E-8	0.000653
3.845000E-8	0.000753
3.850000E-8	0.000928
3.855000E-8	0.001256
3.860000E-8	0.001519
3.865000E-8	0.001937
3.870000E-8	0.002316
3.875000E-8	0.002822
3.880000E-8	0.003228
3.885000E-8	0.003606
3.890000E-8	0.003766
3.895000E-8	0.003906
3.900000E-8	0.003997
3.905000E-8	0.004019
3.910000E-8	0.003822
3.915000E-8	0.003656
3.920000E-8	0.003369
3.925000E-8	0.002934
3.930000E-8	0.002437
3.935000E-8	0.002191
3.940000E-8	0.001706
3.945000E-8	0.001391
3.950000E-8	0.001072
3.955000E-8	0.000941
3.960000E-8	0.000734
3.965000E-8	0.000806
3.970000E-8	0.000869
3.975000E-8	0.001119
3.980000E-8	0.001303
3.985000E-8	0.001644
3.990000E-8	0.001981
3.995000E-8	0.002388
4.000000E-8	0.002884
4.005000E-8	0.003184
4.010000E-8	0.003566
4.015000E-8	0.003875
4.020000E-8	0.003941
4.025000E-8	0.004112
4.030000E-8	0.004019
4.035000E-8	0.003869
4.040000E-8	0.003531
4.045000E-8	0.003213
4.050000E-8	0.002781
4.055000E-8	0.002294
4.060000E-8	0.001863
4.065000E-8	0.001534
4.070000E-8	0.001294
4.075000E-8	0.001066
4.080000E-8	0.000891
4.085000E-8	0.000931
4.090000E-8	0.000834
4.095000E-8	0.000950
4.100000E-8	0.001028
4.105000E-8	0.001194
4.110000E-8	0.001597
4.115000E-8	0.001850
4.120000E-8	0.002144
4.125000E-8	0.002528
4.130000E-8	0.002903
4.135000E-8	0.003253
4.140000E-8	0.003553
4.145000E-8	0.003888
4.150000E-8	0.003962
4.155000E-8	0.004041
4.160000E-8	0.003913
4.165000E-8	0.003747
4.170000E-8	0.003381
4.175000E-8	0.003138
4.180000E-8	0.002706
4.185000E-8	0.002250
4.190000E-8	0.001744
4.195000E-8	0.001353
4.200000E-8	0.001028
4.205000E-8	0.000884
4.210000E-8	0.000697
4.215000E-8	0.000794
4.220000E-8	0.000794
4.225000E-8	0.000981
4.230000E-8	0.001222
4.235000E-8	0.001634
4.240000E-8	0.001875
4.245000E-8	0.002256
4.250000E-8	0.002550
4.255000E-8	0.002888
4.260000E-8	0.003238
4.265000E-8	0.003491
4.270000E-8	0.003541
4.275000E-8	0.003641
4.280000E-8	0.003503
4.285000E-8	0.003478
4.290000E-8	0.003259
4.295000E-8	0.003034
4.300000E-8	0.002656
4.305000E-8	0.002288
4.310000E-8	0.001884
4.315000E-8	0.001619
4.320000E-8	0.001309
4.325000E-8	0.000959
4.330000E-8	0.000806
4.335000E-8	0.000741
4.340000E-8	0.000756
4.345000E-8	0.000875
4.350000E-8	0.001056
4.355000E-8	0.001309
4.360000E-8	0.001550
4.365000E-8	0.001950
4.370000E-8	0.002313
4.375000E-8	0.002794
4.380000E-8	0.003044
4.385000E-8	0.003375
4.390000E-8	0.003594
4.395000E-8	0.003891
4.400000E-8	0.003888
4.405000E-8	0.003841
4.410000E-8	0.003628
4.415000E-8	0.003347
4.420000E-8	0.003047
4.425000E-8	0.002834
4.430000E-8	0.002594
4.435000E-8	0.002203
4.440000E-8	0.001872
4.445000E-8	0.001634
4.450000E-8	0.001391
4.455000E-8	0.001316
4.460000E-8	0.001206
4.465000E-8	0.001112
4.470000E-8	0.000997
4.475000E-8	0.001088
4.480000E-8	0.001316
4.485000E-8	0.001572
4.490000E-8	0.001788
4.495000E-8	0.002191
4.500000E-8	0.002450
4.505000E-8	0.002819
4.510000E-8	0.003141
4.515000E-8	0.003384
4.520000E-8	0.003547
4.525000E-8	0.003603
4.530000E-8	0.003497
4.535000E-8	0.003469
4.540000E-8	0.003034
4.545000E-8	0.002856
4.550000E-8	0.002650
4.555000E-8	0.002356
4.560000E-8	0.002106
4.565000E-8	0.001794
4.570000E-8	0.001453
4.575000E-8	0.001219
4.580000E-8	0.001059
4.585000E-8	0.000913
4.590000E-8	0.000759
4.595000E-8	0.000725
4.600000E-8	0.000813
4.605000E-8	0.000959
4.610000E-8	0.001163
4.615000E-8	0.001500
4.620000E-8	0.001728
4.625000E-8	0.002222
4.630000E-8	0.002600
4.635000E-8	0.003044
4.640000E-8	0.003275
4.645000E-8	0.003497
4.650000E-8	0.003694
4.655000E-8	0.003719
4.660000E-8	0.003609
4.665000E-8	0.003525
4.670000E-8	0.003334
4.675000E-8	0.003041
4.680000E-8	0.002713
4.685000E-8	0.002491
4.690000E-8	0.002131
4.695000E-8	0.001928
4.700000E-8	0.001731
4.705000E-8	0.001553
4.710000E-8	0.001400
4.715000E-8	0.001388
4.720000E-8	0.001413
4.725000E-8	0.001391
4.730000E-8	0.001650
4.735000E-8	0.001819
4.740000E-8	0.002028
4.745000E-8	0.002228
4.750000E-8	0.002491
4.755000E-8	0.002753
4.760000E-8	0.002994
4.765000E-8	0.003203
4.770000E-8	0.003441
4.775000E-8	0.003606
4.780000E-8	0.003591
4.785000E-8	0.003600
4.790000E-8	0.003500
4.795000E-8	0.003397
4.800000E-8	0.003075
4.805000E-8	0.002781
4.810000E-8	0.002550
4.815000E-8	0.002197
4.820000E-8	0.001900
4.825000E-8	0.001538
4.830000E-8	0.001253
4.835000E-8	0.000978
4.840000E-8	0.000781
4.845000E-8	0.000744
4.850000E-8	0.000822
4.855000E-8	0.001000
4.860000E-8	0.001100
4.865000E-8	0.001481
4.870000E-8	0.001781
4.875000E-8	0.002087
4.880000E-8	0.002375
4.885000E-8	0.002853
4.890000E-8	0.003106
4.895000E-8	0.003397
4.900000E-8	0.003528
4.905000E-8	0.003653
4.910000E-8	0.003566
4.915000E-8	0.003522
4.920000E-8	0.003234
4.925000E-8	0.003138
4.930000E-8	0.002872
4.935000E-8	0.002653
4.940000E-8	0.002472
4.945000E-8	0.002100
4.950000E-8	0.001869
4.955000E-8	0.001650
4.960000E-8	0.001559
4.965000E-8	0.001459
4.970000E-8	0.001259
4.975000E-8	0.001344
4.980000E-8	0.001419
4.985000E-8	0.001588
4.990000E-8	0.001797
4.995000E-8	0.002084
5.000000E-8	0.002275
5.005000E-8	0.002619
5.010000E-8	0.002909
5.015000E-8	0.003075
5.020000E-8	0.003166
5.025000E-8	0.003328
5.030000E-8	0.003328
5.035000E-8	0.003359
5.040000E-8	0.003244
5.045000E-8	0.003144
5.050000E-8	0.002931
5.055000E-8	0.002709
5.060000E-8	0.002278
5.065000E-8	0.002025
5.070000E-8	0.001684
5.075000E-8	0.001397
5.080000E-8	0.001213
5.085000E-8	0.001175
5.090000E-8	0.001094
5.095000E-8	0.001216
5.100000E-8	0.001247
5.105000E-8	0.001481
5.110000E-8	0.001769
5.115000E-8	0.001994
5.120000E-8	0.002209
5.125000E-8	0.002653
5.130000E-8	0.002825
5.135000E-8	0.003056
5.140000E-8	0.003281
5.145000E-8	0.003375
5.150000E-8	0.003463
5.155000E-8	0.003716
5.160000E-8	0.003631
5.165000E-8	0.003500
5.170000E-8	0.003341
5.175000E-8	0.003247
5.180000E-8	0.002863
5.185000E-8	0.002472
5.190000E-8	0.002253
5.195000E-8	0.001897
5.200000E-8	0.001612
5.205000E-8	0.001391
5.210000E-8	0.001041
5.215000E-8	0.000972
5.220000E-8	0.001031
5.225000E-8	0.001209
5.230000E-8	0.001306
5.235000E-8	0.001584
5.240000E-8	0.001888
5.245000E-8	0.002181
5.250000E-8	0.002422
5.255000E-8	0.002644
5.260000E-8	0.002872
5.265000E-8	0.003066
5.270000E-8	0.003306
5.275000E-8	0.003459
5.280000E-8	0.003350
5.285000E-8	0.003381
5.290000E-8	0.003306
5.295000E-8	0.003234
5.300000E-8	0.003025
5.305000E-8	0.002709
5.310000E-8	0.002469
5.315000E-8	0.002181
5.320000E-8	0.001941
5.325000E-8	0.001678
5.330000E-8	0.001409
5.335000E-8	0.001241
5.340000E-8	0.001041
5.345000E-8	0.000966
5.350000E-8	0.001063
5.355000E-8	0.001112
5.360000E-8	0.001244
5.365000E-8	0.001584
5.370000E-8	0.001797
5.375000E-8	0.002125
5.380000E-8	0.002431
5.385000E-8	0.002734
5.390000E-8	0.003138
5.395000E-8	0.003291
5.400000E-8	0.003428
5.405000E-8	0.003453
5.410000E-8	0.003581
5.415000E-8	0.003547
5.420000E-8	0.003369
5.425000E-8	0.003263
5.430000E-8	0.003069
5.435000E-8	0.002888
5.440000E-8	0.002541
5.445000E-8	0.002272
5.450000E-8	0.001969
5.455000E-8	0.001691
5.460000E-8	0.001506
5.465000E-8	0.001300
5.470000E-8	0.001241
5.475000E-8	0.001231
5.480000E-8	0.001194
5.485000E-8	0.001550
5.490000E-8	0.001719
5.495000E-8	0.001978
5.500000E-8	0.002359
5.505000E-8	0.002659
5.510000E-8	0.002963
5.515000E-8	0.003250
5.520000E-8	0.003334
5.525000E-8	0.003425
5.530000E-8	0.003488
5.535000E-8	0.003406
5.540000E-8	0.003281
5.545000E-8	0.003009
5.550000E-8	0.002959
5.555000E-8	0.002753
5.560000E-8	0.002391
5.565000E-8	0.002172
5.570000E-8	0.001859
5.575000E-8	0.001756
5.580000E-8	0.001694
5.585000E-8	0.001509
5.590000E-8	0.001334
5.595000E-8	0.001334
5.600000E-8	0.001272
5.605000E-8	0.001466
5.610000E-8	0.001556
5.615000E-8	0.001784
5.620000E-8	0.002050
5.625000E-8	0.002172
5.630000E-8	0.002459
5.635000E-8	0.002641
5.640000E-8	0.002800
5.645000E-8	0.003094
5.650000E-8	0.003178
5.655000E-8	0.003272
5.660000E-8	0.003266
5.665000E-8	0.003269
5.670000E-8	0.003178
5.675000E-8	0.003069
5.680000E-8	0.002800
5.685000E-8	0.002619
5.690000E-8	0.002353
5.695000E-8	0.002097
5.700000E-8	0.001891
5.705000E-8	0.001747
5.710000E-8	0.001450
5.715000E-8	0.001331
5.720000E-8	0.001269
5.725000E-8	0.001150
5.730000E-8	0.001306
5.735000E-8	0.001469
5.740000E-8	0.001581
5.745000E-8	0.001747
5.750000E-8	0.001934
5.755000E-8	0.002325
5.760000E-8	0.002413
5.765000E-8	0.002653
5.770000E-8	0.002869
5.775000E-8	0.002947
5.780000E-8	0.003109
5.785000E-8	0.003178
5.790000E-8	0.003156
5.795000E-8	0.003075
5.800000E-8	0.002969
5.805000E-8	0.002919
5.810000E-8	0.002566
5.815000E-8	0.002444
5.820000E-8	0.002206
5.825000E-8	0.001844
5.830000E-8	0.001644
5.835000E-8	0.001413
5.840000E-8	0.001225
5.845000E-8	0.001163
5.850000E-8	0.001106
5.855000E-8	0.001256
5.860000E-8	0.001303
5.865000E-8	0.001538
5.870000E-8	0.001872
5.875000E-8	0.002053
5.880000E-8	0.002366
5.885000E-8	0.002484
5.890000E-8	0.002691
5.895000E-8	0.002756
5.900000E-8	0.002891
5.905000E-8	0.003016
5.910000E-8	0.003097
5.915000E-8	0.003084
5.920000E-8	0.003138
5.925000E-8	0.003100
5.930000E-8	0.003019
5.935000E-8	0.002994
5.940000E-8	0.002737
5.945000E-8	0.002638
5.950000E-8	0.002294
5.955000E-8	0.002072
5.960000E-8	0.001822
5.965000E-8	0.001687
5.970000E-8	0.001519
5.975000E-8	0.001422
5.980000E-8	0.001362
5.985000E-8	0.001437
5.990000E-8	0.001541
5.995000E-8	0.001747
6.000000E-8	0.001869
6.005000E-8	0.002175
6.010000E-8	0.002500
6.015000E-8	0.002775
6.020000E-8	0.003044
6.025000E-8	0.003375
6.030000E-8	0.003456
6.035000E-8	0.003619
6.040000E-8	0.003716
6.045000E-8	0.003625
6.050000E-8	0.003569
6.055000E-8	0.003400
6.060000E-8	0.003053
6.065000E-8	0.002838
6.070000E-8	0.002550
6.075000E-8	0.002225
6.080000E-8	0.002009
6.085000E-8	0.001634
6.090000E-8	0.001459
6.095000E-8	0.001484
6.100000E-8	0.001378
6.105000E-8	0.001341
6.110000E-8	0.001553
6.115000E-8	0.001569
6.120000E-8	0.001691
6.125000E-8	0.001913
6.130000E-8	0.002206
6.135000E-8	0.002338
6.140000E-8	0.002425
6.145000E-8	0.002806
6.150000E-8	0.002869
6.155000E-8	0.002972
6.160000E-8	0.003069
6.165000E-8	0.003138
6.170000E-8	0.003041
6.175000E-8	0.002909
6.180000E-8	0.002763
6.185000E-8	0.002662
6.190000E-8	0.002306
6.195000E-8	0.002084
6.200000E-8	0.001713
6.205000E-8	0.001563
6.210000E-8	0.001500
6.215000E-8	0.001344
6.220000E-8	0.001294
6.225000E-8	0.001347
6.230000E-8	0.001413
6.235000E-8	0.001606
6.240000E-8	0.001744
6.245000E-8	0.001941
6.250000E-8	0.002159
6.255000E-8	0.002322
6.260000E-8	0.002544
6.265000E-8	0.002803
6.270000E-8	0.002822
6.275000E-8	0.003050
6.280000E-8	0.003016
6.285000E-8	0.003047
6.290000E-8	0.003031
6.295000E-8	0.002897
6.300000E-8	0.002834
6.305000E-8	0.002741
6.310000E-8	0.002653
6.315000E-8	0.002497
6.320000E-8	0.002325
6.325000E-8	0.002191
6.330000E-8	0.002019
6.335000E-8	0.001869
6.340000E-8	0.001803
6.345000E-8	0.001881
6.350000E-8	0.001894
6.355000E-8	0.001931
6.360000E-8	0.002028
6.365000E-8	0.002197
6.370000E-8	0.002275
6.375000E-8	0.002563
6.380000E-8	0.002650
6.385000E-8	0.002988
6.390000E-8	0.003191
6.395000E-8	0.003406
6.400000E-8	0.003594
6.405000E-8	0.003547
6.410000E-8	0.003503
6.415000E-8	0.003516
6.420000E-8	0.003406
6.425000E-8	0.003284
6.430000E-8	0.002984
6.435000E-8	0.002700
6.440000E-8	0.002394
6.445000E-8	0.002125
6.450000E-8	0.001859
6.455000E-8	0.001600
6.460000E-8	0.001441
6.465000E-8	0.001313
6.470000E-8	0.001275
6.475000E-8	0.001375
6.480000E-8	0.001303
6.485000E-8	0.001472
6.490000E-8	0.001672
6.495000E-8	0.001859
6.500000E-8	0.001937
6.505000E-8	0.002144
6.510000E-8	0.002272
6.515000E-8	0.002391
6.520000E-8	0.002534
6.525000E-8	0.002809
6.530000E-8	0.002934
6.535000E-8	0.003016
6.540000E-8	0.003084
6.545000E-8	0.003031
6.550000E-8	0.002847
6.555000E-8	0.002819
6.560000E-8	0.002728
6.565000E-8	0.002506
6.570000E-8	0.002228
6.575000E-8	0.002078
6.580000E-8	0.001944
6.585000E-8	0.001841
6.590000E-8	0.001691
6.595000E-8	0.001616
6.600000E-8	0.001597
6.605000E-8	0.001588
6.610000E-8	0.001653
6.615000E-8	0.001722
6.620000E-8	0.001950
6.625000E-8	0.002063
6.630000E-8	0.002216
6.635000E-8	0.002397
6.640000E-8	0.002559
6.645000E-8	0.002644
6.650000E-8	0.002731
6.655000E-8	0.002928
6.660000E-8	0.002991
6.665000E-8	0.003078
6.670000E-8	0.003066
6.675000E-8	0.003066
6.680000E-8	0.002909
6.685000E-8	0.002813
6.690000E-8	0.002659
6.695000E-8	0.002397
6.700000E-8	0.002162
6.705000E-8	0.001947
6.710000E-8	0.001772
6.715000E-8	0.001672
6.720000E-8	0.001547
6.725000E-8	0.001528
6.730000E-8	0.001472
6.735000E-8	0.001609
6.740000E-8	0.001741
6.745000E-8	0.001934
6.750000E-8	0.002141
6.755000E-8	0.002425
6.760000E-8	0.002659
6.765000E-8	0.002928
6.770000E-8	0.002966
6.775000E-8	0.003138
6.780000E-8	0.003144
6.785000E-8	0.003325
6.790000E-8	0.003288
6.795000E-8	0.003303
6.800000E-8	0.003184
6.805000E-8	0.002988
6.810000E-8	0.002828
6.815000E-8	0.002697
6.820000E-8	0.002403
6.825000E-8	0.002288
6.830000E-8	0.002078
6.835000E-8	0.001947
6.840000E-8	0.001884
6.845000E-8	0.001981
6.850000E-8	0.001978
6.855000E-8	0.002038
6.860000E-8	0.002016
6.865000E-8	0.002091
6.870000E-8	0.002162
6.875000E-8	0.002228
6.880000E-8	0.002344
6.885000E-8	0.002481
6.890000E-8	0.002528
6.895000E-8	0.002656
6.900000E-8	0.002772
6.905000E-8	0.002913
6.910000E-8	0.002991
6.915000E-8	0.003100
6.920000E-8	0.003109
6.925000E-8	0.003178
6.930000E-8	0.002938
6.935000E-8	0.002831
6.940000E-8	0.002691
6.945000E-8	0.002556
6.950000E-8	0.002172
6.955000E-8	0.002012
6.960000E-8	0.001959
6.965000E-8	0.001794
6.970000E-8	0.001659
6.975000E-8	0.001788
6.980000E-8	0.001716
6.985000E-8	0.001788
6.990000E-8	0.001738
6.995000E-8	0.001900
7.000000E-8	0.001972
7.005000E-8	0.002053
7.010000E-8	0.002034
7.015000E-8	0.002188
7.020000E-8	0.002331
7.025000E-8	0.002497
7.030000E-8	0.002672
7.035000E-8	0.002822
7.040000E-8	0.002850
7.045000E-8	0.003006
7.050000E-8	0.002844
7.055000E-8	0.002853
7.060000E-8	0.002713
7.065000E-8	0.002634
7.070000E-8	0.002453
7.075000E-8	0.002259
7.080000E-8	0.002138
7.085000E-8	0.002097
7.090000E-8	0.001909
7.095000E-8	0.001803
7.100000E-8	0.001788
7.105000E-8	0.001838
7.110000E-8	0.001878
7.115000E-8	0.002056
7.120000E-8	0.002116
7.125000E-8	0.002313
7.130000E-8	0.002491
7.135000E-8	0.002706
7.140000E-8	0.002934
7.145000E-8	0.002969
7.150000E-8	0.003025
7.155000E-8	0.003188
7.160000E-8	0.003184
7.165000E-8	0.003250
7.170000E-8	0.003066
7.175000E-8	0.003028
7.180000E-8	0.002869
7.185000E-8	0.002725
7.190000E-8	0.002528
7.195000E-8	0.002341
7.200000E-8	0.002147
7.205000E-8	0.002156
7.210000E-8	0.002106
7.215000E-8	0.001997
7.220000E-8	0.002050
7.225000E-8	0.002097
7.230000E-8	0.002150
7.235000E-8	0.002222
7.240000E-8	0.002266
7.245000E-8	0.002353
7.250000E-8	0.002372
7.255000E-8	0.002453
7.260000E-8	0.002425
7.265000E-8	0.002469
7.270000E-8	0.002550
7.275000E-8	0.002766
7.280000E-8	0.002997
7.285000E-8	0.003100
7.290000E-8	0.003188
7.295000E-8	0.003156
7.300000E-8	0.003044
7.305000E-8	0.003009
7.310000E-8	0.002784
7.315000E-8	0.002581
7.320000E-8	0.002397
7.325000E-8	0.002194
7.330000E-8	0.001941
7.335000E-8	0.001872
7.340000E-8	0.001734
7.345000E-8	0.001756
7.350000E-8	0.001806
7.355000E-8	0.001859
7.360000E-8	0.001791
7.365000E-8	0.001906
7.370000E-8	0.002041
7.375000E-8	0.002197
7.380000E-8	0.002338
7.385000E-8	0.002306
7.390000E-8	0.002587
7.395000E-8	0.002791
7.400000E-8	0.002850
7.405000E-8	0.002919
7.410000E-8	0.002897
7.415000E-8	0.002975
7.420000E-8	0.002997
7.425000E-8	0.003022
7.430000E-8	0.002897
7.435000E-8	0.002863
7.440000E-8	0.002809
7.445000E-8	0.002622
7.450000E-8	0.002466
7.455000E-8	0.002134
7.460000E-8	0.002056
7.465000E-8	0.001850
7.470000E-8	0.001659
7.475000E-8	0.001588
7.480000E-8	0.001509
7.485000E-8	0.001447
7.490000E-8	0.001584
7.495000E-8	0.001650
7.500000E-8	0.001706
7.505000E-8	0.001994
7.510000E-8	0.002197
7.515000E-8	0.002478
7.520000E-8	0.002591
7.525000E-8	0.002766
7.530000E-8	0.002913
7.535000E-8	0.002981
7.540000E-8	0.002950
7.545000E-8	0.002888
7.550000E-8	0.002819
7.555000E-8	0.002691
7.560000E-8	0.002484
7.565000E-8	0.002388
7.570000E-8	0.002284
7.575000E-8	0.002213
7.580000E-8	0.002109
7.585000E-8	0.001959
7.590000E-8	0.001853
7.595000E-8	0.001728
7.600000E-8	0.001666
7.605000E-8	0.001756
7.610000E-8	0.001700
7.615000E-8	0.001856
7.620000E-8	0.001984
7.625000E-8	0.002063
7.630000E-8	0.002153
7.635000E-8	0.002391
7.640000E-8	0.002500
7.645000E-8	0.002775
7.650000E-8	0.002813
7.655000E-8	0.002816
7.660000E-8	0.002766
7.665000E-8	0.002784
7.670000E-8	0.002750
7.675000E-8	0.002684
7.680000E-8	0.002597
7.685000E-8	0.002541
7.690000E-8	0.002403
7.695000E-8	0.002353
7.700000E-8	0.002222
7.705000E-8	0.002169
7.710000E-8	0.002109
7.715000E-8	0.002016
7.720000E-8	0.001853
7.725000E-8	0.001863
7.730000E-8	0.001863
7.735000E-8	0.001934
7.740000E-8	0.001891
7.745000E-8	0.001881
7.750000E-8	0.001994
7.755000E-8	0.002231
7.760000E-8	0.002253
7.765000E-8	0.002338
7.770000E-8	0.002563
7.775000E-8	0.002634
7.780000E-8	0.002838
7.785000E-8	0.002891
7.790000E-8	0.002922
7.795000E-8	0.002931
7.800000E-8	0.002897
7.805000E-8	0.002947
7.810000E-8	0.002800
7.815000E-8	0.002631
7.820000E-8	0.002463
7.825000E-8	0.002444
7.830000E-8	0.002331
7.835000E-8	0.002350
7.840000E-8	0.002294
7.845000E-8	0.002288
7.850000E-8	0.002203
7.855000E-8	0.002063
7.860000E-8	0.002191
7.865000E-8	0.002122
7.870000E-8	0.002169
7.875000E-8	0.002225
7.880000E-8	0.002131
7.885000E-8	0.002100
7.890000E-8	0.002241
7.895000E-8	0.002206
7.900000E-8	0.002244
7.905000E-8	0.002344
7.910000E-8	0.002500
7.915000E-8	0.002463
7.920000E-8	0.002416
7.925000E-8	0.002425
7.930000E-8	0.002213
7.935000E-8	0.002256
7.940000E-8	0.002100
7.945000E-8	0.001872
7.950000E-8	0.001891
7.955000E-8	0.001841
7.960000E-8	0.001819
7.965000E-8	0.001759
7.970000E-8	0.001775
7.975000E-8	0.001784
7.980000E-8	0.001791
7.985000E-8	0.001828
7.990000E-8	0.001816
7.995000E-8	0.001831
8.000000E-8	0.001806
8.005000E-8	0.001872
8.010000E-8	0.002069
8.015000E-8	0.002169
8.020000E-8	0.002331
8.025000E-8	0.002584
8.030000E-8	0.002691
8.035000E-8	0.003044
8.040000E-8	0.003084
8.045000E-8	0.003128
8.050000E-8	0.003294
8.055000E-8	0.003184
8.060000E-8	0.003028
8.065000E-8	0.003066
8.070000E-8	0.002809
8.075000E-8	0.002503
8.080000E-8	0.002297
8.085000E-8	0.002206
8.090000E-8	0.002053
8.095000E-8	0.002031
8.100000E-8	0.001928
8.105000E-8	0.001966
8.110000E-8	0.001916
8.115000E-8	0.001909
8.120000E-8	0.001844
8.125000E-8	0.001928
8.130000E-8	0.001953
8.135000E-8	0.001984
8.140000E-8	0.002144
8.145000E-8	0.002200
8.150000E-8	0.002291
8.155000E-8	0.002297
8.160000E-8	0.002378
8.165000E-8	0.002328
8.170000E-8	0.002369
8.175000E-8	0.002394
8.180000E-8	0.002372
8.185000E-8	0.002350
8.190000E-8	0.002237
8.195000E-8	0.002206
8.200000E-8	0.001953
8.205000E-8	0.001916
8.210000E-8	0.001831
8.215000E-8	0.001706
8.220000E-8	0.001625
8.225000E-8	0.001547
8.230000E-8	0.001550
8.235000E-8	0.001806
8.240000E-8	0.001794
8.245000E-8	0.001900
8.250000E-8	0.002022
8.255000E-8	0.002156
8.260000E-8	0.002306
8.265000E-8	0.002478
8.270000E-8	0.002656
8.275000E-8	0.002828
8.280000E-8	0.002891
8.285000E-8	0.002944
8.290000E-8	0.002897
8.295000E-8	0.003022
8.300000E-8	0.002919
8.305000E-8	0.002909
8.310000E-8	0.002919
8.315000E-8	0.002659
8.320000E-8	0.002484
8.325000E-8	0.002284
8.330000E-8	0.002119
8.335000E-8	0.001978
8.340000E-8	0.001809
8.345000E-8	0.001759
8.350000E-8	0.001625
8.355000E-8	0.001588
8.360000E-8	0.001612
8.365000E-8	0.001719
8.370000E-8	0.001778
8.375000E-8	0.001850
8.380000E-8	0.001966
8.385000E-8	0.002103
8.390000E-8	0.002153
8.395000E-8	0.002303
8.400000E-8	0.002275
8.405000E-8	0.002469
8.410000E-8	0.002416
8.415000E-8	0.002437
8.420000E-8	0.002550
8.425000E-8	0.002500
8.430000E-8	0.002541
8.435000E-8	0.002503
8.440000E-8	0.002444
8.445000E-8	0.002419
8.450000E-8	0.002284
8.455000E-8	0.002253
8.460000E-8	0.002119
8.465000E-8	0.002016
8.470000E-8	0.001937
8.475000E-8	0.001847
8.480000E-8	0.001784
8.485000E-8	0.001822
8.490000E-8	0.001788
8.495000E-8	0.001869
8.500000E-8	0.002038
8.505000E-8	0.002175
8.510000E-8	0.002175
8.515000E-8	0.002272
8.520000E-8	0.002244
8.525000E-8	0.002253
8.530000E-8	0.002306
8.535000E-8	0.002413
8.540000E-8	0.002441
8.545000E-8	0.002475
8.550000E-8	0.002394
8.555000E-8	0.002353
8.560000E-8	0.002328
8.565000E-8	0.002291
8.570000E-8	0.002250
8.575000E-8	0.002228
8.580000E-8	0.002147
8.585000E-8	0.002022
8.590000E-8	0.001969
8.595000E-8	0.001878
8.600000E-8	0.001859
8.605000E-8	0.001756
8.610000E-8	0.001731
8.615000E-8	0.001784
8.620000E-8	0.001663
8.625000E-8	0.001734
8.630000E-8	0.001806
8.635000E-8	0.001834
8.640000E-8	0.001972
8.645000E-8	0.002234
8.650000E-8	0.002247
8.655000E-8	0.002269
8.660000E-8	0.002416
8.665000E-8	0.002563
8.670000E-8	0.002553
8.675000E-8	0.002650
8.680000E-8	0.002662
8.685000E-8	0.002706
8.690000E-8	0.002681
8.695000E-8	0.002631
8.700000E-8	0.002516
8.705000E-8	0.002478
8.710000E-8	0.002453
8.715000E-8	0.002459
8.720000E-8	0.002281
8.725000E-8	0.002281
8.730000E-8	0.002169
8.735000E-8	0.002162
8.740000E-8	0.002063
8.745000E-8	0.002047
8.750000E-8	0.002106
8.755000E-8	0.002175
8.760000E-8	0.002284
8.765000E-8	0.002475
8.770000E-8	0.002441
8.775000E-8	0.002475
8.780000E-8	0.002566
8.785000E-8	0.002737
8.790000E-8	0.002734
8.795000E-8	0.002662
8.800000E-8	0.002747
8.805000E-8	0.002750
8.810000E-8	0.002706
8.815000E-8	0.002694
8.820000E-8	0.002394
8.825000E-8	0.002366
8.830000E-8	0.002181
8.835000E-8	0.002084
8.840000E-8	0.002009
8.845000E-8	0.002019
8.850000E-8	0.001944
8.855000E-8	0.001931
8.860000E-8	0.001950
8.865000E-8	0.002028
8.870000E-8	0.002134
8.875000E-8	0.002203
8.880000E-8	0.002256
8.885000E-8	0.002450
8.890000E-8	0.002594
8.895000E-8	0.002681
8.900000E-8	0.002753
8.905000E-8	0.002828
8.910000E-8	0.002878
8.915000E-8	0.002869
8.920000E-8	0.002853
8.925000E-8	0.002878
8.930000E-8	0.002759
8.935000E-8	0.002697
8.940000E-8	0.002544
8.945000E-8	0.002553
8.950000E-8	0.002400
8.955000E-8	0.002338
8.960000E-8	0.002116
8.965000E-8	0.002200
8.970000E-8	0.002150
8.975000E-8	0.002116
8.980000E-8	0.002072
8.985000E-8	0.002184
8.990000E-8	0.002159
8.995000E-8	0.002203
9.000000E-8	0.002209
9.005000E-8	0.002319
9.010000E-8	0.002431
9.015000E-8	0.002422
9.020000E-8	0.002428
9.025000E-8	0.002528
9.030000E-8	0.002553
9.035000E-8	0.002603
9.040000E-8	0.002594
9.045000E-8	0.002628
9.050000E-8	0.002659
9.055000E-8	0.002641
9.060000E-8	0.002641
9.065000E-8	0.002656
9.070000E-8	0.002491
9.075000E-8	0.002372
9.080000E-8	0.002144
9.085000E-8	0.002050
9.090000E-8	0.001803
9.095000E-8	0.001813
9.100000E-8	0.001691
9.105000E-8	0.001753
9.110000E-8	0.001722
9.115000E-8	0.001750
9.120000E-8	0.001928
9.125000E-8	0.002172
9.130000E-8	0.002297
9.135000E-8	0.002328
9.140000E-8	0.002497
9.145000E-8	0.002675
9.150000E-8	0.002609
9.155000E-8	0.002700
9.160000E-8	0.002778
9.165000E-8	0.002894
9.170000E-8	0.002897
9.175000E-8	0.002753
9.180000E-8	0.002784
9.185000E-8	0.002725
9.190000E-8	0.002681
9.195000E-8	0.002669
9.200000E-8	0.002531
9.205000E-8	0.002403
9.210000E-8	0.002156
9.215000E-8	0.001981
9.220000E-8	0.001913
9.225000E-8	0.001928
9.230000E-8	0.001900
9.235000E-8	0.001997
9.240000E-8	0.002019
9.245000E-8	0.002072
9.250000E-8	0.002181
9.255000E-8	0.002303
9.260000E-8	0.002369
9.265000E-8	0.002534
9.270000E-8	0.002522
9.275000E-8	0.002584
9.280000E-8	0.002569
9.285000E-8	0.002597
9.290000E-8	0.002613
9.295000E-8	0.002597
9.300000E-8	0.002628
9.305000E-8	0.002631
9.310000E-8	0.002650
9.315000E-8	0.002553
9.320000E-8	0.002494
9.325000E-8	0.002359
9.330000E-8	0.002197
9.335000E-8	0.002219
9.340000E-8	0.002066
9.345000E-8	0.001978
9.350000E-8	0.002028
9.355000E-8	0.001997
9.360000E-8	0.001903
9.365000E-8	0.001925
9.370000E-8	0.001928
9.375000E-8	0.002100
9.380000E-8	0.002066
9.385000E-8	0.002197
9.390000E-8	0.002222
9.395000E-8	0.002397
9.400000E-8	0.002391
9.405000E-8	0.002444
9.410000E-8	0.002481
9.415000E-8	0.002609
9.420000E-8	0.002716
9.425000E-8	0.002662
9.430000E-8	0.002769
9.435000E-8	0.002616
9.440000E-8	0.002550
9.445000E-8	0.002500
9.450000E-8	0.002450
9.455000E-8	0.002313
9.460000E-8	0.002278
9.465000E-8	0.002175
9.470000E-8	0.002106
9.475000E-8	0.001975
9.480000E-8	0.001856
9.485000E-8	0.001722
9.490000E-8	0.001700
9.495000E-8	0.001706
9.500000E-8	0.001847
9.505000E-8	0.002025
9.510000E-8	0.002125
9.515000E-8	0.002128
9.520000E-8	0.002219
9.525000E-8	0.002397
9.530000E-8	0.002453
9.535000E-8	0.002547
9.540000E-8	0.002553
9.545000E-8	0.002550
9.550000E-8	0.002475
9.555000E-8	0.002494
9.560000E-8	0.002375
9.565000E-8	0.002306
9.570000E-8	0.002216
9.575000E-8	0.002150
9.580000E-8	0.002147
9.585000E-8	0.002131
9.590000E-8	0.002063
9.595000E-8	0.002119
9.600000E-8	0.002141
9.605000E-8	0.002144
9.610000E-8	0.002194
9.615000E-8	0.002291
9.620000E-8	0.002219
9.625000E-8	0.002334
9.630000E-8	0.002375
9.635000E-8	0.002475
9.640000E-8	0.002550
9.645000E-8	0.002547
9.650000E-8	0.002550
9.655000E-8	0.002653
9.660000E-8	0.002694
9.665000E-8	0.002713
9.670000E-8	0.002703
9.675000E-8	0.002694
9.680000E-8	0.002672
9.685000E-8	0.002709
9.690000E-8	0.002688
9.695000E-8	0.002688
9.700000E-8	0.002584
9.705000E-8	0.002550
9.710000E-8	0.002422
9.715000E-8	0.002350
9.720000E-8	0.002231
9.725000E-8	0.002228
9.730000E-8	0.002072
9.735000E-8	0.002109
9.740000E-8	0.002084
9.745000E-8	0.002047
9.750000E-8	0.002003
9.755000E-8	0.002091
9.760000E-8	0.002172
9.765000E-8	0.002394
9.770000E-8	0.002512
9.775000E-8	0.002653
9.780000E-8	0.002525
9.785000E-8	0.002619
9.790000E-8	0.002603
9.795000E-8	0.002678
9.800000E-8	0.002628
9.805000E-8	0.002697
9.810000E-8	0.002619
9.815000E-8	0.002597
9.820000E-8	0.002569
9.825000E-8	0.002584
9.830000E-8	0.002538
9.835000E-8	0.002350
9.840000E-8	0.002453
9.845000E-8	0.002413
9.850000E-8	0.002247
9.855000E-8	0.002247
9.860000E-8	0.002231
9.865000E-8	0.002316
9.870000E-8	0.002303
9.875000E-8	0.002397
9.880000E-8	0.002388
9.885000E-8	0.002481
9.890000E-8	0.002497
9.895000E-8	0.002584
9.900000E-8	0.002591
9.905000E-8	0.002625
9.910000E-8	0.002597
9.915000E-8	0.002600
9.920000E-8	0.002587
9.925000E-8	0.002594
9.930000E-8	0.002509
9.935000E-8	0.002447
9.940000E-8	0.002272
9.945000E-8	0.002256
9.950000E-8	0.002213
9.955000E-8	0.002141
9.960000E-8	0.002181
9.965000E-8	0.002072
9.970000E-8	0.002000
9.975000E-8	0.002066
9.980000E-8	0.002097
9.985000E-8	0.002188
9.990000E-8	0.002234
9.995000E-8	0.002294
