LabVIEW Measurement	
Writer_Version	2
Reader_Version	2
Separator	Tab
Decimal_Separator	.
Multi_Headings	No
X_Columns	Multi
Time_Pref	Relative
Operator	TG lab
Date	2015/03/06
Time	19:47:10.7745800018310546875
***End_of_Header***	
	
Channels	1	
Samples	2000	
Date	2015/03/06	
Time	19:47:10.7745800018310546875	
X_Dimension	Time	
X0	0.0000000000000000E+0	
Delta_X	5.000000E-11	
***End_of_Header***		
X_Value	Untitled	Comment
0.000000	0.002328
5.000000E-11	0.002419
1.000000E-10	0.002275
1.500000E-10	0.002297
2.000000E-10	0.002172
2.500000E-10	0.002222
3.000000E-10	0.002169
3.500000E-10	0.002259
4.000000E-10	0.002159
4.500000E-10	0.002213
5.000000E-10	0.002178
5.500000E-10	0.002334
6.000000E-10	0.002319
6.500000E-10	0.002428
7.000000E-10	0.002375
7.500000E-10	0.002453
8.000000E-10	0.002272
8.500000E-10	0.002241
9.000000E-10	0.002131
9.500000E-10	0.002147
1.000000E-9	0.002138
1.050000E-9	0.002087
1.100000E-9	0.002097
1.150000E-9	0.002259
1.200000E-9	0.002197
1.250000E-9	0.002391
1.300000E-9	0.002391
1.350000E-9	0.002437
1.400000E-9	0.002484
1.450000E-9	0.002569
1.500000E-9	0.002584
1.550000E-9	0.002772
1.600000E-9	0.002756
1.650000E-9	0.002859
1.700000E-9	0.002819
1.750000E-9	0.002784
1.800000E-9	0.002647
1.850000E-9	0.002647
1.900000E-9	0.002575
1.950000E-9	0.002606
2.000000E-9	0.002672
2.050000E-9	0.002675
2.100000E-9	0.002713
2.150000E-9	0.002725
2.200000E-9	0.002763
2.250000E-9	0.002869
2.300000E-9	0.002878
2.350000E-9	0.002791
2.400000E-9	0.002672
2.450000E-9	0.002594
2.500000E-9	0.002638
2.550000E-9	0.002659
2.600000E-9	0.002647
2.650000E-9	0.002703
2.700000E-9	0.002866
2.750000E-9	0.002956
2.800000E-9	0.002897
2.850000E-9	0.003041
2.900000E-9	0.002947
2.950000E-9	0.002853
3.000000E-9	0.002888
3.050000E-9	0.002922
3.100000E-9	0.002925
3.150000E-9	0.002934
3.200000E-9	0.002925
3.250000E-9	0.003028
3.300000E-9	0.003006
3.350000E-9	0.003181
3.400000E-9	0.003219
3.450000E-9	0.003319
3.500000E-9	0.003356
3.550000E-9	0.003403
3.600000E-9	0.003469
3.650000E-9	0.003459
3.700000E-9	0.003481
3.750000E-9	0.003531
3.800000E-9	0.003494
3.850000E-9	0.003634
3.900000E-9	0.003813
3.950000E-9	0.003888
4.000000E-9	0.003872
4.050000E-9	0.004031
4.100000E-9	0.004100
4.150000E-9	0.004400
4.200000E-9	0.004613
4.250000E-9	0.005009
4.300000E-9	0.005322
4.350000E-9	0.005694
4.400000E-9	0.006219
4.450000E-9	0.006766
4.500000E-9	0.007550
4.550000E-9	0.008178
4.600000E-9	0.008981
4.650000E-9	0.009875
4.700000E-9	0.010906
4.750000E-9	0.012209
4.800000E-9	0.013422
4.850000E-9	0.014909
4.900000E-9	0.016603
4.950000E-9	0.018525
5.000000E-9	0.020238
5.050000E-9	0.022072
5.100000E-9	0.023794
5.150000E-9	0.025309
5.200000E-9	0.026619
5.250000E-9	0.027563
5.300000E-9	0.028269
5.350000E-9	0.028647
5.400000E-9	0.028794
5.450000E-9	0.028938
5.500000E-9	0.028766
5.550000E-9	0.028694
5.600000E-9	0.028525
5.650000E-9	0.028416
5.700000E-9	0.028250
5.750000E-9	0.028019
5.800000E-9	0.027409
5.850000E-9	0.026622
5.900000E-9	0.025669
5.950000E-9	0.024444
6.000000E-9	0.023013
6.050000E-9	0.021525
6.100000E-9	0.019903
6.150000E-9	0.018581
6.200000E-9	0.017281
6.250000E-9	0.016387
6.300000E-9	0.015709
6.350000E-9	0.015447
6.400000E-9	0.015416
6.450000E-9	0.015841
6.500000E-9	0.016219
6.550000E-9	0.016847
6.600000E-9	0.017487
6.650000E-9	0.018172
6.700000E-9	0.018812
6.750000E-9	0.019322
6.800000E-9	0.019613
6.850000E-9	0.019750
6.900000E-9	0.019697
6.950000E-9	0.019481
7.000000E-9	0.019113
7.050000E-9	0.018603
7.100000E-9	0.017884
7.150000E-9	0.017003
7.200000E-9	0.016081
7.250000E-9	0.015050
7.300000E-9	0.013997
7.350000E-9	0.013113
7.400000E-9	0.012225
7.450000E-9	0.011281
7.500000E-9	0.010719
7.550000E-9	0.010344
7.600000E-9	0.009997
7.650000E-9	0.009959
7.700000E-9	0.010159
7.750000E-9	0.010547
7.800000E-9	0.011075
7.850000E-9	0.011709
7.900000E-9	0.012359
7.950000E-9	0.013163
8.000000E-9	0.013763
8.050000E-9	0.014344
8.100000E-9	0.014853
8.150000E-9	0.015137
8.200000E-9	0.014981
8.250000E-9	0.015000
8.300000E-9	0.014625
8.350000E-9	0.014109
8.400000E-9	0.013453
8.450000E-9	0.012697
8.500000E-9	0.011694
8.550000E-9	0.010756
8.600000E-9	0.009722
8.650000E-9	0.008809
8.700000E-9	0.007803
8.750000E-9	0.007178
8.800000E-9	0.006625
8.850000E-9	0.006416
8.900000E-9	0.006378
8.950000E-9	0.006625
9.000000E-9	0.006950
9.050000E-9	0.007488
9.100000E-9	0.008056
9.150000E-9	0.008878
9.200000E-9	0.009672
9.250000E-9	0.010453
9.300000E-9	0.011069
9.350000E-9	0.011575
9.400000E-9	0.011769
9.450000E-9	0.011897
9.500000E-9	0.011681
9.550000E-9	0.011309
9.600000E-9	0.010791
9.650000E-9	0.010244
9.700000E-9	0.009388
9.750000E-9	0.008647
9.800000E-9	0.007772
9.850000E-9	0.006900
9.900000E-9	0.006112
9.950000E-9	0.005419
1.000000E-8	0.004806
1.005000E-8	0.004441
1.010000E-8	0.004150
1.015000E-8	0.004222
1.020000E-8	0.004284
1.025000E-8	0.004700
1.030000E-8	0.005184
1.035000E-8	0.005972
1.040000E-8	0.006669
1.045000E-8	0.007463
1.050000E-8	0.008247
1.055000E-8	0.008975
1.060000E-8	0.009588
1.065000E-8	0.009975
1.070000E-8	0.010106
1.075000E-8	0.010184
1.080000E-8	0.010019
1.085000E-8	0.009597
1.090000E-8	0.009050
1.095000E-8	0.008409
1.100000E-8	0.007478
1.105000E-8	0.006572
1.110000E-8	0.005606
1.115000E-8	0.004741
1.120000E-8	0.003962
1.125000E-8	0.003403
1.130000E-8	0.002816
1.135000E-8	0.002597
1.140000E-8	0.002566
1.145000E-8	0.002766
1.150000E-8	0.003075
1.155000E-8	0.003613
1.160000E-8	0.004259
1.165000E-8	0.004922
1.170000E-8	0.005666
1.175000E-8	0.006547
1.180000E-8	0.007103
1.185000E-8	0.007809
1.190000E-8	0.008259
1.195000E-8	0.008481
1.200000E-8	0.008438
1.205000E-8	0.008400
1.210000E-8	0.008094
1.215000E-8	0.007387
1.220000E-8	0.006616
1.225000E-8	0.005788
1.230000E-8	0.004947
1.235000E-8	0.004141
1.240000E-8	0.003278
1.245000E-8	0.002566
1.250000E-8	0.002003
1.255000E-8	0.001559
1.260000E-8	0.001306
1.265000E-8	0.001381
1.270000E-8	0.001541
1.275000E-8	0.002056
1.280000E-8	0.002459
1.285000E-8	0.003188
1.290000E-8	0.003972
1.295000E-8	0.004803
1.300000E-8	0.005509
1.305000E-8	0.006353
1.310000E-8	0.006888
1.315000E-8	0.007309
1.320000E-8	0.007653
1.325000E-8	0.007834
1.330000E-8	0.007756
1.335000E-8	0.007478
1.340000E-8	0.007063
1.345000E-8	0.006503
1.350000E-8	0.005713
1.355000E-8	0.004806
1.360000E-8	0.003909
1.365000E-8	0.003253
1.370000E-8	0.002450
1.375000E-8	0.001881
1.380000E-8	0.001331
1.385000E-8	0.001063
1.390000E-8	0.001078
1.395000E-8	0.001269
1.400000E-8	0.001609
1.405000E-8	0.002106
1.410000E-8	0.002741
1.415000E-8	0.003334
1.420000E-8	0.004169
1.425000E-8	0.004997
1.430000E-8	0.005622
1.435000E-8	0.006247
1.440000E-8	0.006581
1.445000E-8	0.006991
1.450000E-8	0.007000
1.455000E-8	0.006962
1.460000E-8	0.006572
1.465000E-8	0.006241
1.470000E-8	0.005566
1.475000E-8	0.004853
1.480000E-8	0.004000
1.485000E-8	0.003256
1.490000E-8	0.002441
1.495000E-8	0.001641
1.500000E-8	0.001056
1.505000E-8	0.000609
1.510000E-8	0.000338
1.515000E-8	0.000438
1.520000E-8	0.000531
1.525000E-8	0.000859
1.530000E-8	0.001403
1.535000E-8	0.001984
1.540000E-8	0.002647
1.545000E-8	0.003419
1.550000E-8	0.004184
1.555000E-8	0.004872
1.560000E-8	0.005387
1.565000E-8	0.005872
1.570000E-8	0.006131
1.575000E-8	0.006313
1.580000E-8	0.006172
1.585000E-8	0.005978
1.590000E-8	0.005488
1.595000E-8	0.005050
1.600000E-8	0.004297
1.605000E-8	0.003666
1.610000E-8	0.002875
1.615000E-8	0.002237
1.620000E-8	0.001550
1.625000E-8	0.001050
1.630000E-8	0.000700
1.635000E-8	0.000503
1.640000E-8	0.000316
1.645000E-8	0.000412
1.650000E-8	0.000625
1.655000E-8	0.001128
1.660000E-8	0.001625
1.665000E-8	0.002428
1.670000E-8	0.003184
1.675000E-8	0.003991
1.680000E-8	0.004706
1.685000E-8	0.005281
1.690000E-8	0.005606
1.695000E-8	0.006025
1.700000E-8	0.006034
1.705000E-8	0.006028
1.710000E-8	0.005634
1.715000E-8	0.005294
1.720000E-8	0.004769
1.725000E-8	0.004144
1.730000E-8	0.003447
1.735000E-8	0.002800
1.740000E-8	0.002125
1.745000E-8	0.001531
1.750000E-8	0.000928
1.755000E-8	0.000569
1.760000E-8	0.000184
1.765000E-8	0.000197
1.770000E-8	0.000184
1.775000E-8	0.000453
1.780000E-8	0.000959
1.785000E-8	0.001475
1.790000E-8	0.002141
1.795000E-8	0.002847
1.800000E-8	0.003553
1.805000E-8	0.004172
1.810000E-8	0.004719
1.815000E-8	0.005184
1.820000E-8	0.005391
1.825000E-8	0.005537
1.830000E-8	0.005491
1.835000E-8	0.005206
1.840000E-8	0.004844
1.845000E-8	0.004403
1.850000E-8	0.003675
1.855000E-8	0.002941
1.860000E-8	0.002388
1.865000E-8	0.001850
1.870000E-8	0.001219
1.875000E-8	0.000816
1.880000E-8	0.000366
1.885000E-8	0.000128
1.890000E-8	1.562500E-5
1.895000E-8	9.375000E-5
1.900000E-8	0.000359
1.905000E-8	0.000747
1.910000E-8	0.001172
1.915000E-8	0.001847
1.920000E-8	0.002491
1.925000E-8	0.003256
1.930000E-8	0.003813
1.935000E-8	0.004556
1.940000E-8	0.004944
1.945000E-8	0.005322
1.950000E-8	0.005422
1.955000E-8	0.005369
1.960000E-8	0.005169
1.965000E-8	0.004869
1.970000E-8	0.004291
1.975000E-8	0.003716
1.980000E-8	0.003038
1.985000E-8	0.002444
1.990000E-8	0.001722
1.995000E-8	0.001253
2.000000E-8	0.000778
2.005000E-8	0.000416
2.010000E-8	0.000166
2.015000E-8	7.187500E-5
2.020000E-8	0.000222
2.025000E-8	0.000356
2.030000E-8	0.000609
2.035000E-8	0.001163
2.040000E-8	0.001575
2.045000E-8	0.002166
2.050000E-8	0.002819
2.055000E-8	0.003381
2.060000E-8	0.003878
2.065000E-8	0.004394
2.070000E-8	0.004775
2.075000E-8	0.005050
2.080000E-8	0.005097
2.085000E-8	0.005053
2.090000E-8	0.004806
2.095000E-8	0.004359
2.100000E-8	0.003772
2.105000E-8	0.003206
2.110000E-8	0.002634
2.115000E-8	0.001909
2.120000E-8	0.001316
2.125000E-8	0.000813
2.130000E-8	0.000256
2.135000E-8	0.000116
2.140000E-8	3.750000E-5
2.145000E-8	8.437500E-5
2.150000E-8	0.000253
2.155000E-8	0.000578
2.160000E-8	0.000966
2.165000E-8	0.001500
2.170000E-8	0.002066
2.175000E-8	0.002569
2.180000E-8	0.003169
2.185000E-8	0.003716
2.190000E-8	0.004141
2.195000E-8	0.004550
2.200000E-8	0.004756
2.205000E-8	0.004959
2.210000E-8	0.004841
2.215000E-8	0.004662
2.220000E-8	0.004291
2.225000E-8	0.003872
2.230000E-8	0.003413
2.235000E-8	0.002906
2.240000E-8	0.002266
2.245000E-8	0.001791
2.250000E-8	0.001272
2.255000E-8	0.000809
2.260000E-8	0.000425
2.265000E-8	0.000269
2.270000E-8	0.000181
2.275000E-8	0.000263
2.280000E-8	0.000328
2.285000E-8	0.000750
2.290000E-8	0.001169
2.295000E-8	0.001744
2.300000E-8	0.002425
2.305000E-8	0.002984
2.310000E-8	0.003597
2.315000E-8	0.004225
2.320000E-8	0.004603
2.325000E-8	0.004888
2.330000E-8	0.004909
2.335000E-8	0.004966
2.340000E-8	0.004784
2.345000E-8	0.004378
2.350000E-8	0.003872
2.355000E-8	0.003428
2.360000E-8	0.002838
2.365000E-8	0.002216
2.370000E-8	0.001531
2.375000E-8	0.001131
2.380000E-8	0.000541
2.385000E-8	0.000250
2.390000E-8	0.000156
2.395000E-8	0.000106
2.400000E-8	0.000181
2.405000E-8	0.000344
2.410000E-8	0.000594
2.415000E-8	0.001044
2.420000E-8	0.001653
2.425000E-8	0.002341
2.430000E-8	0.002869
2.435000E-8	0.003538
2.440000E-8	0.003981
2.445000E-8	0.004309
2.450000E-8	0.004544
2.455000E-8	0.004750
2.460000E-8	0.004616
2.465000E-8	0.004556
2.470000E-8	0.004231
2.475000E-8	0.003753
2.480000E-8	0.003197
2.485000E-8	0.002681
2.490000E-8	0.002087
2.495000E-8	0.001591
2.500000E-8	0.000934
2.505000E-8	0.000559
2.510000E-8	0.000328
2.515000E-8	0.000234
2.520000E-8	8.750000E-5
2.525000E-8	0.000281
2.530000E-8	0.000600
2.535000E-8	0.000931
2.540000E-8	0.001241
2.545000E-8	0.001934
2.550000E-8	0.002497
2.555000E-8	0.003063
2.560000E-8	0.003463
2.565000E-8	0.003856
2.570000E-8	0.004094
2.575000E-8	0.004350
2.580000E-8	0.004444
2.585000E-8	0.004419
2.590000E-8	0.004259
2.595000E-8	0.004116
2.600000E-8	0.003750
2.605000E-8	0.003334
2.610000E-8	0.002891
2.615000E-8	0.002413
2.620000E-8	0.001872
2.625000E-8	0.001472
2.630000E-8	0.000956
2.635000E-8	0.000494
2.640000E-8	5.000000E-5
2.645000E-8	-3.125000E-6
2.650000E-8	-0.000116
2.655000E-8	6.562500E-5
2.660000E-8	0.000378
2.665000E-8	0.000756
2.670000E-8	0.001297
2.675000E-8	0.001825
2.680000E-8	0.002400
2.685000E-8	0.003084
2.690000E-8	0.003475
2.695000E-8	0.003856
2.700000E-8	0.004041
2.705000E-8	0.004213
2.710000E-8	0.004231
2.715000E-8	0.004094
2.720000E-8	0.003869
2.725000E-8	0.003603
2.730000E-8	0.003169
2.735000E-8	0.002713
2.740000E-8	0.002256
2.745000E-8	0.001794
2.750000E-8	0.001463
2.755000E-8	0.001056
2.760000E-8	0.000650
2.765000E-8	0.000422
2.770000E-8	0.000237
2.775000E-8	0.000175
2.780000E-8	0.000269
2.785000E-8	0.000619
2.790000E-8	0.000944
2.795000E-8	0.001384
2.800000E-8	0.001897
2.805000E-8	0.002481
2.810000E-8	0.002938
2.815000E-8	0.003494
2.820000E-8	0.003725
2.825000E-8	0.004053
2.830000E-8	0.004194
2.835000E-8	0.004241
2.840000E-8	0.004116
2.845000E-8	0.003981
2.850000E-8	0.003616
2.855000E-8	0.003275
2.860000E-8	0.002816
2.865000E-8	0.002378
2.870000E-8	0.001916
2.875000E-8	0.001516
2.880000E-8	0.000953
2.885000E-8	0.000706
2.890000E-8	0.000397
2.895000E-8	0.000366
2.900000E-8	0.000284
2.905000E-8	0.000422
2.910000E-8	0.000559
2.915000E-8	0.000953
2.920000E-8	0.001275
2.925000E-8	0.001863
2.930000E-8	0.002409
2.935000E-8	0.002800
2.940000E-8	0.003259
2.945000E-8	0.003663
2.950000E-8	0.003956
2.955000E-8	0.004109
2.960000E-8	0.004231
2.965000E-8	0.004175
2.970000E-8	0.003944
2.975000E-8	0.003719
2.980000E-8	0.003228
2.985000E-8	0.002859
2.990000E-8	0.002325
2.995000E-8	0.001959
3.000000E-8	0.001397
3.005000E-8	0.001088
3.010000E-8	0.000706
3.015000E-8	0.000528
3.020000E-8	0.000444
3.025000E-8	0.000553
3.030000E-8	0.000641
3.035000E-8	0.001072
3.040000E-8	0.001284
3.045000E-8	0.001659
3.050000E-8	0.001906
3.055000E-8	0.002334
3.060000E-8	0.002722
3.065000E-8	0.003097
3.070000E-8	0.003334
3.075000E-8	0.003600
3.080000E-8	0.003641
3.085000E-8	0.003775
3.090000E-8	0.003813
3.095000E-8	0.003672
3.100000E-8	0.003506
3.105000E-8	0.003434
3.110000E-8	0.003016
3.115000E-8	0.002750
3.120000E-8	0.002284
3.125000E-8	0.001991
3.130000E-8	0.001525
3.135000E-8	0.001291
3.140000E-8	0.001012
3.145000E-8	0.000881
3.150000E-8	0.000828
3.155000E-8	0.000934
3.160000E-8	0.001016
3.165000E-8	0.001409
3.170000E-8	0.001838
3.175000E-8	0.002178
3.180000E-8	0.002528
3.185000E-8	0.002956
3.190000E-8	0.003306
3.195000E-8	0.003681
3.200000E-8	0.003859
3.205000E-8	0.004109
3.210000E-8	0.004134
3.215000E-8	0.004044
3.220000E-8	0.003909
3.225000E-8	0.003691
3.230000E-8	0.003416
3.235000E-8	0.003025
3.240000E-8	0.002631
3.245000E-8	0.002191
3.250000E-8	0.001816
3.255000E-8	0.001453
3.260000E-8	0.001047
3.265000E-8	0.000891
3.270000E-8	0.000716
3.275000E-8	0.000697
3.280000E-8	0.000778
3.285000E-8	0.000947
3.290000E-8	0.001197
3.295000E-8	0.001437
3.300000E-8	0.001656
3.305000E-8	0.002041
3.310000E-8	0.002434
3.315000E-8	0.002850
3.320000E-8	0.003069
3.325000E-8	0.003391
3.330000E-8	0.003613
3.335000E-8	0.003778
3.340000E-8	0.003772
3.345000E-8	0.003803
3.350000E-8	0.003500
3.355000E-8	0.003256
3.360000E-8	0.002922
3.365000E-8	0.002600
3.370000E-8	0.002156
3.375000E-8	0.001775
3.380000E-8	0.001297
3.385000E-8	0.001047
3.390000E-8	0.000769
3.395000E-8	0.000703
3.400000E-8	0.000675
3.405000E-8	0.000772
3.410000E-8	0.000847
3.415000E-8	0.001081
3.420000E-8	0.001369
3.425000E-8	0.001872
3.430000E-8	0.002291
3.435000E-8	0.002669
3.440000E-8	0.002853
3.445000E-8	0.003113
3.450000E-8	0.003375
3.455000E-8	0.003512
3.460000E-8	0.003631
3.465000E-8	0.003634
3.470000E-8	0.003428
3.475000E-8	0.003278
3.480000E-8	0.002906
3.485000E-8	0.002613
3.490000E-8	0.002241
3.495000E-8	0.001922
3.500000E-8	0.001534
3.505000E-8	0.001309
3.510000E-8	0.001000
3.515000E-8	0.000819
3.520000E-8	0.000756
3.525000E-8	0.000728
3.530000E-8	0.000678
3.535000E-8	0.000909
3.540000E-8	0.001025
3.545000E-8	0.001406
3.550000E-8	0.001687
3.555000E-8	0.002094
3.560000E-8	0.002453
3.565000E-8	0.002788
3.570000E-8	0.003047
3.575000E-8	0.003275
3.580000E-8	0.003525
3.585000E-8	0.003759
3.590000E-8	0.003775
3.595000E-8	0.003816
3.600000E-8	0.003688
3.605000E-8	0.003550
3.610000E-8	0.003297
3.615000E-8	0.002991
3.620000E-8	0.002534
3.625000E-8	0.002128
3.630000E-8	0.001831
3.635000E-8	0.001544
3.640000E-8	0.001263
3.645000E-8	0.001088
3.650000E-8	0.000975
3.655000E-8	0.000913
3.660000E-8	0.000947
3.665000E-8	0.001213
3.670000E-8	0.001400
3.675000E-8	0.001622
3.680000E-8	0.001834
3.685000E-8	0.002150
3.690000E-8	0.002478
3.695000E-8	0.002850
3.700000E-8	0.003025
3.705000E-8	0.003138
3.710000E-8	0.003425
3.715000E-8	0.003497
3.720000E-8	0.003506
3.725000E-8	0.003506
3.730000E-8	0.003256
3.735000E-8	0.002969
3.740000E-8	0.002609
3.745000E-8	0.002288
3.750000E-8	0.001931
3.755000E-8	0.001753
3.760000E-8	0.001378
3.765000E-8	0.001225
3.770000E-8	0.001009
3.775000E-8	0.000928
3.780000E-8	0.000916
3.785000E-8	0.001178
3.790000E-8	0.001219
3.795000E-8	0.001609
3.800000E-8	0.001738
3.805000E-8	0.002113
3.810000E-8	0.002263
3.815000E-8	0.002541
3.820000E-8	0.002622
3.825000E-8	0.002791
3.830000E-8	0.002913
3.835000E-8	0.002966
3.840000E-8	0.002966
3.845000E-8	0.003019
3.850000E-8	0.003022
3.855000E-8	0.002959
3.860000E-8	0.002659
3.865000E-8	0.002559
3.870000E-8	0.002272
3.875000E-8	0.002084
3.880000E-8	0.001672
3.885000E-8	0.001553
3.890000E-8	0.001325
3.895000E-8	0.001103
3.900000E-8	0.001072
3.905000E-8	0.001050
3.910000E-8	0.000941
3.915000E-8	0.001084
3.920000E-8	0.001250
3.925000E-8	0.001494
3.930000E-8	0.001744
3.935000E-8	0.002066
3.940000E-8	0.002350
3.945000E-8	0.002753
3.950000E-8	0.003003
3.955000E-8	0.003278
3.960000E-8	0.003350
3.965000E-8	0.003450
3.970000E-8	0.003434
3.975000E-8	0.003416
3.980000E-8	0.003253
3.985000E-8	0.002931
3.990000E-8	0.002694
3.995000E-8	0.002416
4.000000E-8	0.002041
4.005000E-8	0.001844
4.010000E-8	0.001547
4.015000E-8	0.001256
4.020000E-8	0.001153
4.025000E-8	0.001022
4.030000E-8	0.001006
4.035000E-8	0.001041
4.040000E-8	0.001094
4.045000E-8	0.001341
4.050000E-8	0.001541
4.055000E-8	0.001878
4.060000E-8	0.002044
4.065000E-8	0.002306
4.070000E-8	0.002587
4.075000E-8	0.002894
4.080000E-8	0.002959
4.085000E-8	0.003063
4.090000E-8	0.003147
4.095000E-8	0.003303
4.100000E-8	0.003153
4.105000E-8	0.003162
4.110000E-8	0.002953
4.115000E-8	0.002775
4.120000E-8	0.002466
4.125000E-8	0.002141
4.130000E-8	0.001934
4.135000E-8	0.001656
4.140000E-8	0.001403
4.145000E-8	0.001319
4.150000E-8	0.001184
4.155000E-8	0.001166
4.160000E-8	0.001213
4.165000E-8	0.001369
4.170000E-8	0.001634
4.175000E-8	0.001866
4.180000E-8	0.002097
4.185000E-8	0.002416
4.190000E-8	0.002737
4.195000E-8	0.002894
4.200000E-8	0.003075
4.205000E-8	0.003228
4.210000E-8	0.003275
4.215000E-8	0.003338
4.220000E-8	0.003291
4.225000E-8	0.003244
4.230000E-8	0.003203
4.235000E-8	0.002947
4.240000E-8	0.002647
4.245000E-8	0.002319
4.250000E-8	0.002081
4.255000E-8	0.001828
4.260000E-8	0.001559
4.265000E-8	0.001341
4.270000E-8	0.001050
4.275000E-8	0.000984
4.280000E-8	0.000959
4.285000E-8	0.001072
4.290000E-8	0.001025
4.295000E-8	0.001206
4.300000E-8	0.001416
4.305000E-8	0.001847
4.310000E-8	0.001931
4.315000E-8	0.002297
4.320000E-8	0.002478
4.325000E-8	0.002788
4.330000E-8	0.002822
4.335000E-8	0.002959
4.340000E-8	0.002891
4.345000E-8	0.002838
4.350000E-8	0.002872
4.355000E-8	0.002703
4.360000E-8	0.002587
4.365000E-8	0.002406
4.370000E-8	0.002331
4.375000E-8	0.002244
4.380000E-8	0.001953
4.385000E-8	0.001937
4.390000E-8	0.001675
4.395000E-8	0.001612
4.400000E-8	0.001447
4.405000E-8	0.001437
4.410000E-8	0.001359
4.415000E-8	0.001391
4.420000E-8	0.001400
4.425000E-8	0.001641
4.430000E-8	0.001725
4.435000E-8	0.002009
4.440000E-8	0.002291
4.445000E-8	0.002538
4.450000E-8	0.002813
4.455000E-8	0.003128
4.460000E-8	0.003216
4.465000E-8	0.003500
4.470000E-8	0.003416
4.475000E-8	0.003425
4.480000E-8	0.003344
4.485000E-8	0.003153
4.490000E-8	0.002838
4.495000E-8	0.002587
4.500000E-8	0.002181
4.505000E-8	0.001984
4.510000E-8	0.001653
4.515000E-8	0.001388
4.520000E-8	0.001119
4.525000E-8	0.001088
4.530000E-8	0.001075
4.535000E-8	0.001091
4.540000E-8	0.001031
4.545000E-8	0.001222
4.550000E-8	0.001384
4.555000E-8	0.001697
4.560000E-8	0.001944
4.565000E-8	0.002116
4.570000E-8	0.002303
4.575000E-8	0.002678
4.580000E-8	0.002853
4.585000E-8	0.002981
4.590000E-8	0.003072
4.595000E-8	0.003175
4.600000E-8	0.003138
4.605000E-8	0.003125
4.610000E-8	0.002991
4.615000E-8	0.002769
4.620000E-8	0.002488
4.625000E-8	0.002316
4.630000E-8	0.002050
4.635000E-8	0.001838
4.640000E-8	0.001481
4.645000E-8	0.001263
4.650000E-8	0.001019
4.655000E-8	0.001034
4.660000E-8	0.001016
4.665000E-8	0.001122
4.670000E-8	0.001184
4.675000E-8	0.001366
4.680000E-8	0.001638
4.685000E-8	0.001966
4.690000E-8	0.002263
4.695000E-8	0.002581
4.700000E-8	0.002650
4.705000E-8	0.002888
4.710000E-8	0.002994
4.715000E-8	0.003063
4.720000E-8	0.003019
4.725000E-8	0.003019
4.730000E-8	0.002972
4.735000E-8	0.002919
4.740000E-8	0.002772
4.745000E-8	0.002534
4.750000E-8	0.002397
4.755000E-8	0.002234
4.760000E-8	0.002016
4.765000E-8	0.001922
4.770000E-8	0.001706
4.775000E-8	0.001466
4.780000E-8	0.001331
4.785000E-8	0.001316
4.790000E-8	0.001306
4.795000E-8	0.001256
4.800000E-8	0.001291
4.805000E-8	0.001403
4.810000E-8	0.001519
4.815000E-8	0.001713
4.820000E-8	0.001953
4.825000E-8	0.002216
4.830000E-8	0.002566
4.835000E-8	0.002709
4.840000E-8	0.002850
4.845000E-8	0.002969
4.850000E-8	0.003006
4.855000E-8	0.003103
4.860000E-8	0.002903
4.865000E-8	0.002763
4.870000E-8	0.002494
4.875000E-8	0.002241
4.880000E-8	0.001956
4.885000E-8	0.001734
4.890000E-8	0.001384
4.895000E-8	0.001187
4.900000E-8	0.001125
4.905000E-8	0.001103
4.910000E-8	0.000997
4.915000E-8	0.001150
4.920000E-8	0.001231
4.925000E-8	0.001519
4.930000E-8	0.001753
4.935000E-8	0.002078
4.940000E-8	0.002394
4.945000E-8	0.002672
4.950000E-8	0.002913
4.955000E-8	0.003031
4.960000E-8	0.003209
4.965000E-8	0.003391
4.970000E-8	0.003441
4.975000E-8	0.003450
4.980000E-8	0.003303
4.985000E-8	0.003153
4.990000E-8	0.002872
4.995000E-8	0.002688
5.000000E-8	0.002297
5.005000E-8	0.002059
5.010000E-8	0.001719
5.015000E-8	0.001494
5.020000E-8	0.001256
5.025000E-8	0.001150
5.030000E-8	0.001178
5.035000E-8	0.001166
5.040000E-8	0.001191
5.045000E-8	0.001325
5.050000E-8	0.001391
5.055000E-8	0.001616
5.060000E-8	0.001841
5.065000E-8	0.002106
5.070000E-8	0.002184
5.075000E-8	0.002425
5.080000E-8	0.002616
5.085000E-8	0.002928
5.090000E-8	0.002991
5.095000E-8	0.003153
5.100000E-8	0.003006
5.105000E-8	0.002981
5.110000E-8	0.002763
5.115000E-8	0.002684
5.120000E-8	0.002488
5.125000E-8	0.002291
5.130000E-8	0.002063
5.135000E-8	0.001734
5.140000E-8	0.001550
5.145000E-8	0.001437
5.150000E-8	0.001359
5.155000E-8	0.001291
5.160000E-8	0.001378
5.165000E-8	0.001362
5.170000E-8	0.001469
5.175000E-8	0.001728
5.180000E-8	0.001891
5.185000E-8	0.002097
5.190000E-8	0.002175
5.195000E-8	0.002441
5.200000E-8	0.002522
5.205000E-8	0.002734
5.210000E-8	0.002828
5.215000E-8	0.002944
5.220000E-8	0.002925
5.225000E-8	0.002997
5.230000E-8	0.003031
5.235000E-8	0.002838
5.240000E-8	0.002697
5.245000E-8	0.002556
5.250000E-8	0.002309
5.255000E-8	0.002162
5.260000E-8	0.001966
5.265000E-8	0.001759
5.270000E-8	0.001622
5.275000E-8	0.001434
5.280000E-8	0.001281
5.285000E-8	0.001322
5.290000E-8	0.001266
5.295000E-8	0.001303
5.300000E-8	0.001516
5.305000E-8	0.001797
5.310000E-8	0.001934
5.315000E-8	0.002234
5.320000E-8	0.002369
5.325000E-8	0.002656
5.330000E-8	0.002844
5.335000E-8	0.003150
5.340000E-8	0.003178
5.345000E-8	0.003275
5.350000E-8	0.003372
5.355000E-8	0.003425
5.360000E-8	0.003247
5.365000E-8	0.003097
5.370000E-8	0.002756
5.375000E-8	0.002584
5.380000E-8	0.002172
5.385000E-8	0.001978
5.390000E-8	0.001669
5.395000E-8	0.001494
5.400000E-8	0.001297
5.405000E-8	0.001303
5.410000E-8	0.001187
5.415000E-8	0.001247
5.420000E-8	0.001184
5.425000E-8	0.001413
5.430000E-8	0.001519
5.435000E-8	0.001900
5.440000E-8	0.001956
5.445000E-8	0.002181
5.450000E-8	0.002203
5.455000E-8	0.002525
5.460000E-8	0.002569
5.465000E-8	0.002725
5.470000E-8	0.002803
5.475000E-8	0.002878
5.480000E-8	0.002866
5.485000E-8	0.002794
5.490000E-8	0.002684
5.495000E-8	0.002478
5.500000E-8	0.002244
5.505000E-8	0.002172
5.510000E-8	0.001891
5.515000E-8	0.001678
5.520000E-8	0.001500
5.525000E-8	0.001472
5.530000E-8	0.001256
5.535000E-8	0.001403
5.540000E-8	0.001325
5.545000E-8	0.001459
5.550000E-8	0.001581
5.555000E-8	0.001731
5.560000E-8	0.001844
5.565000E-8	0.002041
5.570000E-8	0.002178
5.575000E-8	0.002469
5.580000E-8	0.002606
5.585000E-8	0.002884
5.590000E-8	0.003012
5.595000E-8	0.003075
5.600000E-8	0.003066
5.605000E-8	0.003169
5.610000E-8	0.002981
5.615000E-8	0.002903
5.620000E-8	0.002647
5.625000E-8	0.002353
5.630000E-8	0.002109
5.635000E-8	0.002025
5.640000E-8	0.001591
5.645000E-8	0.001403
5.650000E-8	0.001181
5.655000E-8	0.001103
5.660000E-8	0.000913
5.665000E-8	0.001109
5.670000E-8	0.001219
5.675000E-8	0.001491
5.680000E-8	0.001566
5.685000E-8	0.001906
5.690000E-8	0.002050
5.695000E-8	0.002206
5.700000E-8	0.002294
5.705000E-8	0.002469
5.710000E-8	0.002547
5.715000E-8	0.002816
5.720000E-8	0.002784
5.725000E-8	0.002831
5.730000E-8	0.002797
5.735000E-8	0.002819
5.740000E-8	0.002725
5.745000E-8	0.002775
5.750000E-8	0.002606
5.755000E-8	0.002553
5.760000E-8	0.002269
5.765000E-8	0.002094
5.770000E-8	0.001872
5.775000E-8	0.001644
5.780000E-8	0.001503
5.785000E-8	0.001553
5.790000E-8	0.001503
5.795000E-8	0.001541
5.800000E-8	0.001556
5.805000E-8	0.001819
5.810000E-8	0.001950
5.815000E-8	0.002131
5.820000E-8	0.002459
5.825000E-8	0.002688
5.830000E-8	0.002769
5.835000E-8	0.002950
5.840000E-8	0.003087
5.845000E-8	0.003153
5.850000E-8	0.002909
5.855000E-8	0.002972
5.860000E-8	0.002875
5.865000E-8	0.002763
5.870000E-8	0.002497
5.875000E-8	0.002466
5.880000E-8	0.002222
5.885000E-8	0.002128
5.890000E-8	0.001919
5.895000E-8	0.001863
5.900000E-8	0.001800
5.905000E-8	0.001687
5.910000E-8	0.001647
5.915000E-8	0.001763
5.920000E-8	0.001719
5.925000E-8	0.001797
5.930000E-8	0.001809
5.935000E-8	0.001941
5.940000E-8	0.001969
5.945000E-8	0.002181
5.950000E-8	0.002366
5.955000E-8	0.002447
5.960000E-8	0.002494
5.965000E-8	0.002662
5.970000E-8	0.002853
5.975000E-8	0.002922
5.980000E-8	0.002947
5.985000E-8	0.002988
5.990000E-8	0.002844
5.995000E-8	0.002653
6.000000E-8	0.002525
6.005000E-8	0.002416
6.010000E-8	0.002222
6.015000E-8	0.002172
6.020000E-8	0.002038
6.025000E-8	0.001828
6.030000E-8	0.001672
6.035000E-8	0.001697
6.040000E-8	0.001650
6.045000E-8	0.001728
6.050000E-8	0.001738
6.055000E-8	0.001856
6.060000E-8	0.001997
6.065000E-8	0.002250
6.070000E-8	0.002338
6.075000E-8	0.002422
6.080000E-8	0.002459
6.085000E-8	0.002653
6.090000E-8	0.002747
6.095000E-8	0.002872
6.100000E-8	0.002897
6.105000E-8	0.002975
6.110000E-8	0.002906
6.115000E-8	0.002838
6.120000E-8	0.002766
6.125000E-8	0.002628
6.130000E-8	0.002237
6.135000E-8	0.002075
6.140000E-8	0.001900
6.145000E-8	0.001794
6.150000E-8	0.001625
6.155000E-8	0.001569
6.160000E-8	0.001553
6.165000E-8	0.001569
6.170000E-8	0.001594
6.175000E-8	0.001741
6.180000E-8	0.001831
6.185000E-8	0.002069
6.190000E-8	0.002269
6.195000E-8	0.002409
6.200000E-8	0.002522
6.205000E-8	0.002656
6.210000E-8	0.002800
6.215000E-8	0.002897
6.220000E-8	0.002878
6.225000E-8	0.002872
6.230000E-8	0.002878
6.235000E-8	0.002634
6.240000E-8	0.002534
6.245000E-8	0.002353
6.250000E-8	0.002303
6.255000E-8	0.002122
6.260000E-8	0.002000
6.265000E-8	0.001888
6.270000E-8	0.001703
6.275000E-8	0.001806
6.280000E-8	0.001744
6.285000E-8	0.001622
6.290000E-8	0.001581
6.295000E-8	0.001681
6.300000E-8	0.001628
6.305000E-8	0.001656
6.310000E-8	0.001734
6.315000E-8	0.001909
6.320000E-8	0.002116
6.325000E-8	0.002328
6.330000E-8	0.002519
6.335000E-8	0.002719
6.340000E-8	0.002813
6.345000E-8	0.002791
6.350000E-8	0.002900
6.355000E-8	0.002972
6.360000E-8	0.002853
6.365000E-8	0.002744
6.370000E-8	0.002587
6.375000E-8	0.002591
6.380000E-8	0.002353
6.385000E-8	0.002237
6.390000E-8	0.002103
6.395000E-8	0.002044
6.400000E-8	0.001875
6.405000E-8	0.001781
6.410000E-8	0.001663
6.415000E-8	0.001750
6.420000E-8	0.001766
6.425000E-8	0.001750
6.430000E-8	0.001741
6.435000E-8	0.001803
6.440000E-8	0.001900
6.445000E-8	0.002131
6.450000E-8	0.002213
6.455000E-8	0.002512
6.460000E-8	0.002600
6.465000E-8	0.002694
6.470000E-8	0.002772
6.475000E-8	0.002934
6.480000E-8	0.002966
6.485000E-8	0.002875
6.490000E-8	0.002753
6.495000E-8	0.002694
6.500000E-8	0.002572
6.505000E-8	0.002375
6.510000E-8	0.002253
6.515000E-8	0.002028
6.520000E-8	0.001794
6.525000E-8	0.001816
6.530000E-8	0.001728
6.535000E-8	0.001541
6.540000E-8	0.001600
6.545000E-8	0.001556
6.550000E-8	0.001650
6.555000E-8	0.001734
6.560000E-8	0.001891
6.565000E-8	0.002150
6.570000E-8	0.002294
6.575000E-8	0.002497
6.580000E-8	0.002613
6.585000E-8	0.002778
6.590000E-8	0.002909
6.595000E-8	0.002934
6.600000E-8	0.002866
6.605000E-8	0.002969
6.610000E-8	0.002906
6.615000E-8	0.002772
6.620000E-8	0.002656
6.625000E-8	0.002544
6.630000E-8	0.002475
6.635000E-8	0.002437
6.640000E-8	0.002272
6.645000E-8	0.002231
6.650000E-8	0.002162
6.655000E-8	0.002022
6.660000E-8	0.001913
6.665000E-8	0.001984
6.670000E-8	0.001909
6.675000E-8	0.001919
6.680000E-8	0.001969
6.685000E-8	0.002075
6.690000E-8	0.002109
6.695000E-8	0.002237
6.700000E-8	0.002175
6.705000E-8	0.002338
6.710000E-8	0.002378
6.715000E-8	0.002578
6.720000E-8	0.002644
6.725000E-8	0.002628
6.730000E-8	0.002625
6.735000E-8	0.002662
6.740000E-8	0.002650
6.745000E-8	0.002703
6.750000E-8	0.002550
6.755000E-8	0.002400
6.760000E-8	0.002250
6.765000E-8	0.002200
6.770000E-8	0.001944
6.775000E-8	0.001725
6.780000E-8	0.001687
6.785000E-8	0.001625
6.790000E-8	0.001606
6.795000E-8	0.001697
6.800000E-8	0.001722
6.805000E-8	0.001916
6.810000E-8	0.001966
6.815000E-8	0.002191
6.820000E-8	0.002291
6.825000E-8	0.002453
6.830000E-8	0.002600
6.835000E-8	0.002703
6.840000E-8	0.002638
6.845000E-8	0.002722
6.850000E-8	0.002734
6.855000E-8	0.002956
6.860000E-8	0.002950
6.865000E-8	0.002863
6.870000E-8	0.002844
6.875000E-8	0.002703
6.880000E-8	0.002478
6.885000E-8	0.002500
6.890000E-8	0.002250
6.895000E-8	0.002172
6.900000E-8	0.001944
6.905000E-8	0.001947
6.910000E-8	0.001828
6.915000E-8	0.001866
6.920000E-8	0.001794
6.925000E-8	0.002034
6.930000E-8	0.001991
6.935000E-8	0.002056
6.940000E-8	0.002166
6.945000E-8	0.002353
6.950000E-8	0.002391
6.955000E-8	0.002409
6.960000E-8	0.002459
6.965000E-8	0.002503
6.970000E-8	0.002516
6.975000E-8	0.002656
6.980000E-8	0.002584
6.985000E-8	0.002709
6.990000E-8	0.002628
6.995000E-8	0.002613
7.000000E-8	0.002469
7.005000E-8	0.002378
7.010000E-8	0.002188
7.015000E-8	0.002081
7.020000E-8	0.001966
7.025000E-8	0.001922
7.030000E-8	0.001816
7.035000E-8	0.001666
7.040000E-8	0.001628
7.045000E-8	0.001719
7.050000E-8	0.001663
7.055000E-8	0.001612
7.060000E-8	0.001741
7.065000E-8	0.001869
7.070000E-8	0.001906
7.075000E-8	0.001956
7.080000E-8	0.002125
7.085000E-8	0.002303
7.090000E-8	0.002309
7.095000E-8	0.002450
7.100000E-8	0.002575
7.105000E-8	0.002681
7.110000E-8	0.002563
7.115000E-8	0.002581
7.120000E-8	0.002559
7.125000E-8	0.002650
7.130000E-8	0.002488
7.135000E-8	0.002359
7.140000E-8	0.002250
7.145000E-8	0.002141
7.150000E-8	0.001891
7.155000E-8	0.001803
7.160000E-8	0.001859
7.165000E-8	0.001850
7.170000E-8	0.001834
7.175000E-8	0.001822
7.180000E-8	0.001844
7.185000E-8	0.001856
7.190000E-8	0.001981
7.195000E-8	0.002150
7.200000E-8	0.002231
7.205000E-8	0.002319
7.210000E-8	0.002472
7.215000E-8	0.002662
7.220000E-8	0.002547
7.225000E-8	0.002759
7.230000E-8	0.002766
7.235000E-8	0.002703
7.240000E-8	0.002716
7.245000E-8	0.002694
7.250000E-8	0.002641
7.255000E-8	0.002591
7.260000E-8	0.002437
7.265000E-8	0.002244
7.270000E-8	0.002147
7.275000E-8	0.001956
7.280000E-8	0.001759
7.285000E-8	0.001716
7.290000E-8	0.001591
7.295000E-8	0.001622
7.300000E-8	0.001612
7.305000E-8	0.001650
7.310000E-8	0.001672
7.315000E-8	0.001825
7.320000E-8	0.001944
7.325000E-8	0.002078
7.330000E-8	0.002169
7.335000E-8	0.002356
7.340000E-8	0.002297
7.345000E-8	0.002356
7.350000E-8	0.002306
7.355000E-8	0.002434
7.360000E-8	0.002500
7.365000E-8	0.002503
7.370000E-8	0.002441
7.375000E-8	0.002491
7.380000E-8	0.002456
7.385000E-8	0.002463
7.390000E-8	0.002431
7.395000E-8	0.002269
7.400000E-8	0.002150
7.405000E-8	0.002144
7.410000E-8	0.002041
7.415000E-8	0.002075
7.420000E-8	0.001950
7.425000E-8	0.002078
7.430000E-8	0.002059
7.435000E-8	0.002175
7.440000E-8	0.002269
7.445000E-8	0.002356
7.450000E-8	0.002497
7.455000E-8	0.002653
7.460000E-8	0.002747
7.465000E-8	0.002803
7.470000E-8	0.002816
7.475000E-8	0.002859
7.480000E-8	0.002844
7.485000E-8	0.002750
7.490000E-8	0.002694
7.495000E-8	0.002591
7.500000E-8	0.002391
7.505000E-8	0.002366
7.510000E-8	0.002159
7.515000E-8	0.002159
7.520000E-8	0.002025
7.525000E-8	0.001881
7.530000E-8	0.001897
7.535000E-8	0.001913
7.540000E-8	0.001728
7.545000E-8	0.001769
7.550000E-8	0.001869
7.555000E-8	0.001906
7.560000E-8	0.001947
7.565000E-8	0.002056
7.570000E-8	0.002109
7.575000E-8	0.002125
7.580000E-8	0.002178
7.585000E-8	0.002331
7.590000E-8	0.002341
7.595000E-8	0.002256
7.600000E-8	0.002125
7.605000E-8	0.002169
7.610000E-8	0.001975
7.615000E-8	0.002069
7.620000E-8	0.002109
7.625000E-8	0.002075
7.630000E-8	0.002106
7.635000E-8	0.002044
7.640000E-8	0.002034
7.645000E-8	0.002116
7.650000E-8	0.002087
7.655000E-8	0.002091
7.660000E-8	0.001897
7.665000E-8	0.001834
7.670000E-8	0.001863
7.675000E-8	0.001822
7.680000E-8	0.001850
7.685000E-8	0.001894
7.690000E-8	0.001916
7.695000E-8	0.002009
7.700000E-8	0.002009
7.705000E-8	0.002222
7.710000E-8	0.002250
7.715000E-8	0.002291
7.720000E-8	0.002338
7.725000E-8	0.002406
7.730000E-8	0.002475
7.735000E-8	0.002425
7.740000E-8	0.002413
7.745000E-8	0.002488
7.750000E-8	0.002381
7.755000E-8	0.002325
7.760000E-8	0.002228
7.765000E-8	0.002134
7.770000E-8	0.002016
7.775000E-8	0.001891
7.780000E-8	0.001806
7.785000E-8	0.001831
7.790000E-8	0.001788
7.795000E-8	0.001831
7.800000E-8	0.001888
7.805000E-8	0.002131
7.810000E-8	0.002172
7.815000E-8	0.002363
7.820000E-8	0.002431
7.825000E-8	0.002544
7.830000E-8	0.002650
7.835000E-8	0.002800
7.840000E-8	0.002822
7.845000E-8	0.002741
7.850000E-8	0.002581
7.855000E-8	0.002556
7.860000E-8	0.002547
7.865000E-8	0.002466
7.870000E-8	0.002297
7.875000E-8	0.002128
7.880000E-8	0.001881
7.885000E-8	0.001916
7.890000E-8	0.001763
7.895000E-8	0.001788
7.900000E-8	0.001844
7.905000E-8	0.001878
7.910000E-8	0.001806
7.915000E-8	0.001959
7.920000E-8	0.001959
7.925000E-8	0.002038
7.930000E-8	0.002016
7.935000E-8	0.002087
7.940000E-8	0.002059
7.945000E-8	0.002172
7.950000E-8	0.002222
7.955000E-8	0.002284
7.960000E-8	0.002375
7.965000E-8	0.002416
7.970000E-8	0.002459
7.975000E-8	0.002628
7.980000E-8	0.002581
7.985000E-8	0.002713
7.990000E-8	0.002731
7.995000E-8	0.002666
8.000000E-8	0.002584
8.005000E-8	0.002519
8.010000E-8	0.002522
8.015000E-8	0.002419
8.020000E-8	0.002328
8.025000E-8	0.002197
8.030000E-8	0.002169
8.035000E-8	0.002181
8.040000E-8	0.002172
8.045000E-8	0.002144
8.050000E-8	0.002147
8.055000E-8	0.002194
8.060000E-8	0.002097
8.065000E-8	0.002188
8.070000E-8	0.002206
8.075000E-8	0.002291
8.080000E-8	0.002353
8.085000E-8	0.002481
8.090000E-8	0.002547
8.095000E-8	0.002659
8.100000E-8	0.002638
8.105000E-8	0.002716
8.110000E-8	0.002759
8.115000E-8	0.002719
8.120000E-8	0.002584
8.125000E-8	0.002650
8.130000E-8	0.002469
8.135000E-8	0.002363
8.140000E-8	0.002219
8.145000E-8	0.002087
8.150000E-8	0.002006
8.155000E-8	0.001900
8.160000E-8	0.001794
8.165000E-8	0.001809
8.170000E-8	0.001816
8.175000E-8	0.001847
8.180000E-8	0.001928
8.185000E-8	0.002012
8.190000E-8	0.002203
8.195000E-8	0.002259
8.200000E-8	0.002209
8.205000E-8	0.002316
8.210000E-8	0.002400
8.215000E-8	0.002319
8.220000E-8	0.002159
8.225000E-8	0.002203
8.230000E-8	0.002069
8.235000E-8	0.002063
8.240000E-8	0.002044
8.245000E-8	0.002063
8.250000E-8	0.002097
8.255000E-8	0.002244
8.260000E-8	0.002188
8.265000E-8	0.002122
8.270000E-8	0.002097
8.275000E-8	0.002056
8.280000E-8	0.001875
8.285000E-8	0.001825
8.290000E-8	0.001797
8.295000E-8	0.001875
8.300000E-8	0.001838
8.305000E-8	0.001953
8.310000E-8	0.001866
8.315000E-8	0.002131
8.320000E-8	0.002225
8.325000E-8	0.002331
8.330000E-8	0.002347
8.335000E-8	0.002456
8.340000E-8	0.002450
8.345000E-8	0.002506
8.350000E-8	0.002413
8.355000E-8	0.002391
8.360000E-8	0.002353
8.365000E-8	0.002409
8.370000E-8	0.002463
8.375000E-8	0.002463
8.380000E-8	0.002416
8.385000E-8	0.002525
8.390000E-8	0.002297
8.395000E-8	0.002397
8.400000E-8	0.002213
8.405000E-8	0.002200
8.410000E-8	0.002019
8.415000E-8	0.002000
8.420000E-8	0.001838
8.425000E-8	0.001903
8.430000E-8	0.001878
8.435000E-8	0.001859
8.440000E-8	0.001866
8.445000E-8	0.002016
8.450000E-8	0.002044
8.455000E-8	0.002175
8.460000E-8	0.002250
8.465000E-8	0.002375
8.470000E-8	0.002397
8.475000E-8	0.002444
8.480000E-8	0.002384
8.485000E-8	0.002347
8.490000E-8	0.002394
8.495000E-8	0.002406
8.500000E-8	0.002350
8.505000E-8	0.002356
8.510000E-8	0.002378
8.515000E-8	0.002209
8.520000E-8	0.002119
8.525000E-8	0.002191
8.530000E-8	0.002056
8.535000E-8	0.001978
8.540000E-8	0.001953
8.545000E-8	0.001969
8.550000E-8	0.001722
8.555000E-8	0.001747
8.560000E-8	0.001691
8.565000E-8	0.001775
8.570000E-8	0.001647
8.575000E-8	0.001781
8.580000E-8	0.001825
8.585000E-8	0.001922
8.590000E-8	0.002072
8.595000E-8	0.002066
8.600000E-8	0.002072
8.605000E-8	0.002263
8.610000E-8	0.002247
8.615000E-8	0.002419
8.620000E-8	0.002516
8.625000E-8	0.002559
8.630000E-8	0.002512
8.635000E-8	0.002516
8.640000E-8	0.002338
8.645000E-8	0.002253
8.650000E-8	0.002006
8.655000E-8	0.001859
8.660000E-8	0.001722
8.665000E-8	0.001491
8.670000E-8	0.001325
8.675000E-8	0.001303
8.680000E-8	0.001316
8.685000E-8	0.001403
8.690000E-8	0.001453
8.695000E-8	0.001619
8.700000E-8	0.001922
8.705000E-8	0.002134
8.710000E-8	0.002269
8.715000E-8	0.002366
8.720000E-8	0.002453
8.725000E-8	0.002678
8.730000E-8	0.002575
8.735000E-8	0.002581
8.740000E-8	0.002641
8.745000E-8	0.002600
8.750000E-8	0.002525
8.755000E-8	0.002450
8.760000E-8	0.002250
8.765000E-8	0.002203
8.770000E-8	0.002244
8.775000E-8	0.002209
8.780000E-8	0.002094
8.785000E-8	0.002119
8.790000E-8	0.002097
8.795000E-8	0.002097
8.800000E-8	0.002069
8.805000E-8	0.002153
8.810000E-8	0.002097
8.815000E-8	0.002150
8.820000E-8	0.002209
8.825000E-8	0.002188
8.830000E-8	0.002288
8.835000E-8	0.002341
8.840000E-8	0.002256
8.845000E-8	0.002366
8.850000E-8	0.002334
8.855000E-8	0.002388
8.860000E-8	0.002203
8.865000E-8	0.002253
8.870000E-8	0.002294
8.875000E-8	0.002288
8.880000E-8	0.002216
8.885000E-8	0.002269
8.890000E-8	0.002247
8.895000E-8	0.002250
8.900000E-8	0.002206
8.905000E-8	0.002119
8.910000E-8	0.002134
8.915000E-8	0.002094
8.920000E-8	0.002047
8.925000E-8	0.002050
8.930000E-8	0.002081
8.935000E-8	0.002041
8.940000E-8	0.002091
8.945000E-8	0.002159
8.950000E-8	0.002188
8.955000E-8	0.002284
8.960000E-8	0.002231
8.965000E-8	0.002334
8.970000E-8	0.002269
8.975000E-8	0.002303
8.980000E-8	0.002359
8.985000E-8	0.002456
8.990000E-8	0.002397
8.995000E-8	0.002372
9.000000E-8	0.002313
9.005000E-8	0.002316
9.010000E-8	0.002259
9.015000E-8	0.002266
9.020000E-8	0.002203
9.025000E-8	0.002269
9.030000E-8	0.002209
9.035000E-8	0.002253
9.040000E-8	0.002116
9.045000E-8	0.002184
9.050000E-8	0.002175
9.055000E-8	0.002272
9.060000E-8	0.002184
9.065000E-8	0.002206
9.070000E-8	0.002172
9.075000E-8	0.002297
9.080000E-8	0.002141
9.085000E-8	0.002278
9.090000E-8	0.002263
9.095000E-8	0.002338
9.100000E-8	0.002319
9.105000E-8	0.002534
9.110000E-8	0.002481
9.115000E-8	0.002603
9.120000E-8	0.002463
9.125000E-8	0.002416
9.130000E-8	0.002253
9.135000E-8	0.002288
9.140000E-8	0.002097
9.145000E-8	0.002019
9.150000E-8	0.001966
9.155000E-8	0.002044
9.160000E-8	0.001928
9.165000E-8	0.001959
9.170000E-8	0.001934
9.175000E-8	0.001937
9.180000E-8	0.001850
9.185000E-8	0.001997
9.190000E-8	0.001966
9.195000E-8	0.002016
9.200000E-8	0.001972
9.205000E-8	0.002063
9.210000E-8	0.002097
9.215000E-8	0.002234
9.220000E-8	0.002263
9.225000E-8	0.002422
9.230000E-8	0.002388
9.235000E-8	0.002394
9.240000E-8	0.002372
9.245000E-8	0.002469
9.250000E-8	0.002431
9.255000E-8	0.002425
9.260000E-8	0.002334
9.265000E-8	0.002325
9.270000E-8	0.002159
9.275000E-8	0.002281
9.280000E-8	0.002141
9.285000E-8	0.002156
9.290000E-8	0.002025
9.295000E-8	0.002031
9.300000E-8	0.001916
9.305000E-8	0.002028
9.310000E-8	0.001928
9.315000E-8	0.002012
9.320000E-8	0.001981
9.325000E-8	0.001931
9.330000E-8	0.001847
9.335000E-8	0.001956
9.340000E-8	0.002012
9.345000E-8	0.002216
9.350000E-8	0.002178
9.355000E-8	0.002253
9.360000E-8	0.002166
9.365000E-8	0.002288
9.370000E-8	0.002288
9.375000E-8	0.002275
9.380000E-8	0.002294
9.385000E-8	0.002297
9.390000E-8	0.002278
9.395000E-8	0.002275
9.400000E-8	0.002266
9.405000E-8	0.002197
9.410000E-8	0.002141
9.415000E-8	0.002066
9.420000E-8	0.002053
9.425000E-8	0.002134
9.430000E-8	0.002066
9.435000E-8	0.002109
9.440000E-8	0.002106
9.445000E-8	0.002228
9.450000E-8	0.002288
9.455000E-8	0.002350
9.460000E-8	0.002278
9.465000E-8	0.002288
9.470000E-8	0.002288
9.475000E-8	0.002319
9.480000E-8	0.002313
9.485000E-8	0.002250
9.490000E-8	0.002116
9.495000E-8	0.002216
9.500000E-8	0.002200
9.505000E-8	0.002162
9.510000E-8	0.002091
9.515000E-8	0.002084
9.520000E-8	0.002009
9.525000E-8	0.002125
9.530000E-8	0.002097
9.535000E-8	0.002044
9.540000E-8	0.002047
9.545000E-8	0.002128
9.550000E-8	0.002150
9.555000E-8	0.002162
9.560000E-8	0.002078
9.565000E-8	0.002069
9.570000E-8	0.002003
9.575000E-8	0.002059
9.580000E-8	0.001900
9.585000E-8	0.001947
9.590000E-8	0.001941
9.595000E-8	0.002019
9.600000E-8	0.002134
9.605000E-8	0.002356
9.610000E-8	0.002303
9.615000E-8	0.002409
9.620000E-8	0.002434
9.625000E-8	0.002469
9.630000E-8	0.002450
9.635000E-8	0.002509
9.640000E-8	0.002384
9.645000E-8	0.002294
9.650000E-8	0.002119
9.655000E-8	0.002134
9.660000E-8	0.002009
9.665000E-8	0.001959
9.670000E-8	0.001888
9.675000E-8	0.001900
9.680000E-8	0.001841
9.685000E-8	0.001838
9.690000E-8	0.001906
9.695000E-8	0.001772
9.700000E-8	0.001706
9.705000E-8	0.001869
9.710000E-8	0.001963
9.715000E-8	0.002059
9.720000E-8	0.002050
9.725000E-8	0.002156
9.730000E-8	0.002150
9.735000E-8	0.002150
9.740000E-8	0.002075
9.745000E-8	0.002041
9.750000E-8	0.002025
9.755000E-8	0.002162
9.760000E-8	0.002050
9.765000E-8	0.002047
9.770000E-8	0.001937
9.775000E-8	0.002075
9.780000E-8	0.002237
9.785000E-8	0.002331
9.790000E-8	0.002253
9.795000E-8	0.002172
9.800000E-8	0.002087
9.805000E-8	0.002247
9.810000E-8	0.002194
9.815000E-8	0.002153
9.820000E-8	0.002038
9.825000E-8	0.002113
9.830000E-8	0.002184
9.835000E-8	0.002194
9.840000E-8	0.002300
9.845000E-8	0.002300
9.850000E-8	0.002397
9.855000E-8	0.002394
9.860000E-8	0.002534
9.865000E-8	0.002534
9.870000E-8	0.002453
9.875000E-8	0.002466
9.880000E-8	0.002366
9.885000E-8	0.002394
9.890000E-8	0.002341
9.895000E-8	0.002247
9.900000E-8	0.002275
9.905000E-8	0.002294
9.910000E-8	0.002219
9.915000E-8	0.002328
9.920000E-8	0.002247
9.925000E-8	0.002391
9.930000E-8	0.002350
9.935000E-8	0.002316
9.940000E-8	0.002366
9.945000E-8	0.002378
9.950000E-8	0.002375
9.955000E-8	0.002297
9.960000E-8	0.002366
9.965000E-8	0.002375
9.970000E-8	0.002297
9.975000E-8	0.002266
9.980000E-8	0.002244
9.985000E-8	0.002325
9.990000E-8	0.002244
9.995000E-8	0.002206
