LabVIEW Measurement	
Writer_Version	2
Reader_Version	2
Separator	Tab
Decimal_Separator	.
Multi_Headings	No
X_Columns	Multi
Time_Pref	Relative
Operator	TG lab
Date	2015/03/06
Time	18:50:52.9453792572021484375
***End_of_Header***	
	
Channels	1	
Samples	2000	
Date	1903/12/31	
Time	19:00:00	
X_Dimension	Time	
X0	0.0000000000000000E+0	
Delta_X	5.000000E-11	
***End_of_Header***		
X_Value	Untitled	Comment
0.000000	0.001414
5.000000E-11	0.001406
1.000000E-10	0.001448
1.500000E-10	0.001439
2.000000E-10	0.001447
2.500000E-10	0.001509
3.000000E-10	0.001545
3.500000E-10	0.001497
4.000000E-10	0.001497
4.500000E-10	0.001414
5.000000E-10	0.001364
5.500000E-10	0.001364
6.000000E-10	0.001320
6.500000E-10	0.001327
7.000000E-10	0.001331
7.500000E-10	0.001381
8.000000E-10	0.001391
8.500000E-10	0.001445
9.000000E-10	0.001492
9.500000E-10	0.001556
1.000000E-9	0.001595
1.050000E-9	0.001591
1.100000E-9	0.001620
1.150000E-9	0.001666
1.200000E-9	0.001639
1.250000E-9	0.001652
1.300000E-9	0.001573
1.350000E-9	0.001586
1.400000E-9	0.001455
1.450000E-9	0.001422
1.500000E-9	0.001372
1.550000E-9	0.001300
1.600000E-9	0.001348
1.650000E-9	0.001308
1.700000E-9	0.001294
1.750000E-9	0.001297
1.800000E-9	0.001297
1.850000E-9	0.001322
1.900000E-9	0.001298
1.950000E-9	0.001311
2.000000E-9	0.001323
2.050000E-9	0.001370
2.100000E-9	0.001402
2.150000E-9	0.001480
2.200000E-9	0.001480
2.250000E-9	0.001609
2.300000E-9	0.001528
2.350000E-9	0.001619
2.400000E-9	0.001583
2.450000E-9	0.001594
2.500000E-9	0.001506
2.550000E-9	0.001595
2.600000E-9	0.001500
2.650000E-9	0.001383
2.700000E-9	0.001275
2.750000E-9	0.001248
2.800000E-9	0.001181
2.850000E-9	0.001125
2.900000E-9	0.001002
2.950000E-9	0.001056
3.000000E-9	0.001031
3.050000E-9	0.001067
3.100000E-9	0.001061
3.150000E-9	0.001095
3.200000E-9	0.001083
3.250000E-9	0.001077
3.300000E-9	0.000986
3.350000E-9	0.000947
3.400000E-9	0.000920
3.450000E-9	0.000872
3.500000E-9	0.000795
3.550000E-9	0.000802
3.600000E-9	0.000850
3.650000E-9	0.000845
3.700000E-9	0.000881
3.750000E-9	0.000939
3.800000E-9	0.000938
3.850000E-9	0.001025
3.900000E-9	0.001078
3.950000E-9	0.001034
4.000000E-9	0.001080
4.050000E-9	0.001072
4.100000E-9	0.001081
4.150000E-9	0.001042
4.200000E-9	0.001069
4.250000E-9	0.001078
4.300000E-9	0.001080
4.350000E-9	0.001055
4.400000E-9	0.001034
4.450000E-9	0.001048
4.500000E-9	0.001023
4.550000E-9	0.001009
4.600000E-9	0.000841
4.650000E-9	0.000698
4.700000E-9	0.000484
4.750000E-9	0.000130
4.800000E-9	-0.000411
4.850000E-9	-0.001116
4.900000E-9	-0.002125
4.950000E-9	-0.003248
5.000000E-9	-0.004630
5.050000E-9	-0.006163
5.100000E-9	-0.007903
5.150000E-9	-0.009694
5.200000E-9	-0.011436
5.250000E-9	-0.013180
5.300000E-9	-0.014870
5.350000E-9	-0.016350
5.400000E-9	-0.017748
5.450000E-9	-0.018800
5.500000E-9	-0.019669
5.550000E-9	-0.020366
5.600000E-9	-0.020741
5.650000E-9	-0.020920
5.700000E-9	-0.020977
5.750000E-9	-0.020652
5.800000E-9	-0.020148
5.850000E-9	-0.019409
5.900000E-9	-0.018461
5.950000E-9	-0.017364
6.000000E-9	-0.016095
6.050000E-9	-0.014858
6.100000E-9	-0.013667
6.150000E-9	-0.012580
6.200000E-9	-0.011634
6.250000E-9	-0.010975
6.300000E-9	-0.010589
6.350000E-9	-0.010425
6.400000E-9	-0.010559
6.450000E-9	-0.010886
6.500000E-9	-0.011381
6.550000E-9	-0.011938
6.600000E-9	-0.012522
6.650000E-9	-0.012995
6.700000E-9	-0.013505
6.750000E-9	-0.013895
6.800000E-9	-0.014117
6.850000E-9	-0.014167
6.900000E-9	-0.014184
6.950000E-9	-0.013903
7.000000E-9	-0.013538
7.050000E-9	-0.013120
7.100000E-9	-0.012434
7.150000E-9	-0.011658
7.200000E-9	-0.010803
7.250000E-9	-0.009895
7.300000E-9	-0.008941
7.350000E-9	-0.008014
7.400000E-9	-0.007141
7.450000E-9	-0.006436
7.500000E-9	-0.005828
7.550000E-9	-0.005509
7.600000E-9	-0.005325
7.650000E-9	-0.005384
7.700000E-9	-0.005539
7.750000E-9	-0.005941
7.800000E-9	-0.006452
7.850000E-9	-0.007069
7.900000E-9	-0.007650
7.950000E-9	-0.008203
8.000000E-9	-0.008689
8.050000E-9	-0.009011
8.100000E-9	-0.009269
8.150000E-9	-0.009303
8.200000E-9	-0.009139
8.250000E-9	-0.008852
8.300000E-9	-0.008433
8.350000E-9	-0.007897
8.400000E-9	-0.007216
8.450000E-9	-0.006461
8.500000E-9	-0.005720
8.550000E-9	-0.004928
8.600000E-9	-0.004245
8.650000E-9	-0.003584
8.700000E-9	-0.003039
8.750000E-9	-0.002644
8.800000E-9	-0.002380
8.850000E-9	-0.002227
8.900000E-9	-0.002398
8.950000E-9	-0.002580
9.000000E-9	-0.002991
9.050000E-9	-0.003514
9.100000E-9	-0.004131
9.150000E-9	-0.004780
9.200000E-9	-0.005406
9.250000E-9	-0.005983
9.300000E-9	-0.006472
9.350000E-9	-0.006817
9.400000E-9	-0.007067
9.450000E-9	-0.007089
9.500000E-9	-0.007009
9.550000E-9	-0.006717
9.600000E-9	-0.006186
9.650000E-9	-0.005638
9.700000E-9	-0.004986
9.750000E-9	-0.004147
9.800000E-9	-0.003283
9.850000E-9	-0.002541
9.900000E-9	-0.001756
9.950000E-9	-0.001122
1.000000E-8	-0.000592
1.005000E-8	-0.000228
1.010000E-8	-4.843750E-5
1.015000E-8	-0.000138
1.020000E-8	-0.000439
1.025000E-8	-0.000766
1.030000E-8	-0.001350
1.035000E-8	-0.001978
1.040000E-8	-0.002752
1.045000E-8	-0.003395
1.050000E-8	-0.004050
1.055000E-8	-0.004631
1.060000E-8	-0.005008
1.065000E-8	-0.005316
1.070000E-8	-0.005386
1.075000E-8	-0.005291
1.080000E-8	-0.005047
1.085000E-8	-0.004547
1.090000E-8	-0.003869
1.095000E-8	-0.003052
1.100000E-8	-0.002220
1.105000E-8	-0.001353
1.110000E-8	-0.000461
1.115000E-8	0.000280
1.120000E-8	0.000909
1.125000E-8	0.001316
1.130000E-8	0.001594
1.135000E-8	0.001598
1.140000E-8	0.001453
1.145000E-8	0.001158
1.150000E-8	0.000689
1.155000E-8	0.000102
1.160000E-8	-0.000636
1.165000E-8	-0.001378
1.170000E-8	-0.002142
1.175000E-8	-0.002808
1.180000E-8	-0.003419
1.185000E-8	-0.003880
1.190000E-8	-0.004175
1.195000E-8	-0.004366
1.200000E-8	-0.004253
1.205000E-8	-0.004034
1.210000E-8	-0.003645
1.215000E-8	-0.003111
1.220000E-8	-0.002444
1.225000E-8	-0.001619
1.230000E-8	-0.000864
1.235000E-8	-7.656250E-5
1.240000E-8	0.000595
1.245000E-8	0.001173
1.250000E-8	0.001591
1.255000E-8	0.001922
1.260000E-8	0.002009
1.265000E-8	0.001925
1.270000E-8	0.001745
1.275000E-8	0.001336
1.280000E-8	0.000758
1.285000E-8	0.000192
1.290000E-8	-0.000477
1.295000E-8	-0.001147
1.300000E-8	-0.001822
1.305000E-8	-0.002363
1.310000E-8	-0.002880
1.315000E-8	-0.003098
1.320000E-8	-0.003317
1.325000E-8	-0.003272
1.330000E-8	-0.003070
1.335000E-8	-0.002641
1.340000E-8	-0.002150
1.345000E-8	-0.001441
1.350000E-8	-0.000711
1.355000E-8	9.062500E-5
1.360000E-8	0.000881
1.365000E-8	0.001609
1.370000E-8	0.002175
1.375000E-8	0.002686
1.380000E-8	0.002959
1.385000E-8	0.003066
1.390000E-8	0.002997
1.395000E-8	0.002727
1.400000E-8	0.002336
1.405000E-8	0.001795
1.410000E-8	0.001142
1.415000E-8	0.000473
1.420000E-8	-0.000297
1.425000E-8	-0.000994
1.430000E-8	-0.001612
1.435000E-8	-0.002173
1.440000E-8	-0.002459
1.445000E-8	-0.002694
1.450000E-8	-0.002692
1.455000E-8	-0.002509
1.460000E-8	-0.002155
1.465000E-8	-0.001583
1.470000E-8	-0.000906
1.475000E-8	-0.000127
1.480000E-8	0.000652
1.485000E-8	0.001494
1.490000E-8	0.002141
1.495000E-8	0.002744
1.500000E-8	0.003208
1.505000E-8	0.003450
1.510000E-8	0.003548
1.515000E-8	0.003366
1.520000E-8	0.002984
1.525000E-8	0.002495
1.530000E-8	0.001828
1.535000E-8	0.001111
1.540000E-8	0.000339
1.545000E-8	-0.000345
1.550000E-8	-0.001070
1.555000E-8	-0.001605
1.560000E-8	-0.002053
1.565000E-8	-0.002361
1.570000E-8	-0.002491
1.575000E-8	-0.002358
1.580000E-8	-0.002097
1.585000E-8	-0.001605
1.590000E-8	-0.001053
1.595000E-8	-0.000320
1.600000E-8	0.000364
1.605000E-8	0.001063
1.610000E-8	0.001784
1.615000E-8	0.002433
1.620000E-8	0.002897
1.625000E-8	0.003378
1.630000E-8	0.003594
1.635000E-8	0.003666
1.640000E-8	0.003556
1.645000E-8	0.003214
1.650000E-8	0.002828
1.655000E-8	0.002356
1.660000E-8	0.001794
1.665000E-8	0.001216
1.670000E-8	0.000638
1.675000E-8	4.062500E-5
1.680000E-8	-0.000478
1.685000E-8	-0.000825
1.690000E-8	-0.001112
1.695000E-8	-0.001284
1.700000E-8	-0.001273
1.705000E-8	-0.001139
1.710000E-8	-0.000836
1.715000E-8	-0.000470
1.720000E-8	9.375000E-6
1.725000E-8	0.000595
1.730000E-8	0.001206
1.735000E-8	0.001856
1.740000E-8	0.002503
1.745000E-8	0.002980
1.750000E-8	0.003411
1.755000E-8	0.003691
1.760000E-8	0.003759
1.765000E-8	0.003706
1.770000E-8	0.003438
1.775000E-8	0.003127
1.780000E-8	0.002613
1.785000E-8	0.002006
1.790000E-8	0.001372
1.795000E-8	0.000698
1.800000E-8	3.750000E-5
1.805000E-8	-0.000609
1.810000E-8	-0.001108
1.815000E-8	-0.001413
1.820000E-8	-0.001581
1.825000E-8	-0.001556
1.830000E-8	-0.001328
1.835000E-8	-0.000952
1.840000E-8	-0.000475
1.845000E-8	7.656250E-5
1.850000E-8	0.000669
1.855000E-8	0.001348
1.860000E-8	0.001902
1.865000E-8	0.002400
1.870000E-8	0.002930
1.875000E-8	0.003197
1.880000E-8	0.003445
1.885000E-8	0.003555
1.890000E-8	0.003509
1.895000E-8	0.003413
1.900000E-8	0.003077
1.905000E-8	0.002677
1.910000E-8	0.002164
1.915000E-8	0.001566
1.920000E-8	0.000983
1.925000E-8	0.000347
1.930000E-8	-0.000219
1.935000E-8	-0.000688
1.940000E-8	-0.001022
1.945000E-8	-0.001202
1.950000E-8	-0.001250
1.955000E-8	-0.001145
1.960000E-8	-0.000814
1.965000E-8	-0.000392
1.970000E-8	0.000106
1.975000E-8	0.000734
1.980000E-8	0.001250
1.985000E-8	0.001903
1.990000E-8	0.002455
1.995000E-8	0.002897
2.000000E-8	0.003261
2.005000E-8	0.003492
2.010000E-8	0.003586
2.015000E-8	0.003525
2.020000E-8	0.003313
2.025000E-8	0.002967
2.030000E-8	0.002580
2.035000E-8	0.002059
2.040000E-8	0.001513
2.045000E-8	0.000948
2.050000E-8	0.000336
2.055000E-8	-0.000194
2.060000E-8	-0.000542
2.065000E-8	-0.000897
2.070000E-8	-0.001127
2.075000E-8	-0.001258
2.080000E-8	-0.001192
2.085000E-8	-0.000969
2.090000E-8	-0.000578
2.095000E-8	-0.000161
2.100000E-8	0.000448
2.105000E-8	0.001055
2.110000E-8	0.001745
2.115000E-8	0.002339
2.120000E-8	0.002934
2.125000E-8	0.003347
2.130000E-8	0.003589
2.135000E-8	0.003795
2.140000E-8	0.003730
2.145000E-8	0.003653
2.150000E-8	0.003367
2.155000E-8	0.002830
2.160000E-8	0.002313
2.165000E-8	0.001700
2.170000E-8	0.001089
2.175000E-8	0.000472
2.180000E-8	-0.000100
2.185000E-8	-0.000506
2.190000E-8	-0.000855
2.195000E-8	-0.001006
2.200000E-8	-0.001028
2.205000E-8	-0.000866
2.210000E-8	-0.000525
2.215000E-8	-7.343750E-5
2.220000E-8	0.000414
2.225000E-8	0.001005
2.230000E-8	0.001639
2.235000E-8	0.002184
2.240000E-8	0.002755
2.245000E-8	0.003175
2.250000E-8	0.003536
2.255000E-8	0.003717
2.260000E-8	0.003775
2.265000E-8	0.003788
2.270000E-8	0.003652
2.275000E-8	0.003409
2.280000E-8	0.003002
2.285000E-8	0.002552
2.290000E-8	0.002044
2.295000E-8	0.001508
2.300000E-8	0.000914
2.305000E-8	0.000392
2.310000E-8	-3.281250E-5
2.315000E-8	-0.000394
2.320000E-8	-0.000611
2.325000E-8	-0.000661
2.330000E-8	-0.000594
2.335000E-8	-0.000447
2.340000E-8	-1.875000E-5
2.345000E-8	0.000481
2.350000E-8	0.001033
2.355000E-8	0.001569
2.360000E-8	0.002086
2.365000E-8	0.002662
2.370000E-8	0.003047
2.375000E-8	0.003347
2.380000E-8	0.003630
2.385000E-8	0.003653
2.390000E-8	0.003659
2.395000E-8	0.003438
2.400000E-8	0.003108
2.405000E-8	0.002731
2.410000E-8	0.002298
2.415000E-8	0.001809
2.420000E-8	0.001320
2.425000E-8	0.000811
2.430000E-8	0.000356
2.435000E-8	-3.437500E-5
2.440000E-8	-0.000234
2.445000E-8	-0.000397
2.450000E-8	-0.000409
2.455000E-8	-0.000345
2.460000E-8	-0.000155
2.465000E-8	0.000117
2.470000E-8	0.000536
2.475000E-8	0.001017
2.480000E-8	0.001502
2.485000E-8	0.001953
2.490000E-8	0.002431
2.495000E-8	0.002858
2.500000E-8	0.003162
2.505000E-8	0.003484
2.510000E-8	0.003578
2.515000E-8	0.003616
2.520000E-8	0.003506
2.525000E-8	0.003330
2.530000E-8	0.002955
2.535000E-8	0.002605
2.540000E-8	0.002128
2.545000E-8	0.001636
2.550000E-8	0.001136
2.555000E-8	0.000769
2.560000E-8	0.000377
2.565000E-8	0.000148
2.570000E-8	-3.906250E-5
2.575000E-8	-0.000153
2.580000E-8	-0.000105
2.585000E-8	-1.562500E-6
2.590000E-8	0.000183
2.595000E-8	0.000427
2.600000E-8	0.000841
2.605000E-8	0.001270
2.610000E-8	0.001730
2.615000E-8	0.002214
2.620000E-8	0.002584
2.625000E-8	0.003009
2.630000E-8	0.003238
2.635000E-8	0.003431
2.640000E-8	0.003436
2.645000E-8	0.003338
2.650000E-8	0.003120
2.655000E-8	0.002825
2.660000E-8	0.002420
2.665000E-8	0.001884
2.670000E-8	0.001400
2.675000E-8	0.000905
2.680000E-8	0.000405
2.685000E-8	2.343750E-5
2.690000E-8	-0.000339
2.695000E-8	-0.000539
2.700000E-8	-0.000552
2.705000E-8	-0.000467
2.710000E-8	-0.000270
2.715000E-8	7.500000E-5
2.720000E-8	0.000488
2.725000E-8	0.000995
2.730000E-8	0.001473
2.735000E-8	0.001919
2.740000E-8	0.002333
2.745000E-8	0.002769
2.750000E-8	0.003102
2.755000E-8	0.003333
2.760000E-8	0.003494
2.765000E-8	0.003567
2.770000E-8	0.003497
2.775000E-8	0.003345
2.780000E-8	0.003114
2.785000E-8	0.002737
2.790000E-8	0.002319
2.795000E-8	0.001864
2.800000E-8	0.001369
2.805000E-8	0.000902
2.810000E-8	0.000475
2.815000E-8	0.000142
2.820000E-8	-9.687500E-5
2.825000E-8	-0.000125
2.830000E-8	-0.000147
2.835000E-8	-1.875000E-5
2.840000E-8	0.000300
2.845000E-8	0.000598
2.850000E-8	0.001044
2.855000E-8	0.001578
2.860000E-8	0.002016
2.865000E-8	0.002441
2.870000E-8	0.002898
2.875000E-8	0.003244
2.880000E-8	0.003380
2.885000E-8	0.003522
2.890000E-8	0.003503
2.895000E-8	0.003381
2.900000E-8	0.003203
2.905000E-8	0.002975
2.910000E-8	0.002647
2.915000E-8	0.002284
2.920000E-8	0.001819
2.925000E-8	0.001437
2.930000E-8	0.000975
2.935000E-8	0.000716
2.940000E-8	0.000494
2.945000E-8	0.000289
2.950000E-8	0.000114
2.955000E-8	0.000153
2.960000E-8	0.000155
2.965000E-8	0.000356
2.970000E-8	0.000589
2.975000E-8	0.000888
2.980000E-8	0.001275
2.985000E-8	0.001767
2.990000E-8	0.002264
2.995000E-8	0.002594
3.000000E-8	0.002900
3.005000E-8	0.003177
3.010000E-8	0.003306
3.015000E-8	0.003363
3.020000E-8	0.003261
3.025000E-8	0.003087
3.030000E-8	0.002778
3.035000E-8	0.002394
3.040000E-8	0.001955
3.045000E-8	0.001511
3.050000E-8	0.001034
3.055000E-8	0.000650
3.060000E-8	0.000248
3.065000E-8	1.562500E-6
3.070000E-8	-0.000223
3.075000E-8	-0.000305
3.080000E-8	-0.000244
3.085000E-8	-0.000130
3.090000E-8	6.250000E-5
3.095000E-8	0.000364
3.100000E-8	0.000794
3.105000E-8	0.001231
3.110000E-8	0.001687
3.115000E-8	0.002145
3.120000E-8	0.002508
3.125000E-8	0.002892
3.130000E-8	0.003158
3.135000E-8	0.003355
3.140000E-8	0.003483
3.145000E-8	0.003388
3.150000E-8	0.003245
3.155000E-8	0.002919
3.160000E-8	0.002547
3.165000E-8	0.002106
3.170000E-8	0.001677
3.175000E-8	0.001184
3.180000E-8	0.000814
3.185000E-8	0.000519
3.190000E-8	0.000311
3.195000E-8	0.000197
3.200000E-8	5.937500E-5
3.205000E-8	0.000195
3.210000E-8	0.000252
3.215000E-8	0.000539
3.220000E-8	0.000781
3.225000E-8	0.001150
3.230000E-8	0.001458
3.235000E-8	0.001873
3.240000E-8	0.002183
3.245000E-8	0.002467
3.250000E-8	0.002725
3.255000E-8	0.003025
3.260000E-8	0.003155
3.265000E-8	0.003227
3.270000E-8	0.003183
3.275000E-8	0.003091
3.280000E-8	0.002828
3.285000E-8	0.002494
3.290000E-8	0.002180
3.295000E-8	0.001820
3.300000E-8	0.001422
3.305000E-8	0.001031
3.310000E-8	0.000695
3.315000E-8	0.000405
3.320000E-8	0.000213
3.325000E-8	5.156250E-5
3.330000E-8	3.906250E-5
3.335000E-8	0.000175
3.340000E-8	0.000333
3.345000E-8	0.000611
3.350000E-8	0.000905
3.355000E-8	0.001295
3.360000E-8	0.001678
3.365000E-8	0.002087
3.370000E-8	0.002405
3.375000E-8	0.002706
3.380000E-8	0.002917
3.385000E-8	0.002983
3.390000E-8	0.003014
3.395000E-8	0.002992
3.400000E-8	0.002831
3.405000E-8	0.002592
3.410000E-8	0.002342
3.415000E-8	0.002034
3.420000E-8	0.001673
3.425000E-8	0.001402
3.430000E-8	0.000970
3.435000E-8	0.000667
3.440000E-8	0.000431
3.445000E-8	0.000227
3.450000E-8	5.625000E-5
3.455000E-8	2.812500E-5
3.460000E-8	0.000141
3.465000E-8	0.000225
3.470000E-8	0.000466
3.475000E-8	0.000805
3.480000E-8	0.001059
3.485000E-8	0.001420
3.490000E-8	0.001755
3.495000E-8	0.002180
3.500000E-8	0.002489
3.505000E-8	0.002705
3.510000E-8	0.002941
3.515000E-8	0.003033
3.520000E-8	0.003075
3.525000E-8	0.003045
3.530000E-8	0.002828
3.535000E-8	0.002578
3.540000E-8	0.002239
3.545000E-8	0.001931
3.550000E-8	0.001555
3.555000E-8	0.001206
3.560000E-8	0.000891
3.565000E-8	0.000553
3.570000E-8	0.000419
3.575000E-8	0.000308
3.580000E-8	0.000252
3.585000E-8	0.000275
3.590000E-8	0.000373
3.595000E-8	0.000606
3.600000E-8	0.000850
3.605000E-8	0.001163
3.610000E-8	0.001455
3.615000E-8	0.001866
3.620000E-8	0.002272
3.625000E-8	0.002642
3.630000E-8	0.003002
3.635000E-8	0.003167
3.640000E-8	0.003356
3.645000E-8	0.003397
3.650000E-8	0.003291
3.655000E-8	0.003144
3.660000E-8	0.002906
3.665000E-8	0.002503
3.670000E-8	0.002089
3.675000E-8	0.001681
3.680000E-8	0.001259
3.685000E-8	0.000866
3.690000E-8	0.000483
3.695000E-8	0.000277
3.700000E-8	0.000148
3.705000E-8	0.000131
3.710000E-8	0.000147
3.715000E-8	0.000305
3.720000E-8	0.000566
3.725000E-8	0.000886
3.730000E-8	0.001200
3.735000E-8	0.001612
3.740000E-8	0.001972
3.745000E-8	0.002316
3.750000E-8	0.002559
3.755000E-8	0.002817
3.760000E-8	0.002978
3.765000E-8	0.003042
3.770000E-8	0.003063
3.775000E-8	0.002938
3.780000E-8	0.002827
3.785000E-8	0.002650
3.790000E-8	0.002375
3.795000E-8	0.002048
3.800000E-8	0.001695
3.805000E-8	0.001356
3.810000E-8	0.000991
3.815000E-8	0.000731
3.820000E-8	0.000442
3.825000E-8	0.000320
3.830000E-8	0.000237
3.835000E-8	0.000261
3.840000E-8	0.000431
3.845000E-8	0.000627
3.850000E-8	0.000958
3.855000E-8	0.001316
3.860000E-8	0.001741
3.865000E-8	0.002106
3.870000E-8	0.002395
3.875000E-8	0.002656
3.880000E-8	0.002767
3.885000E-8	0.002942
3.890000E-8	0.002891
3.895000E-8	0.002798
3.900000E-8	0.002630
3.905000E-8	0.002441
3.910000E-8	0.002164
3.915000E-8	0.001967
3.920000E-8	0.001731
3.925000E-8	0.001520
3.930000E-8	0.001291
3.935000E-8	0.001144
3.940000E-8	0.000980
3.945000E-8	0.000906
3.950000E-8	0.000788
3.955000E-8	0.000725
3.960000E-8	0.000706
3.965000E-8	0.000694
3.970000E-8	0.000845
3.975000E-8	0.000998
3.980000E-8	0.001239
3.985000E-8	0.001500
3.990000E-8	0.001742
3.995000E-8	0.002034
4.000000E-8	0.002264
4.005000E-8	0.002506
4.010000E-8	0.002638
4.015000E-8	0.002711
4.020000E-8	0.002806
4.025000E-8	0.002709
4.030000E-8	0.002544
4.035000E-8	0.002405
4.040000E-8	0.002144
4.045000E-8	0.001873
4.050000E-8	0.001553
4.055000E-8	0.001208
4.060000E-8	0.001028
4.065000E-8	0.000752
4.070000E-8	0.000550
4.075000E-8	0.000423
4.080000E-8	0.000319
4.085000E-8	0.000398
4.090000E-8	0.000439
4.095000E-8	0.000605
4.100000E-8	0.000911
4.105000E-8	0.001187
4.110000E-8	0.001600
4.115000E-8	0.001934
4.120000E-8	0.002280
4.125000E-8	0.002652
4.130000E-8	0.002877
4.135000E-8	0.003052
4.140000E-8	0.003128
4.145000E-8	0.003044
4.150000E-8	0.002919
4.155000E-8	0.002728
4.160000E-8	0.002463
4.165000E-8	0.002161
4.170000E-8	0.001923
4.175000E-8	0.001577
4.180000E-8	0.001328
4.185000E-8	0.001078
4.190000E-8	0.000839
4.195000E-8	0.000761
4.200000E-8	0.000694
4.205000E-8	0.000648
4.210000E-8	0.000625
4.215000E-8	0.000731
4.220000E-8	0.000825
4.225000E-8	0.001052
4.230000E-8	0.001292
4.235000E-8	0.001530
4.240000E-8	0.001855
4.245000E-8	0.002045
4.250000E-8	0.002278
4.255000E-8	0.002517
4.260000E-8	0.002719
4.265000E-8	0.002772
4.270000E-8	0.002752
4.275000E-8	0.002745
4.280000E-8	0.002539
4.285000E-8	0.002413
4.290000E-8	0.002073
4.295000E-8	0.001750
4.300000E-8	0.001466
4.305000E-8	0.001172
4.310000E-8	0.000884
4.315000E-8	0.000736
4.320000E-8	0.000603
4.325000E-8	0.000566
4.330000E-8	0.000555
4.335000E-8	0.000672
4.340000E-8	0.000761
4.345000E-8	0.000958
4.350000E-8	0.001150
4.355000E-8	0.001413
4.360000E-8	0.001633
4.365000E-8	0.001883
4.370000E-8	0.002122
4.375000E-8	0.002333
4.380000E-8	0.002522
4.385000E-8	0.002725
4.390000E-8	0.002763
4.395000E-8	0.002792
4.400000E-8	0.002784
4.405000E-8	0.002656
4.410000E-8	0.002508
4.415000E-8	0.002308
4.420000E-8	0.002089
4.425000E-8	0.001817
4.430000E-8	0.001612
4.435000E-8	0.001378
4.440000E-8	0.001200
4.445000E-8	0.000997
4.450000E-8	0.000870
4.455000E-8	0.000789
4.460000E-8	0.000745
4.465000E-8	0.000709
4.470000E-8	0.000795
4.475000E-8	0.000869
4.480000E-8	0.001038
4.485000E-8	0.001248
4.490000E-8	0.001486
4.495000E-8	0.001792
4.500000E-8	0.002055
4.505000E-8	0.002350
4.510000E-8	0.002494
4.515000E-8	0.002691
4.520000E-8	0.002716
4.525000E-8	0.002767
4.530000E-8	0.002650
4.535000E-8	0.002566
4.540000E-8	0.002311
4.545000E-8	0.002077
4.550000E-8	0.001789
4.555000E-8	0.001591
4.560000E-8	0.001278
4.565000E-8	0.001111
4.570000E-8	0.000942
4.575000E-8	0.000869
4.580000E-8	0.000731
4.585000E-8	0.000767
4.590000E-8	0.000839
4.595000E-8	0.000988
4.600000E-8	0.001056
4.605000E-8	0.001214
4.610000E-8	0.001439
4.615000E-8	0.001655
4.620000E-8	0.001934
4.625000E-8	0.002133
4.630000E-8	0.002392
4.635000E-8	0.002570
4.640000E-8	0.002669
4.645000E-8	0.002756
4.650000E-8	0.002703
4.655000E-8	0.002605
4.660000E-8	0.002470
4.665000E-8	0.002245
4.670000E-8	0.001970
4.675000E-8	0.001681
4.680000E-8	0.001377
4.685000E-8	0.001155
4.690000E-8	0.000950
4.695000E-8	0.000770
4.700000E-8	0.000650
4.705000E-8	0.000650
4.710000E-8	0.000659
4.715000E-8	0.000794
4.720000E-8	0.000941
4.725000E-8	0.001130
4.730000E-8	0.001378
4.735000E-8	0.001627
4.740000E-8	0.001875
4.745000E-8	0.002091
4.750000E-8	0.002205
4.755000E-8	0.002425
4.760000E-8	0.002539
4.765000E-8	0.002534
4.770000E-8	0.002495
4.775000E-8	0.002406
4.780000E-8	0.002303
4.785000E-8	0.002039
4.790000E-8	0.001819
4.795000E-8	0.001452
4.800000E-8	0.001222
4.805000E-8	0.001034
4.810000E-8	0.000872
4.815000E-8	0.000681
4.820000E-8	0.000606
4.825000E-8	0.000656
4.830000E-8	0.000695
4.835000E-8	0.000755
4.840000E-8	0.000922
4.845000E-8	0.001025
4.850000E-8	0.001197
4.855000E-8	0.001398
4.860000E-8	0.001513
4.865000E-8	0.001744
4.870000E-8	0.001873
4.875000E-8	0.002108
4.880000E-8	0.002227
4.885000E-8	0.002416
4.890000E-8	0.002502
4.895000E-8	0.002591
4.900000E-8	0.002581
4.905000E-8	0.002495
4.910000E-8	0.002388
4.915000E-8	0.002256
4.920000E-8	0.002042
4.925000E-8	0.001797
4.930000E-8	0.001619
4.935000E-8	0.001388
4.940000E-8	0.001227
4.945000E-8	0.001097
4.950000E-8	0.000986
4.955000E-8	0.000894
4.960000E-8	0.000902
4.965000E-8	0.000953
4.970000E-8	0.001034
4.975000E-8	0.001148
4.980000E-8	0.001309
4.985000E-8	0.001520
4.990000E-8	0.001689
4.995000E-8	0.001888
5.000000E-8	0.002089
5.005000E-8	0.002263
5.010000E-8	0.002413
5.015000E-8	0.002519
5.020000E-8	0.002564
5.025000E-8	0.002533
5.030000E-8	0.002520
5.035000E-8	0.002381
5.040000E-8	0.002209
5.045000E-8	0.002063
5.050000E-8	0.001833
5.055000E-8	0.001608
5.060000E-8	0.001353
5.065000E-8	0.001195
5.070000E-8	0.001109
5.075000E-8	0.001000
5.080000E-8	0.000870
5.085000E-8	0.000872
5.090000E-8	0.000877
5.095000E-8	0.001009
5.100000E-8	0.001131
5.105000E-8	0.001308
5.110000E-8	0.001450
5.115000E-8	0.001581
5.120000E-8	0.001817
5.125000E-8	0.001978
5.130000E-8	0.002119
5.135000E-8	0.002305
5.140000E-8	0.002339
5.145000E-8	0.002461
5.150000E-8	0.002430
5.155000E-8	0.002419
5.160000E-8	0.002311
5.165000E-8	0.002156
5.170000E-8	0.001972
5.175000E-8	0.001836
5.180000E-8	0.001675
5.185000E-8	0.001420
5.190000E-8	0.001136
5.195000E-8	0.000975
5.200000E-8	0.000733
5.205000E-8	0.000663
5.210000E-8	0.000634
5.215000E-8	0.000703
5.220000E-8	0.000802
5.225000E-8	0.000931
5.230000E-8	0.001139
5.235000E-8	0.001328
5.240000E-8	0.001548
5.245000E-8	0.001811
5.250000E-8	0.001975
5.255000E-8	0.002130
5.260000E-8	0.002266
5.265000E-8	0.002347
5.270000E-8	0.002428
5.275000E-8	0.002420
5.280000E-8	0.002416
5.285000E-8	0.002347
5.290000E-8	0.002198
5.295000E-8	0.002052
5.300000E-8	0.001841
5.305000E-8	0.001683
5.310000E-8	0.001442
5.315000E-8	0.001209
5.320000E-8	0.001055
5.325000E-8	0.000945
5.330000E-8	0.000831
5.335000E-8	0.000788
5.340000E-8	0.000827
5.345000E-8	0.000856
5.350000E-8	0.001031
5.355000E-8	0.001134
5.360000E-8	0.001323
5.365000E-8	0.001530
5.370000E-8	0.001663
5.375000E-8	0.001855
5.380000E-8	0.002009
5.385000E-8	0.002205
5.390000E-8	0.002341
5.395000E-8	0.002413
5.400000E-8	0.002453
5.405000E-8	0.002512
5.410000E-8	0.002417
5.415000E-8	0.002367
5.420000E-8	0.002234
5.425000E-8	0.002017
5.430000E-8	0.001861
5.435000E-8	0.001722
5.440000E-8	0.001450
5.445000E-8	0.001292
5.450000E-8	0.001097
5.455000E-8	0.001005
5.460000E-8	0.000920
5.465000E-8	0.000878
5.470000E-8	0.000866
5.475000E-8	0.000942
5.480000E-8	0.001077
5.485000E-8	0.001219
5.490000E-8	0.001397
5.495000E-8	0.001556
5.500000E-8	0.001784
5.505000E-8	0.001902
5.510000E-8	0.002097
5.515000E-8	0.002211
5.520000E-8	0.002284
5.525000E-8	0.002380
5.530000E-8	0.002320
5.535000E-8	0.002355
5.540000E-8	0.002280
5.545000E-8	0.002159
5.550000E-8	0.002012
5.555000E-8	0.001872
5.560000E-8	0.001663
5.565000E-8	0.001431
5.570000E-8	0.001239
5.575000E-8	0.001059
5.580000E-8	0.000878
5.585000E-8	0.000814
5.590000E-8	0.000708
5.595000E-8	0.000759
5.600000E-8	0.000794
5.605000E-8	0.000922
5.610000E-8	0.001106
5.615000E-8	0.001317
5.620000E-8	0.001528
5.625000E-8	0.001741
5.630000E-8	0.001892
5.635000E-8	0.002072
5.640000E-8	0.002139
5.645000E-8	0.002231
5.650000E-8	0.002237
5.655000E-8	0.002191
5.660000E-8	0.002136
5.665000E-8	0.002033
5.670000E-8	0.001859
5.675000E-8	0.001720
5.680000E-8	0.001531
5.685000E-8	0.001375
5.690000E-8	0.001184
5.695000E-8	0.001103
5.700000E-8	0.001020
5.705000E-8	0.001039
5.710000E-8	0.001038
5.715000E-8	0.001064
5.720000E-8	0.001097
5.725000E-8	0.001253
5.730000E-8	0.001378
5.735000E-8	0.001588
5.740000E-8	0.001752
5.745000E-8	0.001964
5.750000E-8	0.002177
5.755000E-8	0.002313
5.760000E-8	0.002439
5.765000E-8	0.002567
5.770000E-8	0.002564
5.775000E-8	0.002644
5.780000E-8	0.002602
5.785000E-8	0.002447
5.790000E-8	0.002334
5.795000E-8	0.002159
5.800000E-8	0.001973
5.805000E-8	0.001769
5.810000E-8	0.001558
5.815000E-8	0.001400
5.820000E-8	0.001256
5.825000E-8	0.001077
5.830000E-8	0.000992
5.835000E-8	0.000953
5.840000E-8	0.000969
5.845000E-8	0.001023
5.850000E-8	0.001128
5.855000E-8	0.001288
5.860000E-8	0.001414
5.865000E-8	0.001664
5.870000E-8	0.001848
5.875000E-8	0.002028
5.880000E-8	0.002180
5.885000E-8	0.002330
5.890000E-8	0.002388
5.895000E-8	0.002394
5.900000E-8	0.002369
5.905000E-8	0.002300
5.910000E-8	0.002147
5.915000E-8	0.001997
5.920000E-8	0.001806
5.925000E-8	0.001575
5.930000E-8	0.001416
5.935000E-8	0.001259
5.940000E-8	0.001094
5.945000E-8	0.000944
5.950000E-8	0.000933
5.955000E-8	0.000855
5.960000E-8	0.000875
5.965000E-8	0.000963
5.970000E-8	0.001034
5.975000E-8	0.001092
5.980000E-8	0.001236
5.985000E-8	0.001303
5.990000E-8	0.001353
5.995000E-8	0.001498
6.000000E-8	0.001619
6.005000E-8	0.001734
6.010000E-8	0.001850
6.015000E-8	0.001997
6.020000E-8	0.002089
6.025000E-8	0.002211
6.030000E-8	0.002239
6.035000E-8	0.002350
6.040000E-8	0.002305
6.045000E-8	0.002222
6.050000E-8	0.002111
6.055000E-8	0.001975
6.060000E-8	0.001792
6.065000E-8	0.001597
6.070000E-8	0.001472
6.075000E-8	0.001302
6.080000E-8	0.001198
6.085000E-8	0.001152
6.090000E-8	0.001058
6.095000E-8	0.000998
6.100000E-8	0.000997
6.105000E-8	0.001111
6.110000E-8	0.001209
6.115000E-8	0.001372
6.120000E-8	0.001463
6.125000E-8	0.001612
6.130000E-8	0.001802
6.135000E-8	0.001981
6.140000E-8	0.002092
6.145000E-8	0.002203
6.150000E-8	0.002264
6.155000E-8	0.002288
6.160000E-8	0.002231
6.165000E-8	0.002158
6.170000E-8	0.002072
6.175000E-8	0.001964
6.180000E-8	0.001770
6.185000E-8	0.001605
6.190000E-8	0.001427
6.195000E-8	0.001241
6.200000E-8	0.001139
6.205000E-8	0.001038
6.210000E-8	0.000953
6.215000E-8	0.000909
6.220000E-8	0.000948
6.225000E-8	0.001020
6.230000E-8	0.001059
6.235000E-8	0.001213
6.240000E-8	0.001350
6.245000E-8	0.001547
6.250000E-8	0.001627
6.255000E-8	0.001814
6.260000E-8	0.001914
6.265000E-8	0.002155
6.270000E-8	0.002155
6.275000E-8	0.002252
6.280000E-8	0.002217
6.285000E-8	0.002180
6.290000E-8	0.002145
6.295000E-8	0.002063
6.300000E-8	0.001931
6.305000E-8	0.001784
6.310000E-8	0.001659
6.315000E-8	0.001503
6.320000E-8	0.001420
6.325000E-8	0.001267
6.330000E-8	0.001130
6.335000E-8	0.001056
6.340000E-8	0.001047
6.345000E-8	0.001109
6.350000E-8	0.001197
6.355000E-8	0.001352
6.360000E-8	0.001461
6.365000E-8	0.001633
6.370000E-8	0.001808
6.375000E-8	0.001950
6.380000E-8	0.002087
6.385000E-8	0.002250
6.390000E-8	0.002325
6.395000E-8	0.002363
6.400000E-8	0.002303
6.405000E-8	0.002317
6.410000E-8	0.002244
6.415000E-8	0.002217
6.420000E-8	0.002092
6.425000E-8	0.001980
6.430000E-8	0.001800
6.435000E-8	0.001641
6.440000E-8	0.001516
6.445000E-8	0.001292
6.450000E-8	0.001214
6.455000E-8	0.001041
6.460000E-8	0.000939
6.465000E-8	0.000850
6.470000E-8	0.000858
6.475000E-8	0.000892
6.480000E-8	0.000936
6.485000E-8	0.001058
6.490000E-8	0.001202
6.495000E-8	0.001386
6.500000E-8	0.001608
6.505000E-8	0.001784
6.510000E-8	0.002052
6.515000E-8	0.002197
6.520000E-8	0.002361
6.525000E-8	0.002386
6.530000E-8	0.002394
6.535000E-8	0.002320
6.540000E-8	0.002266
6.545000E-8	0.002177
6.550000E-8	0.002056
6.555000E-8	0.001939
6.560000E-8	0.001825
6.565000E-8	0.001642
6.570000E-8	0.001491
6.575000E-8	0.001452
6.580000E-8	0.001344
6.585000E-8	0.001386
6.590000E-8	0.001378
6.595000E-8	0.001388
6.600000E-8	0.001405
6.605000E-8	0.001502
6.610000E-8	0.001620
6.615000E-8	0.001777
6.620000E-8	0.001897
6.625000E-8	0.002020
6.630000E-8	0.002198
6.635000E-8	0.002288
6.640000E-8	0.002389
6.645000E-8	0.002428
6.650000E-8	0.002372
6.655000E-8	0.002378
6.660000E-8	0.002259
6.665000E-8	0.002147
6.670000E-8	0.001998
6.675000E-8	0.001897
6.680000E-8	0.001700
6.685000E-8	0.001508
6.690000E-8	0.001355
6.695000E-8	0.001241
6.700000E-8	0.001139
6.705000E-8	0.001075
6.710000E-8	0.001109
6.715000E-8	0.001116
6.720000E-8	0.001175
6.725000E-8	0.001289
6.730000E-8	0.001375
6.735000E-8	0.001520
6.740000E-8	0.001678
6.745000E-8	0.001869
6.750000E-8	0.001956
6.755000E-8	0.002048
6.760000E-8	0.002111
6.765000E-8	0.002156
6.770000E-8	0.002123
6.775000E-8	0.002166
6.780000E-8	0.002116
6.785000E-8	0.002061
6.790000E-8	0.002061
6.795000E-8	0.002078
6.800000E-8	0.001937
6.805000E-8	0.001880
6.810000E-8	0.001750
6.815000E-8	0.001581
6.820000E-8	0.001486
6.825000E-8	0.001334
6.830000E-8	0.001186
6.835000E-8	0.001130
6.840000E-8	0.001108
6.845000E-8	0.000961
6.850000E-8	0.001002
6.855000E-8	0.001044
6.860000E-8	0.001156
6.865000E-8	0.001286
6.870000E-8	0.001453
6.875000E-8	0.001669
6.880000E-8	0.001808
6.885000E-8	0.002009
6.890000E-8	0.002162
6.895000E-8	0.002336
6.900000E-8	0.002467
6.905000E-8	0.002481
6.910000E-8	0.002395
6.915000E-8	0.002372
6.920000E-8	0.002245
6.925000E-8	0.002120
6.930000E-8	0.001966
6.935000E-8	0.001811
6.940000E-8	0.001700
6.945000E-8	0.001553
6.950000E-8	0.001433
6.955000E-8	0.001388
6.960000E-8	0.001334
6.965000E-8	0.001320
6.970000E-8	0.001259
6.975000E-8	0.001280
6.980000E-8	0.001320
6.985000E-8	0.001373
6.990000E-8	0.001472
6.995000E-8	0.001563
7.000000E-8	0.001706
7.005000E-8	0.001834
7.010000E-8	0.001913
7.015000E-8	0.002033
7.020000E-8	0.002091
7.025000E-8	0.002194
7.030000E-8	0.002167
7.035000E-8	0.002064
7.040000E-8	0.002030
7.045000E-8	0.001884
7.050000E-8	0.001706
7.055000E-8	0.001598
7.060000E-8	0.001422
7.065000E-8	0.001270
7.070000E-8	0.001181
7.075000E-8	0.001098
7.080000E-8	0.001027
7.085000E-8	0.001047
7.090000E-8	0.000997
7.095000E-8	0.001070
7.100000E-8	0.001164
7.105000E-8	0.001269
7.110000E-8	0.001395
7.115000E-8	0.001544
7.120000E-8	0.001687
7.125000E-8	0.001811
7.130000E-8	0.001933
7.135000E-8	0.002014
7.140000E-8	0.002087
7.145000E-8	0.002211
7.150000E-8	0.002273
7.155000E-8	0.002248
7.160000E-8	0.002264
7.165000E-8	0.002208
7.170000E-8	0.002109
7.175000E-8	0.002045
7.180000E-8	0.001891
7.185000E-8	0.001780
7.190000E-8	0.001616
7.195000E-8	0.001478
7.200000E-8	0.001303
7.205000E-8	0.001189
7.210000E-8	0.001122
7.215000E-8	0.001080
7.220000E-8	0.001084
7.225000E-8	0.001153
7.230000E-8	0.001248
7.235000E-8	0.001416
7.240000E-8	0.001611
7.245000E-8	0.001722
7.250000E-8	0.001875
7.255000E-8	0.002072
7.260000E-8	0.002183
7.265000E-8	0.002338
7.270000E-8	0.002411
7.275000E-8	0.002384
7.280000E-8	0.002363
7.285000E-8	0.002311
7.290000E-8	0.002252
7.295000E-8	0.002164
7.300000E-8	0.001952
7.305000E-8	0.001795
7.310000E-8	0.001714
7.315000E-8	0.001542
7.320000E-8	0.001453
7.325000E-8	0.001356
7.330000E-8	0.001328
7.335000E-8	0.001298
7.340000E-8	0.001253
7.345000E-8	0.001367
7.350000E-8	0.001409
7.355000E-8	0.001600
7.360000E-8	0.001692
7.365000E-8	0.001820
7.370000E-8	0.001986
7.375000E-8	0.002102
7.380000E-8	0.002225
7.385000E-8	0.002223
7.390000E-8	0.002258
7.395000E-8	0.002208
7.400000E-8	0.002158
7.405000E-8	0.002102
7.410000E-8	0.002052
7.415000E-8	0.001859
7.420000E-8	0.001894
7.425000E-8	0.001891
7.430000E-8	0.001805
7.435000E-8	0.001659
7.440000E-8	0.001642
7.445000E-8	0.001577
7.450000E-8	0.001433
7.455000E-8	0.001359
7.460000E-8	0.001223
7.465000E-8	0.001225
7.470000E-8	0.001228
7.475000E-8	0.001297
7.480000E-8	0.001333
7.485000E-8	0.001459
7.490000E-8	0.001645
7.495000E-8	0.001797
7.500000E-8	0.001923
7.505000E-8	0.002070
7.510000E-8	0.002188
7.515000E-8	0.002261
7.520000E-8	0.002291
7.525000E-8	0.002311
7.530000E-8	0.002320
7.535000E-8	0.002242
7.540000E-8	0.002180
7.545000E-8	0.002061
7.550000E-8	0.001952
7.555000E-8	0.001903
7.560000E-8	0.001706
7.565000E-8	0.001622
7.570000E-8	0.001494
7.575000E-8	0.001433
7.580000E-8	0.001314
7.585000E-8	0.001245
7.590000E-8	0.001269
7.595000E-8	0.001292
7.600000E-8	0.001370
7.605000E-8	0.001492
7.610000E-8	0.001548
7.615000E-8	0.001641
7.620000E-8	0.001755
7.625000E-8	0.001823
7.630000E-8	0.001898
7.635000E-8	0.001894
7.640000E-8	0.001909
7.645000E-8	0.001881
7.650000E-8	0.001870
7.655000E-8	0.001856
7.660000E-8	0.001791
7.665000E-8	0.001756
7.670000E-8	0.001745
7.675000E-8	0.001777
7.680000E-8	0.001795
7.685000E-8	0.001756
7.690000E-8	0.001633
7.695000E-8	0.001588
7.700000E-8	0.001470
7.705000E-8	0.001344
7.710000E-8	0.001239
7.715000E-8	0.001127
7.720000E-8	0.001094
7.725000E-8	0.001078
7.730000E-8	0.001098
7.735000E-8	0.001223
7.740000E-8	0.001292
7.745000E-8	0.001452
7.750000E-8	0.001678
7.755000E-8	0.001841
7.760000E-8	0.002000
7.765000E-8	0.002116
7.770000E-8	0.002230
7.775000E-8	0.002286
7.780000E-8	0.002272
7.785000E-8	0.002252
7.790000E-8	0.002131
7.795000E-8	0.002091
7.800000E-8	0.001913
7.805000E-8	0.001817
7.810000E-8	0.001691
7.815000E-8	0.001516
7.820000E-8	0.001377
7.825000E-8	0.001319
7.830000E-8	0.001273
7.835000E-8	0.001277
7.840000E-8	0.001292
7.845000E-8	0.001314
7.850000E-8	0.001478
7.855000E-8	0.001570
7.860000E-8	0.001617
7.865000E-8	0.001672
7.870000E-8	0.001728
7.875000E-8	0.001797
7.880000E-8	0.001864
7.885000E-8	0.001911
7.890000E-8	0.001972
7.895000E-8	0.001973
7.900000E-8	0.002050
7.905000E-8	0.002058
7.910000E-8	0.002006
7.915000E-8	0.001956
7.920000E-8	0.001873
7.925000E-8	0.001798
7.930000E-8	0.001617
7.935000E-8	0.001478
7.940000E-8	0.001380
7.945000E-8	0.001338
7.950000E-8	0.001291
7.955000E-8	0.001339
7.960000E-8	0.001358
7.965000E-8	0.001383
7.970000E-8	0.001420
7.975000E-8	0.001433
7.980000E-8	0.001494
7.985000E-8	0.001514
7.990000E-8	0.001561
7.995000E-8	0.001603
8.000000E-8	0.001633
8.005000E-8	0.001653
8.010000E-8	0.001734
8.015000E-8	0.001817
8.020000E-8	0.001852
8.025000E-8	0.001981
8.030000E-8	0.002003
8.035000E-8	0.002042
8.040000E-8	0.002080
8.045000E-8	0.002003
8.050000E-8	0.001864
8.055000E-8	0.001819
8.060000E-8	0.001748
8.065000E-8	0.001686
8.070000E-8	0.001561
8.075000E-8	0.001483
8.080000E-8	0.001478
8.085000E-8	0.001380
8.090000E-8	0.001300
8.095000E-8	0.001316
8.100000E-8	0.001341
8.105000E-8	0.001378
8.110000E-8	0.001383
8.115000E-8	0.001505
8.120000E-8	0.001567
8.125000E-8	0.001670
8.130000E-8	0.001786
8.135000E-8	0.001850
8.140000E-8	0.001905
8.145000E-8	0.001945
8.150000E-8	0.001925
8.155000E-8	0.001842
8.160000E-8	0.001792
8.165000E-8	0.001761
8.170000E-8	0.001652
8.175000E-8	0.001617
8.180000E-8	0.001589
8.185000E-8	0.001570
8.190000E-8	0.001541
8.195000E-8	0.001530
8.200000E-8	0.001489
8.205000E-8	0.001463
8.210000E-8	0.001437
8.215000E-8	0.001409
8.220000E-8	0.001433
8.225000E-8	0.001434
8.230000E-8	0.001459
8.235000E-8	0.001545
8.240000E-8	0.001603
8.245000E-8	0.001742
8.250000E-8	0.001847
8.255000E-8	0.002011
8.260000E-8	0.002155
8.265000E-8	0.002264
8.270000E-8	0.002291
8.275000E-8	0.002319
8.280000E-8	0.002300
8.285000E-8	0.002239
8.290000E-8	0.002111
8.295000E-8	0.002102
8.300000E-8	0.002009
8.305000E-8	0.001886
8.310000E-8	0.001797
8.315000E-8	0.001677
8.320000E-8	0.001656
8.325000E-8	0.001617
8.330000E-8	0.001611
8.335000E-8	0.001639
8.340000E-8	0.001623
8.345000E-8	0.001681
8.350000E-8	0.001677
8.355000E-8	0.001748
8.360000E-8	0.001788
8.365000E-8	0.001753
8.370000E-8	0.001838
8.375000E-8	0.001911
8.380000E-8	0.001914
8.385000E-8	0.002003
8.390000E-8	0.002002
8.395000E-8	0.001923
8.400000E-8	0.001977
8.405000E-8	0.002000
8.410000E-8	0.001920
8.415000E-8	0.001859
8.420000E-8	0.001786
8.425000E-8	0.001678
8.430000E-8	0.001606
8.435000E-8	0.001603
8.440000E-8	0.001508
8.445000E-8	0.001494
8.450000E-8	0.001450
8.455000E-8	0.001470
8.460000E-8	0.001409
8.465000E-8	0.001430
8.470000E-8	0.001447
8.475000E-8	0.001508
8.480000E-8	0.001516
8.485000E-8	0.001673
8.490000E-8	0.001741
8.495000E-8	0.001841
8.500000E-8	0.001888
8.505000E-8	0.001978
8.510000E-8	0.002003
8.515000E-8	0.002031
8.520000E-8	0.002055
8.525000E-8	0.002023
8.530000E-8	0.002016
8.535000E-8	0.001934
8.540000E-8	0.001823
8.545000E-8	0.001838
8.550000E-8	0.001845
8.555000E-8	0.001838
8.560000E-8	0.001780
8.565000E-8	0.001808
8.570000E-8	0.001788
8.575000E-8	0.001825
8.580000E-8	0.001800
8.585000E-8	0.001720
8.590000E-8	0.001689
8.595000E-8	0.001722
8.600000E-8	0.001689
8.605000E-8	0.001716
8.610000E-8	0.001716
8.615000E-8	0.001741
8.620000E-8	0.001864
8.625000E-8	0.002019
8.630000E-8	0.002114
8.635000E-8	0.002134
8.640000E-8	0.002253
8.645000E-8	0.002264
8.650000E-8	0.002198
8.655000E-8	0.002194
8.660000E-8	0.002161
8.665000E-8	0.002087
8.670000E-8	0.001961
8.675000E-8	0.001903
8.680000E-8	0.001788
8.685000E-8	0.001725
8.690000E-8	0.001653
8.695000E-8	0.001617
8.700000E-8	0.001534
8.705000E-8	0.001545
8.710000E-8	0.001500
8.715000E-8	0.001442
8.720000E-8	0.001453
8.725000E-8	0.001463
8.730000E-8	0.001484
8.735000E-8	0.001528
8.740000E-8	0.001609
8.745000E-8	0.001750
8.750000E-8	0.001834
8.755000E-8	0.001941
8.760000E-8	0.001969
8.765000E-8	0.002164
8.770000E-8	0.002194
8.775000E-8	0.002237
8.780000E-8	0.002219
8.785000E-8	0.002206
8.790000E-8	0.002141
8.795000E-8	0.002097
8.800000E-8	0.002002
8.805000E-8	0.001892
8.810000E-8	0.001823
8.815000E-8	0.001783
8.820000E-8	0.001638
8.825000E-8	0.001584
8.830000E-8	0.001488
8.835000E-8	0.001405
8.840000E-8	0.001356
8.845000E-8	0.001411
8.850000E-8	0.001394
8.855000E-8	0.001506
8.860000E-8	0.001592
8.865000E-8	0.001656
8.870000E-8	0.001769
8.875000E-8	0.001898
8.880000E-8	0.001981
8.885000E-8	0.002050
8.890000E-8	0.002109
8.895000E-8	0.002155
8.900000E-8	0.002194
8.905000E-8	0.002173
8.910000E-8	0.002195
8.915000E-8	0.002167
8.920000E-8	0.002203
8.925000E-8	0.002166
8.930000E-8	0.002094
8.935000E-8	0.002000
8.940000E-8	0.001903
8.945000E-8	0.001888
8.950000E-8	0.001889
8.955000E-8	0.001853
8.960000E-8	0.001848
8.965000E-8	0.001831
8.970000E-8	0.001863
8.975000E-8	0.001870
8.980000E-8	0.001886
8.985000E-8	0.001866
8.990000E-8	0.001870
8.995000E-8	0.001842
9.000000E-8	0.001870
9.005000E-8	0.001872
9.010000E-8	0.001773
9.015000E-8	0.001803
9.020000E-8	0.001800
9.025000E-8	0.001811
9.030000E-8	0.001781
9.035000E-8	0.001814
9.040000E-8	0.001828
9.045000E-8	0.001761
9.050000E-8	0.001744
9.055000E-8	0.001673
9.060000E-8	0.001661
9.065000E-8	0.001611
9.070000E-8	0.001589
9.075000E-8	0.001586
9.080000E-8	0.001514
9.085000E-8	0.001530
9.090000E-8	0.001544
9.095000E-8	0.001580
9.100000E-8	0.001628
9.105000E-8	0.001620
9.110000E-8	0.001695
9.115000E-8	0.001711
9.120000E-8	0.001800
9.125000E-8	0.001838
9.130000E-8	0.001847
9.135000E-8	0.001975
9.140000E-8	0.001997
9.145000E-8	0.002003
9.150000E-8	0.002000
9.155000E-8	0.001947
9.160000E-8	0.001863
9.165000E-8	0.001788
9.170000E-8	0.001705
9.175000E-8	0.001666
9.180000E-8	0.001584
9.185000E-8	0.001500
9.190000E-8	0.001558
9.195000E-8	0.001606
9.200000E-8	0.001611
9.205000E-8	0.001694
9.210000E-8	0.001661
9.215000E-8	0.001713
9.220000E-8	0.001723
9.225000E-8	0.001678
9.230000E-8	0.001614
9.235000E-8	0.001588
9.240000E-8	0.001602
9.245000E-8	0.001642
9.250000E-8	0.001663
9.255000E-8	0.001759
9.260000E-8	0.001866
9.265000E-8	0.001966
9.270000E-8	0.002053
9.275000E-8	0.002086
9.280000E-8	0.002092
9.285000E-8	0.002134
9.290000E-8	0.002017
9.295000E-8	0.001969
9.300000E-8	0.001933
9.305000E-8	0.001850
9.310000E-8	0.001745
9.315000E-8	0.001713
9.320000E-8	0.001714
9.325000E-8	0.001680
9.330000E-8	0.001608
9.335000E-8	0.001545
9.340000E-8	0.001491
9.345000E-8	0.001481
9.350000E-8	0.001384
9.355000E-8	0.001483
9.360000E-8	0.001514
9.365000E-8	0.001616
9.370000E-8	0.001631
9.375000E-8	0.001769
9.380000E-8	0.001917
9.385000E-8	0.002012
9.390000E-8	0.002064
9.395000E-8	0.002103
9.400000E-8	0.002022
9.405000E-8	0.002034
9.410000E-8	0.001956
9.415000E-8	0.001886
9.420000E-8	0.001719
9.425000E-8	0.001672
9.430000E-8	0.001580
9.435000E-8	0.001488
9.440000E-8	0.001458
9.445000E-8	0.001461
9.450000E-8	0.001355
9.455000E-8	0.001334
9.460000E-8	0.001364
9.465000E-8	0.001380
9.470000E-8	0.001437
9.475000E-8	0.001473
9.480000E-8	0.001413
9.485000E-8	0.001437
9.490000E-8	0.001517
9.495000E-8	0.001541
9.500000E-8	0.001597
9.505000E-8	0.001642
9.510000E-8	0.001741
9.515000E-8	0.001770
9.520000E-8	0.001767
9.525000E-8	0.001905
9.530000E-8	0.001928
9.535000E-8	0.002008
9.540000E-8	0.002041
9.545000E-8	0.002067
9.550000E-8	0.002081
9.555000E-8	0.002034
9.560000E-8	0.001961
9.565000E-8	0.001897
9.570000E-8	0.001778
9.575000E-8	0.001667
9.580000E-8	0.001566
9.585000E-8	0.001514
9.590000E-8	0.001384
9.595000E-8	0.001397
9.600000E-8	0.001358
9.605000E-8	0.001380
9.610000E-8	0.001419
9.615000E-8	0.001536
9.620000E-8	0.001644
9.625000E-8	0.001764
9.630000E-8	0.001955
9.635000E-8	0.002103
9.640000E-8	0.002173
9.645000E-8	0.002197
9.650000E-8	0.002195
9.655000E-8	0.002153
9.660000E-8	0.002077
9.665000E-8	0.002023
9.670000E-8	0.001911
9.675000E-8	0.001820
9.680000E-8	0.001738
9.685000E-8	0.001625
9.690000E-8	0.001553
9.695000E-8	0.001478
9.700000E-8	0.001480
9.705000E-8	0.001450
9.710000E-8	0.001395
9.715000E-8	0.001441
9.720000E-8	0.001350
9.725000E-8	0.001439
9.730000E-8	0.001450
9.735000E-8	0.001425
9.740000E-8	0.001413
9.745000E-8	0.001503
9.750000E-8	0.001558
9.755000E-8	0.001677
9.760000E-8	0.001700
9.765000E-8	0.001828
9.770000E-8	0.001928
9.775000E-8	0.002005
9.780000E-8	0.002002
9.785000E-8	0.002105
9.790000E-8	0.002059
9.795000E-8	0.002077
9.800000E-8	0.002053
9.805000E-8	0.001931
9.810000E-8	0.001819
9.815000E-8	0.001759
9.820000E-8	0.001669
9.825000E-8	0.001620
9.830000E-8	0.001592
9.835000E-8	0.001508
9.840000E-8	0.001480
9.845000E-8	0.001430
9.850000E-8	0.001491
9.855000E-8	0.001495
9.860000E-8	0.001580
9.865000E-8	0.001581
9.870000E-8	0.001669
9.875000E-8	0.001706
9.880000E-8	0.001802
9.885000E-8	0.001834
9.890000E-8	0.001803
9.895000E-8	0.001783
9.900000E-8	0.001758
9.905000E-8	0.001697
9.910000E-8	0.001713
9.915000E-8	0.001684
9.920000E-8	0.001614
9.925000E-8	0.001683
9.930000E-8	0.001670
9.935000E-8	0.001653
9.940000E-8	0.001639
9.945000E-8	0.001645
9.950000E-8	0.001647
9.955000E-8	0.001566
9.960000E-8	0.001519
9.965000E-8	0.001506
9.970000E-8	0.001458
9.975000E-8	0.001519
9.980000E-8	0.001505
9.985000E-8	0.001500
9.990000E-8	0.001631
9.995000E-8	0.001644
