LabVIEW Measurement	
Writer_Version	2
Reader_Version	2
Separator	Tab
Decimal_Separator	.
Multi_Headings	No
X_Columns	Multi
Time_Pref	Relative
Operator	TG lab
Date	2015/03/06
Time	19:34:05.2276492118835449219
***End_of_Header***	
	
Channels	1	
Samples	2000	
Date	1903/12/31	
Time	19:00:00	
X_Dimension	Time	
X0	0.0000000000000000E+0	
Delta_X	5.000000E-11	
***End_of_Header***		
X_Value	Untitled	Comment
0.000000	0.003244
5.000000E-11	0.003269
1.000000E-10	0.003300
1.500000E-10	0.003313
2.000000E-10	0.003225
2.500000E-10	0.003213
3.000000E-10	0.003213
3.500000E-10	0.003156
4.000000E-10	0.003034
4.500000E-10	0.003016
5.000000E-10	0.002934
5.500000E-10	0.002916
6.000000E-10	0.002919
6.500000E-10	0.002878
7.000000E-10	0.002894
7.500000E-10	0.002809
8.000000E-10	0.002747
8.500000E-10	0.002756
9.000000E-10	0.002678
9.500000E-10	0.002813
1.000000E-9	0.002759
1.050000E-9	0.002863
1.100000E-9	0.002803
1.150000E-9	0.002922
1.200000E-9	0.002922
1.250000E-9	0.002956
1.300000E-9	0.003016
1.350000E-9	0.003056
1.400000E-9	0.002997
1.450000E-9	0.002928
1.500000E-9	0.002725
1.550000E-9	0.002744
1.600000E-9	0.002741
1.650000E-9	0.002634
1.700000E-9	0.002538
1.750000E-9	0.002603
1.800000E-9	0.002544
1.850000E-9	0.002559
1.900000E-9	0.002522
1.950000E-9	0.002644
2.000000E-9	0.002488
2.050000E-9	0.002431
2.100000E-9	0.002381
2.150000E-9	0.002431
2.200000E-9	0.002416
2.250000E-9	0.002394
2.300000E-9	0.002563
2.350000E-9	0.002566
2.400000E-9	0.002600
2.450000E-9	0.002591
2.500000E-9	0.002531
2.550000E-9	0.002584
2.600000E-9	0.002519
2.650000E-9	0.002450
2.700000E-9	0.002275
2.750000E-9	0.002300
2.800000E-9	0.002178
2.850000E-9	0.002188
2.900000E-9	0.002181
2.950000E-9	0.002188
3.000000E-9	0.002078
3.050000E-9	0.002263
3.100000E-9	0.002269
3.150000E-9	0.002300
3.200000E-9	0.002275
3.250000E-9	0.002331
3.300000E-9	0.002303
3.350000E-9	0.002309
3.400000E-9	0.002188
3.450000E-9	0.002234
3.500000E-9	0.002316
3.550000E-9	0.002369
3.600000E-9	0.002200
3.650000E-9	0.002244
3.700000E-9	0.002247
3.750000E-9	0.002263
3.800000E-9	0.002294
3.850000E-9	0.002237
3.900000E-9	0.002275
3.950000E-9	0.002322
4.000000E-9	0.002297
4.050000E-9	0.002441
4.100000E-9	0.002456
4.150000E-9	0.002541
4.200000E-9	0.002406
4.250000E-9	0.002503
4.300000E-9	0.002400
4.350000E-9	0.002303
4.400000E-9	0.002188
4.450000E-9	0.002206
4.500000E-9	0.001878
4.550000E-9	0.001878
4.600000E-9	0.001700
4.650000E-9	0.001444
4.700000E-9	0.001366
4.750000E-9	0.001122
4.800000E-9	0.000669
4.850000E-9	0.000206
4.900000E-9	-0.000409
4.950000E-9	-0.001319
5.000000E-9	-0.002428
5.050000E-9	-0.003850
5.100000E-9	-0.005591
5.150000E-9	-0.007394
5.200000E-9	-0.009425
5.250000E-9	-0.011541
5.300000E-9	-0.013709
5.350000E-9	-0.015725
5.400000E-9	-0.017672
5.450000E-9	-0.019266
5.500000E-9	-0.020631
5.550000E-9	-0.021666
5.600000E-9	-0.022247
5.650000E-9	-0.022525
5.700000E-9	-0.022397
5.750000E-9	-0.022063
5.800000E-9	-0.021394
5.850000E-9	-0.020369
5.900000E-9	-0.019363
5.950000E-9	-0.017997
6.000000E-9	-0.016750
6.050000E-9	-0.015359
6.100000E-9	-0.014141
6.150000E-9	-0.012969
6.200000E-9	-0.012163
6.250000E-9	-0.011494
6.300000E-9	-0.011028
6.350000E-9	-0.010869
6.400000E-9	-0.010953
6.450000E-9	-0.011391
6.500000E-9	-0.011881
6.550000E-9	-0.012438
6.600000E-9	-0.013050
6.650000E-9	-0.013644
6.700000E-9	-0.014247
6.750000E-9	-0.014553
6.800000E-9	-0.014894
6.850000E-9	-0.015066
6.900000E-9	-0.014994
6.950000E-9	-0.014575
7.000000E-9	-0.014144
7.050000E-9	-0.013466
7.100000E-9	-0.012684
7.150000E-9	-0.011897
7.200000E-9	-0.011047
7.250000E-9	-0.009931
7.300000E-9	-0.008891
7.350000E-9	-0.007766
7.400000E-9	-0.006966
7.450000E-9	-0.006128
7.500000E-9	-0.005613
7.550000E-9	-0.005228
7.600000E-9	-0.004956
7.650000E-9	-0.004872
7.700000E-9	-0.005213
7.750000E-9	-0.005503
7.800000E-9	-0.005997
7.850000E-9	-0.006522
7.900000E-9	-0.007163
7.950000E-9	-0.007641
8.000000E-9	-0.008341
8.050000E-9	-0.008797
8.100000E-9	-0.009084
8.150000E-9	-0.009216
8.200000E-9	-0.009191
8.250000E-9	-0.008863
8.300000E-9	-0.008400
8.350000E-9	-0.007753
8.400000E-9	-0.006931
8.450000E-9	-0.005894
8.500000E-9	-0.005081
8.550000E-9	-0.004125
8.600000E-9	-0.003284
8.650000E-9	-0.002319
8.700000E-9	-0.001788
8.750000E-9	-0.001366
8.800000E-9	-0.001116
8.850000E-9	-0.000981
8.900000E-9	-0.001097
8.950000E-9	-0.001497
9.000000E-9	-0.001988
9.050000E-9	-0.002469
9.100000E-9	-0.003162
9.150000E-9	-0.003981
9.200000E-9	-0.004622
9.250000E-9	-0.005347
9.300000E-9	-0.005925
9.350000E-9	-0.006350
9.400000E-9	-0.006622
9.450000E-9	-0.006766
9.500000E-9	-0.006597
9.550000E-9	-0.006172
9.600000E-9	-0.005684
9.650000E-9	-0.004941
9.700000E-9	-0.004097
9.750000E-9	-0.003141
9.800000E-9	-0.002269
9.850000E-9	-0.001350
9.900000E-9	-0.000475
9.950000E-9	0.000241
1.000000E-8	0.000759
1.005000E-8	0.001047
1.010000E-8	0.001328
1.015000E-8	0.001141
1.020000E-8	0.000903
1.025000E-8	0.000513
1.030000E-8	-6.250000E-5
1.035000E-8	-0.000750
1.040000E-8	-0.001575
1.045000E-8	-0.002391
1.050000E-8	-0.002966
1.055000E-8	-0.003584
1.060000E-8	-0.004206
1.065000E-8	-0.004409
1.070000E-8	-0.004481
1.075000E-8	-0.004403
1.080000E-8	-0.004094
1.085000E-8	-0.003584
1.090000E-8	-0.003003
1.095000E-8	-0.002100
1.100000E-8	-0.001281
1.105000E-8	-0.000341
1.110000E-8	0.000525
1.115000E-8	0.001394
1.120000E-8	0.002100
1.125000E-8	0.002662
1.130000E-8	0.002891
1.135000E-8	0.003200
1.140000E-8	0.003153
1.145000E-8	0.002944
1.150000E-8	0.002434
1.155000E-8	0.001734
1.160000E-8	0.000947
1.165000E-8	0.000100
1.170000E-8	-0.000684
1.175000E-8	-0.001581
1.180000E-8	-0.002250
1.185000E-8	-0.002766
1.190000E-8	-0.003316
1.195000E-8	-0.003459
1.200000E-8	-0.003572
1.205000E-8	-0.003253
1.210000E-8	-0.002903
1.215000E-8	-0.002272
1.220000E-8	-0.001622
1.225000E-8	-0.000713
1.230000E-8	-3.125000E-6
1.235000E-8	0.000978
1.240000E-8	0.001663
1.245000E-8	0.002506
1.250000E-8	0.003000
1.255000E-8	0.003438
1.260000E-8	0.003534
1.265000E-8	0.003550
1.270000E-8	0.003256
1.275000E-8	0.002822
1.280000E-8	0.002162
1.285000E-8	0.001503
1.290000E-8	0.000666
1.295000E-8	-0.000184
1.300000E-8	-0.000931
1.305000E-8	-0.001759
1.310000E-8	-0.002378
1.315000E-8	-0.002681
1.320000E-8	-0.002816
1.325000E-8	-0.002728
1.330000E-8	-0.002359
1.335000E-8	-0.001781
1.340000E-8	-0.001169
1.345000E-8	-0.000488
1.350000E-8	0.000322
1.355000E-8	0.001131
1.360000E-8	0.001906
1.365000E-8	0.002688
1.370000E-8	0.003291
1.375000E-8	0.003891
1.380000E-8	0.004125
1.385000E-8	0.004363
1.390000E-8	0.004300
1.395000E-8	0.004112
1.400000E-8	0.003750
1.405000E-8	0.003175
1.410000E-8	0.002459
1.415000E-8	0.001794
1.420000E-8	0.000972
1.425000E-8	0.000369
1.430000E-8	-0.000300
1.435000E-8	-0.000822
1.440000E-8	-0.001225
1.445000E-8	-0.001431
1.450000E-8	-0.001450
1.455000E-8	-0.001294
1.460000E-8	-0.001056
1.465000E-8	-0.000641
1.470000E-8	-0.000153
1.475000E-8	0.000544
1.480000E-8	0.001156
1.485000E-8	0.001900
1.490000E-8	0.002600
1.495000E-8	0.003391
1.500000E-8	0.003856
1.505000E-8	0.004269
1.510000E-8	0.004431
1.515000E-8	0.004425
1.520000E-8	0.004256
1.525000E-8	0.003966
1.530000E-8	0.003431
1.535000E-8	0.002834
1.540000E-8	0.002066
1.545000E-8	0.001388
1.550000E-8	0.000672
1.555000E-8	6.250000E-5
1.560000E-8	-0.000472
1.565000E-8	-0.000934
1.570000E-8	-0.001191
1.575000E-8	-0.001356
1.580000E-8	-0.001266
1.585000E-8	-0.000922
1.590000E-8	-0.000428
1.595000E-8	0.000222
1.600000E-8	0.000981
1.605000E-8	0.001925
1.610000E-8	0.002709
1.615000E-8	0.003584
1.620000E-8	0.004325
1.625000E-8	0.004938
1.630000E-8	0.005356
1.635000E-8	0.005563
1.640000E-8	0.005519
1.645000E-8	0.005338
1.650000E-8	0.004881
1.655000E-8	0.004341
1.660000E-8	0.003656
1.665000E-8	0.002903
1.670000E-8	0.002150
1.675000E-8	0.001425
1.680000E-8	0.000753
1.685000E-8	0.000153
1.690000E-8	-0.000356
1.695000E-8	-0.000709
1.700000E-8	-0.000666
1.705000E-8	-0.000453
1.710000E-8	-0.000106
1.715000E-8	0.000309
1.720000E-8	0.001025
1.725000E-8	0.001713
1.730000E-8	0.002419
1.735000E-8	0.003159
1.740000E-8	0.003703
1.745000E-8	0.004428
1.750000E-8	0.004741
1.755000E-8	0.005119
1.760000E-8	0.005216
1.765000E-8	0.005141
1.770000E-8	0.004913
1.775000E-8	0.004678
1.780000E-8	0.004081
1.785000E-8	0.003475
1.790000E-8	0.002725
1.795000E-8	0.002113
1.800000E-8	0.001372
1.805000E-8	0.000609
1.810000E-8	6.250000E-6
1.815000E-8	-0.000416
1.820000E-8	-0.000534
1.825000E-8	-0.000634
1.830000E-8	-0.000547
1.835000E-8	-0.000181
1.840000E-8	0.000256
1.845000E-8	0.000863
1.850000E-8	0.001475
1.855000E-8	0.002213
1.860000E-8	0.002838
1.865000E-8	0.003453
1.870000E-8	0.003928
1.875000E-8	0.004375
1.880000E-8	0.004653
1.885000E-8	0.004869
1.890000E-8	0.004875
1.895000E-8	0.004756
1.900000E-8	0.004516
1.905000E-8	0.004175
1.910000E-8	0.003681
1.915000E-8	0.003100
1.920000E-8	0.002328
1.925000E-8	0.001741
1.930000E-8	0.001241
1.935000E-8	0.000744
1.940000E-8	0.000341
1.945000E-8	0.000141
1.950000E-8	1.875000E-5
1.955000E-8	0.000237
1.960000E-8	0.000419
1.965000E-8	0.000716
1.970000E-8	0.001184
1.975000E-8	0.002003
1.980000E-8	0.002538
1.985000E-8	0.003225
1.990000E-8	0.003738
1.995000E-8	0.004428
2.000000E-8	0.004803
2.005000E-8	0.005103
2.010000E-8	0.005231
2.015000E-8	0.005269
2.020000E-8	0.005128
2.025000E-8	0.004763
2.030000E-8	0.004219
2.035000E-8	0.003797
2.040000E-8	0.003050
2.045000E-8	0.002472
2.050000E-8	0.001763
2.055000E-8	0.001172
2.060000E-8	0.000700
2.065000E-8	0.000147
2.070000E-8	-0.000156
2.075000E-8	-0.000297
2.080000E-8	-0.000259
2.085000E-8	0.000000
2.090000E-8	0.000297
2.095000E-8	0.000856
2.100000E-8	0.001453
2.105000E-8	0.002159
2.110000E-8	0.002816
2.115000E-8	0.003469
2.120000E-8	0.004091
2.125000E-8	0.004550
2.130000E-8	0.004978
2.135000E-8	0.005116
2.140000E-8	0.005219
2.145000E-8	0.005016
2.150000E-8	0.004738
2.155000E-8	0.004350
2.160000E-8	0.003816
2.165000E-8	0.003247
2.170000E-8	0.002644
2.175000E-8	0.002012
2.180000E-8	0.001378
2.185000E-8	0.000934
2.190000E-8	0.000597
2.195000E-8	0.000272
2.200000E-8	0.000253
2.205000E-8	0.000181
2.210000E-8	0.000228
2.215000E-8	0.000603
2.220000E-8	0.000981
2.225000E-8	0.001687
2.230000E-8	0.002166
2.235000E-8	0.002888
2.240000E-8	0.003459
2.245000E-8	0.003981
2.250000E-8	0.004488
2.255000E-8	0.004900
2.260000E-8	0.005213
2.265000E-8	0.005309
2.270000E-8	0.005222
2.275000E-8	0.004994
2.280000E-8	0.004600
2.285000E-8	0.004138
2.290000E-8	0.003569
2.295000E-8	0.003022
2.300000E-8	0.002328
2.305000E-8	0.001750
2.310000E-8	0.001166
2.315000E-8	0.000769
2.320000E-8	0.000494
2.325000E-8	0.000322
2.330000E-8	0.000231
2.335000E-8	0.000406
2.340000E-8	0.000537
2.345000E-8	0.000978
2.350000E-8	0.001488
2.355000E-8	0.002034
2.360000E-8	0.002469
2.365000E-8	0.003144
2.370000E-8	0.003641
2.375000E-8	0.004138
2.380000E-8	0.004556
2.385000E-8	0.004784
2.390000E-8	0.004881
2.395000E-8	0.004981
2.400000E-8	0.004781
2.405000E-8	0.004450
2.410000E-8	0.004013
2.415000E-8	0.003506
2.420000E-8	0.002891
2.425000E-8	0.002275
2.430000E-8	0.001503
2.435000E-8	0.001016
2.440000E-8	0.000503
2.445000E-8	0.000309
2.450000E-8	0.000109
2.455000E-8	0.000219
2.460000E-8	0.000388
2.465000E-8	0.000653
2.470000E-8	0.001147
2.475000E-8	0.001763
2.480000E-8	0.002325
2.485000E-8	0.003056
2.490000E-8	0.003416
2.495000E-8	0.003997
2.500000E-8	0.004400
2.505000E-8	0.004791
2.510000E-8	0.005063
2.515000E-8	0.005159
2.520000E-8	0.005084
2.525000E-8	0.004856
2.530000E-8	0.004541
2.535000E-8	0.004169
2.540000E-8	0.003688
2.545000E-8	0.003234
2.550000E-8	0.002622
2.555000E-8	0.002147
2.560000E-8	0.001538
2.565000E-8	0.001163
2.570000E-8	0.000900
2.575000E-8	0.000881
2.580000E-8	0.000775
2.585000E-8	0.000869
2.590000E-8	0.001128
2.595000E-8	0.001472
2.600000E-8	0.001841
2.605000E-8	0.002313
2.610000E-8	0.002737
2.615000E-8	0.003278
2.620000E-8	0.003728
2.625000E-8	0.004122
2.630000E-8	0.004438
2.635000E-8	0.004719
2.640000E-8	0.004888
2.645000E-8	0.004866
2.650000E-8	0.004797
2.655000E-8	0.004453
2.660000E-8	0.004256
2.665000E-8	0.003869
2.670000E-8	0.003406
2.675000E-8	0.002897
2.680000E-8	0.002263
2.685000E-8	0.001866
2.690000E-8	0.001450
2.695000E-8	0.001097
2.700000E-8	0.000875
2.705000E-8	0.000791
2.710000E-8	0.000669
2.715000E-8	0.000953
2.720000E-8	0.001122
2.725000E-8	0.001653
2.730000E-8	0.002016
2.735000E-8	0.002578
2.740000E-8	0.003147
2.745000E-8	0.003631
2.750000E-8	0.004119
2.755000E-8	0.004481
2.760000E-8	0.004716
2.765000E-8	0.004950
2.770000E-8	0.005003
2.775000E-8	0.004888
2.780000E-8	0.004544
2.785000E-8	0.004234
2.790000E-8	0.003731
2.795000E-8	0.003225
2.800000E-8	0.002700
2.805000E-8	0.002303
2.810000E-8	0.001928
2.815000E-8	0.001556
2.820000E-8	0.001306
2.825000E-8	0.001144
2.830000E-8	0.000934
2.835000E-8	0.001000
2.840000E-8	0.001150
2.845000E-8	0.001503
2.850000E-8	0.001747
2.855000E-8	0.002178
2.860000E-8	0.002584
2.865000E-8	0.003194
2.870000E-8	0.003678
2.875000E-8	0.004216
2.880000E-8	0.004581
2.885000E-8	0.004941
2.890000E-8	0.005109
2.895000E-8	0.005153
2.900000E-8	0.005028
2.905000E-8	0.004731
2.910000E-8	0.004394
2.915000E-8	0.003966
2.920000E-8	0.003331
2.925000E-8	0.002831
2.930000E-8	0.002272
2.935000E-8	0.001997
2.940000E-8	0.001581
2.945000E-8	0.001472
2.950000E-8	0.001284
2.955000E-8	0.001216
2.960000E-8	0.001316
2.965000E-8	0.001450
2.970000E-8	0.001572
2.975000E-8	0.001963
2.980000E-8	0.002241
2.985000E-8	0.002650
2.990000E-8	0.003106
2.995000E-8	0.003616
3.000000E-8	0.004081
3.005000E-8	0.004366
3.010000E-8	0.004619
3.015000E-8	0.004750
3.020000E-8	0.004841
3.025000E-8	0.004697
3.030000E-8	0.004475
3.035000E-8	0.004047
3.040000E-8	0.003644
3.045000E-8	0.003044
3.050000E-8	0.002616
3.055000E-8	0.002125
3.060000E-8	0.001678
3.065000E-8	0.001322
3.070000E-8	0.001075
3.075000E-8	0.000888
3.080000E-8	0.000781
3.085000E-8	0.000806
3.090000E-8	0.000928
3.095000E-8	0.001191
3.100000E-8	0.001544
3.105000E-8	0.001963
3.110000E-8	0.002372
3.115000E-8	0.002863
3.120000E-8	0.003347
3.125000E-8	0.003928
3.130000E-8	0.004213
3.135000E-8	0.004509
3.140000E-8	0.004719
3.145000E-8	0.004847
3.150000E-8	0.004909
3.155000E-8	0.004713
3.160000E-8	0.004363
3.165000E-8	0.004047
3.170000E-8	0.003547
3.175000E-8	0.003034
3.180000E-8	0.002531
3.185000E-8	0.001988
3.190000E-8	0.001450
3.195000E-8	0.001178
3.200000E-8	0.000931
3.205000E-8	0.000928
3.210000E-8	0.000856
3.215000E-8	0.001028
3.220000E-8	0.001213
3.225000E-8	0.001675
3.230000E-8	0.002100
3.235000E-8	0.002500
3.240000E-8	0.002878
3.245000E-8	0.003319
3.250000E-8	0.003738
3.255000E-8	0.004094
3.260000E-8	0.004397
3.265000E-8	0.004656
3.270000E-8	0.004738
3.275000E-8	0.004659
3.280000E-8	0.004516
3.285000E-8	0.004300
3.290000E-8	0.003931
3.295000E-8	0.003575
3.300000E-8	0.003122
3.305000E-8	0.002631
3.310000E-8	0.002047
3.315000E-8	0.001797
3.320000E-8	0.001466
3.325000E-8	0.001194
3.330000E-8	0.001034
3.335000E-8	0.001125
3.340000E-8	0.001166
3.345000E-8	0.001538
3.350000E-8	0.001816
3.355000E-8	0.002213
3.360000E-8	0.002656
3.365000E-8	0.002981
3.370000E-8	0.003247
3.375000E-8	0.003616
3.380000E-8	0.003869
3.385000E-8	0.004009
3.390000E-8	0.004078
3.395000E-8	0.004122
3.400000E-8	0.004119
3.405000E-8	0.004047
3.410000E-8	0.003925
3.415000E-8	0.003694
3.420000E-8	0.003384
3.425000E-8	0.003069
3.430000E-8	0.002759
3.435000E-8	0.002463
3.440000E-8	0.002172
3.445000E-8	0.001775
3.450000E-8	0.001450
3.455000E-8	0.001356
3.460000E-8	0.001244
3.465000E-8	0.001397
3.470000E-8	0.001481
3.475000E-8	0.001763
3.480000E-8	0.002138
3.485000E-8	0.002572
3.490000E-8	0.002888
3.495000E-8	0.003363
3.500000E-8	0.003738
3.505000E-8	0.004056
3.510000E-8	0.004244
3.515000E-8	0.004497
3.520000E-8	0.004547
3.525000E-8	0.004481
3.530000E-8	0.004444
3.535000E-8	0.004297
3.540000E-8	0.004075
3.545000E-8	0.003800
3.550000E-8	0.003456
3.555000E-8	0.003059
3.560000E-8	0.002713
3.565000E-8	0.002338
3.570000E-8	0.001994
3.575000E-8	0.001722
3.580000E-8	0.001503
3.585000E-8	0.001488
3.590000E-8	0.001503
3.595000E-8	0.001575
3.600000E-8	0.001697
3.605000E-8	0.002019
3.610000E-8	0.002309
3.615000E-8	0.002741
3.620000E-8	0.003063
3.625000E-8	0.003531
3.630000E-8	0.003856
3.635000E-8	0.004100
3.640000E-8	0.004306
3.645000E-8	0.004375
3.650000E-8	0.004387
3.655000E-8	0.004325
3.660000E-8	0.004184
3.665000E-8	0.004003
3.670000E-8	0.003681
3.675000E-8	0.003309
3.680000E-8	0.002978
3.685000E-8	0.002572
3.690000E-8	0.002103
3.695000E-8	0.001891
3.700000E-8	0.001578
3.705000E-8	0.001338
3.710000E-8	0.001291
3.715000E-8	0.001294
3.720000E-8	0.001303
3.725000E-8	0.001550
3.730000E-8	0.001888
3.735000E-8	0.002234
3.740000E-8	0.002697
3.745000E-8	0.003175
3.750000E-8	0.003559
3.755000E-8	0.004109
3.760000E-8	0.004547
3.765000E-8	0.004819
3.770000E-8	0.004938
3.775000E-8	0.005003
3.780000E-8	0.004900
3.785000E-8	0.004716
3.790000E-8	0.004434
3.795000E-8	0.004041
3.800000E-8	0.003609
3.805000E-8	0.003094
3.810000E-8	0.002566
3.815000E-8	0.002188
3.820000E-8	0.002022
3.825000E-8	0.001841
3.830000E-8	0.001656
3.835000E-8	0.001584
3.840000E-8	0.001634
3.845000E-8	0.001794
3.850000E-8	0.001941
3.855000E-8	0.002275
3.860000E-8	0.002525
3.865000E-8	0.002828
3.870000E-8	0.003122
3.875000E-8	0.003600
3.880000E-8	0.003800
3.885000E-8	0.004081
3.890000E-8	0.004262
3.895000E-8	0.004284
3.900000E-8	0.004194
3.905000E-8	0.004169
3.910000E-8	0.004063
3.915000E-8	0.003800
3.920000E-8	0.003622
3.925000E-8	0.003422
3.930000E-8	0.003059
3.935000E-8	0.002809
3.940000E-8	0.002481
3.945000E-8	0.002347
3.950000E-8	0.002119
3.955000E-8	0.001937
3.960000E-8	0.001738
3.965000E-8	0.001738
3.970000E-8	0.001838
3.975000E-8	0.001984
3.980000E-8	0.002147
3.985000E-8	0.002334
3.990000E-8	0.002550
3.995000E-8	0.002944
4.000000E-8	0.003159
4.005000E-8	0.003456
4.010000E-8	0.003719
4.015000E-8	0.003997
4.020000E-8	0.004087
4.025000E-8	0.004150
4.030000E-8	0.004175
4.035000E-8	0.004116
4.040000E-8	0.003913
4.045000E-8	0.003706
4.050000E-8	0.003297
4.055000E-8	0.003147
4.060000E-8	0.002816
4.065000E-8	0.002397
4.070000E-8	0.002103
4.075000E-8	0.001844
4.080000E-8	0.001672
4.085000E-8	0.001531
4.090000E-8	0.001606
4.095000E-8	0.001622
4.100000E-8	0.001691
4.105000E-8	0.001972
4.110000E-8	0.002344
4.115000E-8	0.002616
4.120000E-8	0.003156
4.125000E-8	0.003394
4.130000E-8	0.003728
4.135000E-8	0.004019
4.140000E-8	0.004291
4.145000E-8	0.004397
4.150000E-8	0.004447
4.155000E-8	0.004544
4.160000E-8	0.004397
4.165000E-8	0.004106
4.170000E-8	0.003884
4.175000E-8	0.003616
4.180000E-8	0.003219
4.185000E-8	0.002916
4.190000E-8	0.002512
4.195000E-8	0.002128
4.200000E-8	0.001916
4.205000E-8	0.001822
4.210000E-8	0.001663
4.215000E-8	0.001612
4.220000E-8	0.001578
4.225000E-8	0.001772
4.230000E-8	0.002138
4.235000E-8	0.002347
4.240000E-8	0.002606
4.245000E-8	0.003019
4.250000E-8	0.003203
4.255000E-8	0.003619
4.260000E-8	0.003791
4.265000E-8	0.004000
4.270000E-8	0.004138
4.275000E-8	0.004131
4.280000E-8	0.003941
4.285000E-8	0.003894
4.290000E-8	0.003656
4.295000E-8	0.003509
4.300000E-8	0.003141
4.305000E-8	0.002884
4.310000E-8	0.002678
4.315000E-8	0.002453
4.320000E-8	0.002087
4.325000E-8	0.002006
4.330000E-8	0.001900
4.335000E-8	0.001650
4.340000E-8	0.001584
4.345000E-8	0.001663
4.350000E-8	0.001866
4.355000E-8	0.002072
4.360000E-8	0.002250
4.365000E-8	0.002519
4.370000E-8	0.002703
4.375000E-8	0.003178
4.380000E-8	0.003438
4.385000E-8	0.003831
4.390000E-8	0.004038
4.395000E-8	0.004138
4.400000E-8	0.004250
4.405000E-8	0.004222
4.410000E-8	0.004309
4.415000E-8	0.004163
4.420000E-8	0.003906
4.425000E-8	0.003672
4.430000E-8	0.003300
4.435000E-8	0.003106
4.440000E-8	0.002700
4.445000E-8	0.002534
4.450000E-8	0.002237
4.455000E-8	0.001944
4.460000E-8	0.001819
4.465000E-8	0.001759
4.470000E-8	0.001800
4.475000E-8	0.001981
4.480000E-8	0.002031
4.485000E-8	0.002344
4.490000E-8	0.002544
4.495000E-8	0.002809
4.500000E-8	0.003159
4.505000E-8	0.003200
4.510000E-8	0.003397
4.515000E-8	0.003456
4.520000E-8	0.003663
4.525000E-8	0.003675
4.530000E-8	0.003644
4.535000E-8	0.003669
4.540000E-8	0.003538
4.545000E-8	0.003484
4.550000E-8	0.003278
4.555000E-8	0.003097
4.560000E-8	0.002847
4.565000E-8	0.002644
4.570000E-8	0.002391
4.575000E-8	0.002253
4.580000E-8	0.002047
4.585000E-8	0.001888
4.590000E-8	0.001956
4.595000E-8	0.001969
4.600000E-8	0.001978
4.605000E-8	0.002119
4.610000E-8	0.002153
4.615000E-8	0.002450
4.620000E-8	0.002613
4.625000E-8	0.002853
4.630000E-8	0.003159
4.635000E-8	0.003466
4.640000E-8	0.003663
4.645000E-8	0.003884
4.650000E-8	0.003991
4.655000E-8	0.004172
4.660000E-8	0.004150
4.665000E-8	0.004019
4.670000E-8	0.003928
4.675000E-8	0.003625
4.680000E-8	0.003328
4.685000E-8	0.003103
4.690000E-8	0.002753
4.695000E-8	0.002516
4.700000E-8	0.002275
4.705000E-8	0.002134
4.710000E-8	0.001897
4.715000E-8	0.001816
4.720000E-8	0.001756
4.725000E-8	0.001941
4.730000E-8	0.002053
4.735000E-8	0.002266
4.740000E-8	0.002422
4.745000E-8	0.002587
4.750000E-8	0.002963
4.755000E-8	0.003222
4.760000E-8	0.003438
4.765000E-8	0.003706
4.770000E-8	0.003753
4.775000E-8	0.003822
4.780000E-8	0.003847
4.785000E-8	0.003872
4.790000E-8	0.003728
4.795000E-8	0.003663
4.800000E-8	0.003394
4.805000E-8	0.003213
4.810000E-8	0.002744
4.815000E-8	0.002569
4.820000E-8	0.002338
4.825000E-8	0.002153
4.830000E-8	0.002019
4.835000E-8	0.001975
4.840000E-8	0.001856
4.845000E-8	0.001944
4.850000E-8	0.002050
4.855000E-8	0.002188
4.860000E-8	0.002478
4.865000E-8	0.002703
4.870000E-8	0.002963
4.875000E-8	0.003275
4.880000E-8	0.003469
4.885000E-8	0.003809
4.890000E-8	0.004009
4.895000E-8	0.004000
4.900000E-8	0.004091
4.905000E-8	0.004028
4.910000E-8	0.004003
4.915000E-8	0.003772
4.920000E-8	0.003738
4.925000E-8	0.003491
4.930000E-8	0.003300
4.935000E-8	0.003138
4.940000E-8	0.002825
4.945000E-8	0.002625
4.950000E-8	0.002478
4.955000E-8	0.002356
4.960000E-8	0.002203
4.965000E-8	0.002147
4.970000E-8	0.002022
4.975000E-8	0.002138
4.980000E-8	0.002113
4.985000E-8	0.002134
4.990000E-8	0.002338
4.995000E-8	0.002631
5.000000E-8	0.002866
5.005000E-8	0.003191
5.010000E-8	0.003475
5.015000E-8	0.003753
5.020000E-8	0.003947
5.025000E-8	0.004041
5.030000E-8	0.004069
5.035000E-8	0.004003
5.040000E-8	0.003822
5.045000E-8	0.003591
5.050000E-8	0.003316
5.055000E-8	0.003022
5.060000E-8	0.002772
5.065000E-8	0.002522
5.070000E-8	0.002281
5.075000E-8	0.002028
5.080000E-8	0.001906
5.085000E-8	0.001878
5.090000E-8	0.001788
5.095000E-8	0.001834
5.100000E-8	0.001878
5.105000E-8	0.002025
5.110000E-8	0.002128
5.115000E-8	0.002388
5.120000E-8	0.002478
5.125000E-8	0.002766
5.130000E-8	0.002916
5.135000E-8	0.003131
5.140000E-8	0.003278
5.145000E-8	0.003522
5.150000E-8	0.003684
5.155000E-8	0.003722
5.160000E-8	0.003766
5.165000E-8	0.003775
5.170000E-8	0.003641
5.175000E-8	0.003450
5.180000E-8	0.003241
5.185000E-8	0.003012
5.190000E-8	0.002894
5.195000E-8	0.002747
5.200000E-8	0.002512
5.205000E-8	0.002366
5.210000E-8	0.002153
5.215000E-8	0.002097
5.220000E-8	0.002134
5.225000E-8	0.002175
5.230000E-8	0.002253
5.235000E-8	0.002437
5.240000E-8	0.002594
5.245000E-8	0.002769
5.250000E-8	0.002844
5.255000E-8	0.003087
5.260000E-8	0.003281
5.265000E-8	0.003497
5.270000E-8	0.003616
5.275000E-8	0.003928
5.280000E-8	0.003991
5.285000E-8	0.004100
5.290000E-8	0.003959
5.295000E-8	0.003841
5.300000E-8	0.003594
5.305000E-8	0.003403
5.310000E-8	0.003219
5.315000E-8	0.002906
5.320000E-8	0.002600
5.325000E-8	0.002425
5.330000E-8	0.002113
5.335000E-8	0.002156
5.340000E-8	0.002025
5.345000E-8	0.001972
5.350000E-8	0.001972
5.355000E-8	0.002116
5.360000E-8	0.002253
5.365000E-8	0.002422
5.370000E-8	0.002591
5.375000E-8	0.002841
5.380000E-8	0.002988
5.385000E-8	0.003241
5.390000E-8	0.003500
5.395000E-8	0.003713
5.400000E-8	0.003813
5.405000E-8	0.003975
5.410000E-8	0.003928
5.415000E-8	0.004072
5.420000E-8	0.004075
5.425000E-8	0.003994
5.430000E-8	0.003794
5.435000E-8	0.003619
5.440000E-8	0.003247
5.445000E-8	0.003072
5.450000E-8	0.002741
5.455000E-8	0.002453
5.460000E-8	0.002325
5.465000E-8	0.002144
5.470000E-8	0.002063
5.475000E-8	0.002131
5.480000E-8	0.002200
5.485000E-8	0.002325
5.490000E-8	0.002550
5.495000E-8	0.002791
5.500000E-8	0.003003
5.505000E-8	0.003281
5.510000E-8	0.003394
5.515000E-8	0.003631
5.520000E-8	0.003672
5.525000E-8	0.003728
5.530000E-8	0.003738
5.535000E-8	0.003716
5.540000E-8	0.003575
5.545000E-8	0.003578
5.550000E-8	0.003369
5.555000E-8	0.003272
5.560000E-8	0.003228
5.565000E-8	0.003006
5.570000E-8	0.002919
5.575000E-8	0.002725
5.580000E-8	0.002619
5.585000E-8	0.002503
5.590000E-8	0.002425
5.595000E-8	0.002366
5.600000E-8	0.002303
5.605000E-8	0.002228
5.610000E-8	0.002213
5.615000E-8	0.002281
5.620000E-8	0.002281
5.625000E-8	0.002488
5.630000E-8	0.002700
5.635000E-8	0.002822
5.640000E-8	0.002944
5.645000E-8	0.003256
5.650000E-8	0.003384
5.655000E-8	0.003494
5.660000E-8	0.003641
5.665000E-8	0.003672
5.670000E-8	0.003619
5.675000E-8	0.003519
5.680000E-8	0.003288
5.685000E-8	0.003150
5.690000E-8	0.002950
5.695000E-8	0.002759
5.700000E-8	0.002406
5.705000E-8	0.002325
5.710000E-8	0.002109
5.715000E-8	0.002234
5.720000E-8	0.002066
5.725000E-8	0.002178
5.730000E-8	0.002269
5.735000E-8	0.002441
5.740000E-8	0.002653
5.745000E-8	0.002894
5.750000E-8	0.003128
5.755000E-8	0.003372
5.760000E-8	0.003525
5.765000E-8	0.003713
5.770000E-8	0.003981
5.775000E-8	0.004041
5.780000E-8	0.004038
5.785000E-8	0.004019
5.790000E-8	0.003775
5.795000E-8	0.003766
5.800000E-8	0.003572
5.805000E-8	0.003319
5.810000E-8	0.002984
5.815000E-8	0.002781
5.820000E-8	0.002516
5.825000E-8	0.002253
5.830000E-8	0.002150
5.835000E-8	0.002006
5.840000E-8	0.001847
5.845000E-8	0.001903
5.850000E-8	0.001888
5.855000E-8	0.002125
5.860000E-8	0.002278
5.865000E-8	0.002434
5.870000E-8	0.002634
5.875000E-8	0.002806
5.880000E-8	0.003034
5.885000E-8	0.003238
5.890000E-8	0.003503
5.895000E-8	0.003744
5.900000E-8	0.003766
5.905000E-8	0.003891
5.910000E-8	0.003878
5.915000E-8	0.003897
5.920000E-8	0.003628
5.925000E-8	0.003559
5.930000E-8	0.003288
5.935000E-8	0.003172
5.940000E-8	0.002863
5.945000E-8	0.002759
5.950000E-8	0.002578
5.955000E-8	0.002356
5.960000E-8	0.002303
5.965000E-8	0.002209
5.970000E-8	0.002178
5.975000E-8	0.002281
5.980000E-8	0.002391
5.985000E-8	0.002488
5.990000E-8	0.002591
5.995000E-8	0.002816
6.000000E-8	0.002888
6.005000E-8	0.003028
6.010000E-8	0.003175
6.015000E-8	0.003334
6.020000E-8	0.003369
6.025000E-8	0.003575
6.030000E-8	0.003622
6.035000E-8	0.003775
6.040000E-8	0.003772
6.045000E-8	0.003844
6.050000E-8	0.003744
6.055000E-8	0.003622
6.060000E-8	0.003350
6.065000E-8	0.003247
6.070000E-8	0.003050
6.075000E-8	0.002956
6.080000E-8	0.002650
6.085000E-8	0.002725
6.090000E-8	0.002606
6.095000E-8	0.002547
6.100000E-8	0.002538
6.105000E-8	0.002512
6.110000E-8	0.002591
6.115000E-8	0.002750
6.120000E-8	0.002797
6.125000E-8	0.002922
6.130000E-8	0.002913
6.135000E-8	0.003038
6.140000E-8	0.003131
6.145000E-8	0.003178
6.150000E-8	0.003313
6.155000E-8	0.003413
6.160000E-8	0.003384
6.165000E-8	0.003463
6.170000E-8	0.003338
6.175000E-8	0.003294
6.180000E-8	0.003216
6.185000E-8	0.003156
6.190000E-8	0.002953
6.195000E-8	0.002838
6.200000E-8	0.002653
6.205000E-8	0.002503
6.210000E-8	0.002353
6.215000E-8	0.002122
6.220000E-8	0.001975
6.225000E-8	0.001969
6.230000E-8	0.001941
6.235000E-8	0.002028
6.240000E-8	0.002313
6.245000E-8	0.002516
6.250000E-8	0.002775
6.255000E-8	0.003097
6.260000E-8	0.003197
6.265000E-8	0.003375
6.270000E-8	0.003569
6.275000E-8	0.003606
6.280000E-8	0.003769
6.285000E-8	0.003744
6.290000E-8	0.003456
6.295000E-8	0.003388
6.300000E-8	0.003353
6.305000E-8	0.003234
6.310000E-8	0.003191
6.315000E-8	0.003178
6.320000E-8	0.003131
6.325000E-8	0.003019
6.330000E-8	0.002853
6.335000E-8	0.002741
6.340000E-8	0.002634
6.345000E-8	0.002550
6.350000E-8	0.002509
6.355000E-8	0.002491
6.360000E-8	0.002466
6.365000E-8	0.002550
6.370000E-8	0.002597
6.375000E-8	0.002806
6.380000E-8	0.002863
6.385000E-8	0.003131
6.390000E-8	0.003297
6.395000E-8	0.003563
6.400000E-8	0.003650
6.405000E-8	0.003719
6.410000E-8	0.003666
6.415000E-8	0.003713
6.420000E-8	0.003669
6.425000E-8	0.003522
6.430000E-8	0.003369
6.435000E-8	0.003144
6.440000E-8	0.003022
6.445000E-8	0.002888
6.450000E-8	0.002625
6.455000E-8	0.002478
6.460000E-8	0.002375
6.465000E-8	0.002363
6.470000E-8	0.002338
6.475000E-8	0.002456
6.480000E-8	0.002425
6.485000E-8	0.002578
6.490000E-8	0.002356
6.495000E-8	0.002556
6.500000E-8	0.002678
6.505000E-8	0.002813
6.510000E-8	0.002969
6.515000E-8	0.003119
6.520000E-8	0.003159
6.525000E-8	0.003275
6.530000E-8	0.003213
6.535000E-8	0.003297
6.540000E-8	0.003316
6.545000E-8	0.003247
6.550000E-8	0.003250
6.555000E-8	0.003253
6.560000E-8	0.003116
6.565000E-8	0.002909
6.570000E-8	0.002794
6.575000E-8	0.002700
6.580000E-8	0.002600
6.585000E-8	0.002444
6.590000E-8	0.002181
6.595000E-8	0.002241
6.600000E-8	0.002300
6.605000E-8	0.002334
6.610000E-8	0.002409
6.615000E-8	0.002625
6.620000E-8	0.002747
6.625000E-8	0.002894
6.630000E-8	0.003041
6.635000E-8	0.003150
6.640000E-8	0.003225
6.645000E-8	0.003316
6.650000E-8	0.003466
6.655000E-8	0.003597
6.660000E-8	0.003547
6.665000E-8	0.003541
6.670000E-8	0.003459
6.675000E-8	0.003366
6.680000E-8	0.003316
6.685000E-8	0.003303
6.690000E-8	0.003181
6.695000E-8	0.003103
6.700000E-8	0.002913
6.705000E-8	0.002756
6.710000E-8	0.002659
6.715000E-8	0.002603
6.720000E-8	0.002450
6.725000E-8	0.002494
6.730000E-8	0.002431
6.735000E-8	0.002434
6.740000E-8	0.002584
6.745000E-8	0.002725
6.750000E-8	0.002819
6.755000E-8	0.002997
6.760000E-8	0.002947
6.765000E-8	0.003138
6.770000E-8	0.003150
6.775000E-8	0.003156
6.780000E-8	0.003166
6.785000E-8	0.003231
6.790000E-8	0.003275
6.795000E-8	0.003256
6.800000E-8	0.003294
6.805000E-8	0.003263
6.810000E-8	0.003219
6.815000E-8	0.002919
6.820000E-8	0.002781
6.825000E-8	0.002697
6.830000E-8	0.002466
6.835000E-8	0.002516
6.840000E-8	0.002278
6.845000E-8	0.002306
6.850000E-8	0.002306
6.855000E-8	0.002328
6.860000E-8	0.002422
6.865000E-8	0.002556
6.870000E-8	0.002672
6.875000E-8	0.002834
6.880000E-8	0.003053
6.885000E-8	0.003300
6.890000E-8	0.003459
6.895000E-8	0.003556
6.900000E-8	0.003656
6.905000E-8	0.003753
6.910000E-8	0.003763
6.915000E-8	0.003825
6.920000E-8	0.003663
6.925000E-8	0.003641
6.930000E-8	0.003525
6.935000E-8	0.003450
6.940000E-8	0.003253
6.945000E-8	0.003178
6.950000E-8	0.003084
6.955000E-8	0.002909
6.960000E-8	0.002859
6.965000E-8	0.002728
6.970000E-8	0.002587
6.975000E-8	0.002541
6.980000E-8	0.002534
6.985000E-8	0.002544
6.990000E-8	0.002488
6.995000E-8	0.002616
7.000000E-8	0.002834
7.005000E-8	0.002819
7.010000E-8	0.002953
7.015000E-8	0.003191
7.020000E-8	0.003275
7.025000E-8	0.003456
7.030000E-8	0.003494
7.035000E-8	0.003584
7.040000E-8	0.003656
7.045000E-8	0.003634
7.050000E-8	0.003647
7.055000E-8	0.003572
7.060000E-8	0.003484
7.065000E-8	0.003469
7.070000E-8	0.003291
7.075000E-8	0.003094
7.080000E-8	0.002966
7.085000E-8	0.002813
7.090000E-8	0.002725
7.095000E-8	0.002619
7.100000E-8	0.002500
7.105000E-8	0.002519
7.110000E-8	0.002406
7.115000E-8	0.002472
7.120000E-8	0.002453
7.125000E-8	0.002509
7.130000E-8	0.002584
7.135000E-8	0.002869
7.140000E-8	0.002922
7.145000E-8	0.003150
7.150000E-8	0.003316
7.155000E-8	0.003434
7.160000E-8	0.003459
7.165000E-8	0.003416
7.170000E-8	0.003375
7.175000E-8	0.003406
7.180000E-8	0.003353
7.185000E-8	0.003206
7.190000E-8	0.003059
7.195000E-8	0.002866
7.200000E-8	0.002731
7.205000E-8	0.002587
7.210000E-8	0.002550
7.215000E-8	0.002437
7.220000E-8	0.002403
7.225000E-8	0.002488
7.230000E-8	0.002512
7.235000E-8	0.002669
7.240000E-8	0.002741
7.245000E-8	0.002737
7.250000E-8	0.002841
7.255000E-8	0.003000
7.260000E-8	0.003066
7.265000E-8	0.003128
7.270000E-8	0.003147
7.275000E-8	0.003200
7.280000E-8	0.003072
7.285000E-8	0.003059
7.290000E-8	0.003125
7.295000E-8	0.003228
7.300000E-8	0.003162
7.305000E-8	0.003328
7.310000E-8	0.003347
7.315000E-8	0.003441
7.320000E-8	0.003347
7.325000E-8	0.003422
7.330000E-8	0.003175
7.335000E-8	0.003022
7.340000E-8	0.002953
7.345000E-8	0.002850
7.350000E-8	0.002709
7.355000E-8	0.002681
7.360000E-8	0.002547
7.365000E-8	0.002506
7.370000E-8	0.002587
7.375000E-8	0.002694
7.380000E-8	0.002863
7.385000E-8	0.003000
7.390000E-8	0.003166
7.395000E-8	0.003306
7.400000E-8	0.003422
7.405000E-8	0.003594
7.410000E-8	0.003556
7.415000E-8	0.003528
7.420000E-8	0.003566
7.425000E-8	0.003381
7.430000E-8	0.003263
7.435000E-8	0.003175
7.440000E-8	0.003019
7.445000E-8	0.003009
7.450000E-8	0.002772
7.455000E-8	0.002888
7.460000E-8	0.002816
7.465000E-8	0.002725
7.470000E-8	0.002697
7.475000E-8	0.002688
7.480000E-8	0.002581
7.485000E-8	0.002703
7.490000E-8	0.002619
7.495000E-8	0.002691
7.500000E-8	0.002750
7.505000E-8	0.002750
7.510000E-8	0.002972
7.515000E-8	0.003038
7.520000E-8	0.003066
7.525000E-8	0.003128
7.530000E-8	0.003197
7.535000E-8	0.003356
7.540000E-8	0.003388
7.545000E-8	0.003388
7.550000E-8	0.003306
7.555000E-8	0.003306
7.560000E-8	0.003209
7.565000E-8	0.003162
7.570000E-8	0.003038
7.575000E-8	0.003000
7.580000E-8	0.002866
7.585000E-8	0.002794
7.590000E-8	0.002681
7.595000E-8	0.002522
7.600000E-8	0.002544
7.605000E-8	0.002500
7.610000E-8	0.002388
7.615000E-8	0.002441
7.620000E-8	0.002456
7.625000E-8	0.002578
7.630000E-8	0.002653
7.635000E-8	0.002756
7.640000E-8	0.002875
7.645000E-8	0.003034
7.650000E-8	0.003100
7.655000E-8	0.003231
7.660000E-8	0.003241
7.665000E-8	0.003431
7.670000E-8	0.003475
7.675000E-8	0.003616
7.680000E-8	0.003434
7.685000E-8	0.003294
7.690000E-8	0.003069
7.695000E-8	0.002956
7.700000E-8	0.002797
7.705000E-8	0.002697
7.710000E-8	0.002475
7.715000E-8	0.002413
7.720000E-8	0.002291
7.725000E-8	0.002297
7.730000E-8	0.002322
7.735000E-8	0.002313
7.740000E-8	0.002319
7.745000E-8	0.002344
7.750000E-8	0.002413
7.755000E-8	0.002653
7.760000E-8	0.002753
7.765000E-8	0.002881
7.770000E-8	0.003000
7.775000E-8	0.003238
7.780000E-8	0.003244
7.785000E-8	0.003334
7.790000E-8	0.003375
7.795000E-8	0.003538
7.800000E-8	0.003509
7.805000E-8	0.003522
7.810000E-8	0.003350
7.815000E-8	0.003288
7.820000E-8	0.003084
7.825000E-8	0.003056
7.830000E-8	0.003050
7.835000E-8	0.003069
7.840000E-8	0.003047
7.845000E-8	0.003059
7.850000E-8	0.002953
7.855000E-8	0.002906
7.860000E-8	0.002916
7.865000E-8	0.003012
7.870000E-8	0.003034
7.875000E-8	0.003069
7.880000E-8	0.003053
7.885000E-8	0.003147
7.890000E-8	0.003153
7.895000E-8	0.003131
7.900000E-8	0.003181
7.905000E-8	0.003159
7.910000E-8	0.003181
7.915000E-8	0.003222
7.920000E-8	0.003216
7.925000E-8	0.003150
7.930000E-8	0.003247
7.935000E-8	0.003159
7.940000E-8	0.003059
7.945000E-8	0.002969
7.950000E-8	0.002916
7.955000E-8	0.002825
7.960000E-8	0.002828
7.965000E-8	0.002753
7.970000E-8	0.002656
7.975000E-8	0.002656
7.980000E-8	0.002406
7.985000E-8	0.002413
7.990000E-8	0.002350
7.995000E-8	0.002497
8.000000E-8	0.002497
8.005000E-8	0.002666
8.010000E-8	0.002806
8.015000E-8	0.002988
8.020000E-8	0.003094
8.025000E-8	0.003306
8.030000E-8	0.003319
8.035000E-8	0.003413
8.040000E-8	0.003459
8.045000E-8	0.003528
8.050000E-8	0.003478
8.055000E-8	0.003506
8.060000E-8	0.003369
8.065000E-8	0.003350
8.070000E-8	0.003206
8.075000E-8	0.003169
8.080000E-8	0.003031
8.085000E-8	0.002797
8.090000E-8	0.002794
8.095000E-8	0.002616
8.100000E-8	0.002481
8.105000E-8	0.002450
8.110000E-8	0.002381
8.115000E-8	0.002281
8.120000E-8	0.002522
8.125000E-8	0.002491
8.130000E-8	0.002600
8.135000E-8	0.002741
8.140000E-8	0.002775
8.145000E-8	0.002916
8.150000E-8	0.002900
8.155000E-8	0.003056
8.160000E-8	0.003069
8.165000E-8	0.003156
8.170000E-8	0.003081
8.175000E-8	0.003078
8.180000E-8	0.003109
8.185000E-8	0.003194
8.190000E-8	0.003097
8.195000E-8	0.003063
8.200000E-8	0.002769
8.205000E-8	0.002753
8.210000E-8	0.002625
8.215000E-8	0.002512
8.220000E-8	0.002413
8.225000E-8	0.002431
8.230000E-8	0.002353
8.235000E-8	0.002434
8.240000E-8	0.002463
8.245000E-8	0.002694
8.250000E-8	0.002825
8.255000E-8	0.003034
8.260000E-8	0.003131
8.265000E-8	0.003253
8.270000E-8	0.003316
8.275000E-8	0.003294
8.280000E-8	0.003228
8.285000E-8	0.003209
8.290000E-8	0.003194
8.295000E-8	0.003144
8.300000E-8	0.003153
8.305000E-8	0.003222
8.310000E-8	0.003203
8.315000E-8	0.003322
8.320000E-8	0.003303
8.325000E-8	0.003200
8.330000E-8	0.003159
8.335000E-8	0.003019
8.340000E-8	0.002822
8.345000E-8	0.002613
8.350000E-8	0.002444
8.355000E-8	0.002303
8.360000E-8	0.002178
8.365000E-8	0.002175
8.370000E-8	0.002266
8.375000E-8	0.002347
8.380000E-8	0.002484
8.385000E-8	0.002603
8.390000E-8	0.002647
8.395000E-8	0.002844
8.400000E-8	0.002969
8.405000E-8	0.003069
8.410000E-8	0.003038
8.415000E-8	0.003103
8.420000E-8	0.003019
8.425000E-8	0.003041
8.430000E-8	0.003169
8.435000E-8	0.003128
8.440000E-8	0.003075
8.445000E-8	0.003038
8.450000E-8	0.003041
8.455000E-8	0.003028
8.460000E-8	0.002991
8.465000E-8	0.002869
8.470000E-8	0.002781
8.475000E-8	0.002853
8.480000E-8	0.002734
8.485000E-8	0.002641
8.490000E-8	0.002688
8.495000E-8	0.002744
8.500000E-8	0.002719
8.505000E-8	0.002853
8.510000E-8	0.002881
8.515000E-8	0.002744
8.520000E-8	0.002847
8.525000E-8	0.002838
8.530000E-8	0.002856
8.535000E-8	0.002891
8.540000E-8	0.002850
8.545000E-8	0.002922
8.550000E-8	0.002981
8.555000E-8	0.003016
8.560000E-8	0.002900
8.565000E-8	0.003012
8.570000E-8	0.003041
8.575000E-8	0.003059
8.580000E-8	0.002938
8.585000E-8	0.002822
8.590000E-8	0.002816
8.595000E-8	0.002756
8.600000E-8	0.002578
8.605000E-8	0.002544
8.610000E-8	0.002456
8.615000E-8	0.002622
8.620000E-8	0.002641
8.625000E-8	0.002794
8.630000E-8	0.002778
8.635000E-8	0.002903
8.640000E-8	0.002919
8.645000E-8	0.002988
8.650000E-8	0.003059
8.655000E-8	0.003106
8.660000E-8	0.003134
8.665000E-8	0.003244
8.670000E-8	0.003288
8.675000E-8	0.003284
8.680000E-8	0.003250
8.685000E-8	0.003128
8.690000E-8	0.003022
8.695000E-8	0.002978
8.700000E-8	0.002909
8.705000E-8	0.002719
8.710000E-8	0.002584
8.715000E-8	0.002422
8.720000E-8	0.002403
8.725000E-8	0.002441
8.730000E-8	0.002512
8.735000E-8	0.002662
8.740000E-8	0.002631
8.745000E-8	0.002816
8.750000E-8	0.002972
8.755000E-8	0.003000
8.760000E-8	0.002928
8.765000E-8	0.002922
8.770000E-8	0.002853
8.775000E-8	0.002909
8.780000E-8	0.002944
8.785000E-8	0.002850
8.790000E-8	0.002909
8.795000E-8	0.003000
8.800000E-8	0.002900
8.805000E-8	0.002913
8.810000E-8	0.002863
8.815000E-8	0.002931
8.820000E-8	0.002897
8.825000E-8	0.002906
8.830000E-8	0.002844
8.835000E-8	0.002781
8.840000E-8	0.002678
8.845000E-8	0.002475
8.850000E-8	0.002575
8.855000E-8	0.002506
8.860000E-8	0.002556
8.865000E-8	0.002550
8.870000E-8	0.002666
8.875000E-8	0.002684
8.880000E-8	0.002747
8.885000E-8	0.002963
8.890000E-8	0.003100
8.895000E-8	0.003181
8.900000E-8	0.003041
8.905000E-8	0.003206
8.910000E-8	0.003328
8.915000E-8	0.003288
8.920000E-8	0.003200
8.925000E-8	0.003241
8.930000E-8	0.003263
8.935000E-8	0.003250
8.940000E-8	0.003175
8.945000E-8	0.003197
8.950000E-8	0.003141
8.955000E-8	0.003053
8.960000E-8	0.003081
8.965000E-8	0.002931
8.970000E-8	0.002900
8.975000E-8	0.002916
8.980000E-8	0.002750
8.985000E-8	0.002766
8.990000E-8	0.002659
8.995000E-8	0.002647
9.000000E-8	0.002756
9.005000E-8	0.002803
9.010000E-8	0.002759
9.015000E-8	0.002875
9.020000E-8	0.002881
9.025000E-8	0.002956
9.030000E-8	0.003038
9.035000E-8	0.003159
9.040000E-8	0.003128
9.045000E-8	0.003238
9.050000E-8	0.003169
9.055000E-8	0.003275
9.060000E-8	0.003166
9.065000E-8	0.003147
9.070000E-8	0.003231
9.075000E-8	0.003191
9.080000E-8	0.003078
9.085000E-8	0.003044
9.090000E-8	0.002906
9.095000E-8	0.002916
9.100000E-8	0.002825
9.105000E-8	0.002847
9.110000E-8	0.002891
9.115000E-8	0.003006
9.120000E-8	0.003022
9.125000E-8	0.003019
9.130000E-8	0.003022
9.135000E-8	0.002941
9.140000E-8	0.002828
9.145000E-8	0.002934
9.150000E-8	0.002750
9.155000E-8	0.002719
9.160000E-8	0.002706
9.165000E-8	0.002834
9.170000E-8	0.002747
9.175000E-8	0.002859
9.180000E-8	0.003106
9.185000E-8	0.003103
9.190000E-8	0.003119
9.195000E-8	0.003069
9.200000E-8	0.003094
9.205000E-8	0.003059
9.210000E-8	0.002950
9.215000E-8	0.002938
9.220000E-8	0.002859
9.225000E-8	0.002728
9.230000E-8	0.002656
9.235000E-8	0.002606
9.240000E-8	0.002569
9.245000E-8	0.002706
9.250000E-8	0.002709
9.255000E-8	0.002709
9.260000E-8	0.002781
9.265000E-8	0.002834
9.270000E-8	0.002856
9.275000E-8	0.002913
9.280000E-8	0.002947
9.285000E-8	0.003100
9.290000E-8	0.003219
9.295000E-8	0.003272
9.300000E-8	0.003313
9.305000E-8	0.003250
9.310000E-8	0.003247
9.315000E-8	0.003162
9.320000E-8	0.003109
9.325000E-8	0.003094
9.330000E-8	0.003069
9.335000E-8	0.003022
9.340000E-8	0.002891
9.345000E-8	0.002881
9.350000E-8	0.002888
9.355000E-8	0.002847
9.360000E-8	0.002891
9.365000E-8	0.002913
9.370000E-8	0.002813
9.375000E-8	0.002769
9.380000E-8	0.002894
9.385000E-8	0.003009
9.390000E-8	0.003000
9.395000E-8	0.003188
9.400000E-8	0.003175
9.405000E-8	0.003209
9.410000E-8	0.003241
9.415000E-8	0.003344
9.420000E-8	0.003341
9.425000E-8	0.003203
9.430000E-8	0.003253
9.435000E-8	0.003159
9.440000E-8	0.003066
9.445000E-8	0.003053
9.450000E-8	0.002969
9.455000E-8	0.002900
9.460000E-8	0.002803
9.465000E-8	0.002791
9.470000E-8	0.002788
9.475000E-8	0.002841
9.480000E-8	0.002806
9.485000E-8	0.003059
9.490000E-8	0.003050
9.495000E-8	0.003106
9.500000E-8	0.003059
9.505000E-8	0.003216
9.510000E-8	0.003162
9.515000E-8	0.003216
9.520000E-8	0.003047
9.525000E-8	0.003156
9.530000E-8	0.003150
9.535000E-8	0.003109
9.540000E-8	0.003075
9.545000E-8	0.002991
9.550000E-8	0.003009
9.555000E-8	0.002972
9.560000E-8	0.002956
9.565000E-8	0.002947
9.570000E-8	0.002928
9.575000E-8	0.003063
9.580000E-8	0.003075
9.585000E-8	0.003103
9.590000E-8	0.003050
9.595000E-8	0.003100
9.600000E-8	0.002991
9.605000E-8	0.003003
9.610000E-8	0.002956
9.615000E-8	0.002838
9.620000E-8	0.002734
9.625000E-8	0.002759
9.630000E-8	0.002678
9.635000E-8	0.002759
9.640000E-8	0.002800
9.645000E-8	0.002813
9.650000E-8	0.002844
9.655000E-8	0.002884
9.660000E-8	0.002950
9.665000E-8	0.002931
9.670000E-8	0.002997
9.675000E-8	0.003016
9.680000E-8	0.002994
9.685000E-8	0.002959
9.690000E-8	0.002916
9.695000E-8	0.002963
9.700000E-8	0.002950
9.705000E-8	0.002878
9.710000E-8	0.002822
9.715000E-8	0.002841
9.720000E-8	0.002816
9.725000E-8	0.002825
9.730000E-8	0.002744
9.735000E-8	0.002778
9.740000E-8	0.002669
9.745000E-8	0.002728
9.750000E-8	0.002766
9.755000E-8	0.002678
9.760000E-8	0.002684
9.765000E-8	0.002763
9.770000E-8	0.002737
9.775000E-8	0.002678
9.780000E-8	0.002713
9.785000E-8	0.002931
9.790000E-8	0.002822
9.795000E-8	0.002856
9.800000E-8	0.002894
9.805000E-8	0.003044
9.810000E-8	0.003113
9.815000E-8	0.003053
9.820000E-8	0.003028
9.825000E-8	0.002888
9.830000E-8	0.002909
9.835000E-8	0.002853
9.840000E-8	0.002737
9.845000E-8	0.002678
9.850000E-8	0.002697
9.855000E-8	0.002813
9.860000E-8	0.002844
9.865000E-8	0.002834
9.870000E-8	0.002950
9.875000E-8	0.002922
9.880000E-8	0.002894
9.885000E-8	0.002934
9.890000E-8	0.003022
9.895000E-8	0.003075
9.900000E-8	0.003138
9.905000E-8	0.003200
9.910000E-8	0.003275
9.915000E-8	0.003441
9.920000E-8	0.003444
9.925000E-8	0.003534
9.930000E-8	0.003522
9.935000E-8	0.003453
9.940000E-8	0.003272
9.945000E-8	0.003253
9.950000E-8	0.003019
9.955000E-8	0.002888
9.960000E-8	0.002666
9.965000E-8	0.002631
9.970000E-8	0.002497
9.975000E-8	0.002556
9.980000E-8	0.002572
9.985000E-8	0.002613
9.990000E-8	0.002706
9.995000E-8	0.002850
