LabVIEW Measurement	
Writer_Version	2
Reader_Version	2
Separator	Tab
Decimal_Separator	.
Multi_Headings	No
X_Columns	Multi
Time_Pref	Relative
Operator	TG lab
Date	2015/03/06
Time	19:34:05.2276492118835449219
***End_of_Header***	
	
Channels	1	
Samples	2000	
Date	1903/12/31	
Time	19:00:00	
X_Dimension	Time	
X0	0.0000000000000000E+0	
Delta_X	5.000000E-11	
***End_of_Header***		
X_Value	Untitled	Comment
0.000000	0.003003
5.000000E-11	0.002969
1.000000E-10	0.002956
1.500000E-10	0.003006
2.000000E-10	0.002916
2.500000E-10	0.003094
3.000000E-10	0.003063
3.500000E-10	0.002956
4.000000E-10	0.002897
4.500000E-10	0.002928
5.000000E-10	0.002847
5.500000E-10	0.002847
6.000000E-10	0.002875
6.500000E-10	0.002856
7.000000E-10	0.002869
7.500000E-10	0.002950
8.000000E-10	0.002938
8.500000E-10	0.003069
9.000000E-10	0.003081
9.500000E-10	0.003128
1.000000E-9	0.003259
1.050000E-9	0.003241
1.100000E-9	0.003172
1.150000E-9	0.003128
1.200000E-9	0.003188
1.250000E-9	0.003028
1.300000E-9	0.002859
1.350000E-9	0.002800
1.400000E-9	0.002856
1.450000E-9	0.002822
1.500000E-9	0.002778
1.550000E-9	0.002759
1.600000E-9	0.002794
1.650000E-9	0.002847
1.700000E-9	0.002809
1.750000E-9	0.002750
1.800000E-9	0.002813
1.850000E-9	0.002722
1.900000E-9	0.002647
1.950000E-9	0.002603
2.000000E-9	0.002516
2.050000E-9	0.002581
2.100000E-9	0.002428
2.150000E-9	0.002491
2.200000E-9	0.002403
2.250000E-9	0.002544
2.300000E-9	0.002453
2.350000E-9	0.002431
2.400000E-9	0.002388
2.450000E-9	0.002428
2.500000E-9	0.002425
2.550000E-9	0.002447
2.600000E-9	0.002472
2.650000E-9	0.002456
2.700000E-9	0.002378
2.750000E-9	0.002450
2.800000E-9	0.002403
2.850000E-9	0.002525
2.900000E-9	0.002447
2.950000E-9	0.002478
3.000000E-9	0.002494
3.050000E-9	0.002500
3.100000E-9	0.002428
3.150000E-9	0.002538
3.200000E-9	0.002525
3.250000E-9	0.002475
3.300000E-9	0.002481
3.350000E-9	0.002475
3.400000E-9	0.002391
3.450000E-9	0.002316
3.500000E-9	0.002328
3.550000E-9	0.002397
3.600000E-9	0.002384
3.650000E-9	0.002322
3.700000E-9	0.002366
3.750000E-9	0.002406
3.800000E-9	0.002422
3.850000E-9	0.002472
3.900000E-9	0.002428
3.950000E-9	0.002369
4.000000E-9	0.002309
4.050000E-9	0.002300
4.100000E-9	0.002300
4.150000E-9	0.002475
4.200000E-9	0.002353
4.250000E-9	0.002259
4.300000E-9	0.002381
4.350000E-9	0.002425
4.400000E-9	0.002306
4.450000E-9	0.002416
4.500000E-9	0.002403
4.550000E-9	0.002300
4.600000E-9	0.002144
4.650000E-9	0.002144
4.700000E-9	0.001909
4.750000E-9	0.001553
4.800000E-9	0.001038
4.850000E-9	0.000503
4.900000E-9	-0.000359
4.950000E-9	-0.001334
5.000000E-9	-0.002691
5.050000E-9	-0.004344
5.100000E-9	-0.006172
5.150000E-9	-0.008241
5.200000E-9	-0.010550
5.250000E-9	-0.012831
5.300000E-9	-0.015291
5.350000E-9	-0.017456
5.400000E-9	-0.019584
5.450000E-9	-0.021406
5.500000E-9	-0.022919
5.550000E-9	-0.023875
5.600000E-9	-0.024597
5.650000E-9	-0.024819
5.700000E-9	-0.024669
5.750000E-9	-0.024162
5.800000E-9	-0.023369
5.850000E-9	-0.022234
5.900000E-9	-0.021084
5.950000E-9	-0.019688
6.000000E-9	-0.018291
6.050000E-9	-0.016881
6.100000E-9	-0.015600
6.150000E-9	-0.014325
6.200000E-9	-0.013453
6.250000E-9	-0.012703
6.300000E-9	-0.012316
6.350000E-9	-0.012097
6.400000E-9	-0.012275
6.450000E-9	-0.012584
6.500000E-9	-0.013081
6.550000E-9	-0.013772
6.600000E-9	-0.014378
6.650000E-9	-0.015072
6.700000E-9	-0.015713
6.750000E-9	-0.016272
6.800000E-9	-0.016741
6.850000E-9	-0.016788
6.900000E-9	-0.016759
6.950000E-9	-0.016447
7.000000E-9	-0.015934
7.050000E-9	-0.015294
7.100000E-9	-0.014356
7.150000E-9	-0.013269
7.200000E-9	-0.012100
7.250000E-9	-0.010925
7.300000E-9	-0.009753
7.350000E-9	-0.008497
7.400000E-9	-0.007309
7.450000E-9	-0.006347
7.500000E-9	-0.005650
7.550000E-9	-0.005313
7.600000E-9	-0.005125
7.650000E-9	-0.005353
7.700000E-9	-0.005728
7.750000E-9	-0.006112
7.800000E-9	-0.006781
7.850000E-9	-0.007466
7.900000E-9	-0.008213
7.950000E-9	-0.008822
8.000000E-9	-0.009344
8.050000E-9	-0.009753
8.100000E-9	-0.010041
8.150000E-9	-0.010084
8.200000E-9	-0.010031
8.250000E-9	-0.009641
8.300000E-9	-0.009163
8.350000E-9	-0.008456
8.400000E-9	-0.007825
8.450000E-9	-0.006975
8.500000E-9	-0.006006
8.550000E-9	-0.004872
8.600000E-9	-0.003916
8.650000E-9	-0.003038
8.700000E-9	-0.002128
8.750000E-9	-0.001434
8.800000E-9	-0.001075
8.850000E-9	-0.000888
8.900000E-9	-0.000903
8.950000E-9	-0.001200
9.000000E-9	-0.001769
9.050000E-9	-0.002384
9.100000E-9	-0.003184
9.150000E-9	-0.004094
9.200000E-9	-0.005022
9.250000E-9	-0.005853
9.300000E-9	-0.006519
9.350000E-9	-0.007053
9.400000E-9	-0.007416
9.450000E-9	-0.007516
9.500000E-9	-0.007213
9.550000E-9	-0.006791
9.600000E-9	-0.006256
9.650000E-9	-0.005484
9.700000E-9	-0.004631
9.750000E-9	-0.003534
9.800000E-9	-0.002475
9.850000E-9	-0.001513
9.900000E-9	-0.000509
9.950000E-9	0.000166
1.000000E-8	0.000775
1.005000E-8	0.001150
1.010000E-8	0.001306
1.015000E-8	0.001197
1.020000E-8	0.000750
1.025000E-8	0.000347
1.030000E-8	-0.000263
1.035000E-8	-0.001131
1.040000E-8	-0.001956
1.045000E-8	-0.002859
1.050000E-8	-0.003694
1.055000E-8	-0.004372
1.060000E-8	-0.004894
1.065000E-8	-0.005228
1.070000E-8	-0.005338
1.075000E-8	-0.005331
1.080000E-8	-0.004978
1.085000E-8	-0.004563
1.090000E-8	-0.003825
1.095000E-8	-0.002984
1.100000E-8	-0.002034
1.105000E-8	-0.000966
1.110000E-8	6.250000E-5
1.115000E-8	0.001034
1.120000E-8	0.001753
1.125000E-8	0.002409
1.130000E-8	0.002856
1.135000E-8	0.003081
1.140000E-8	0.003047
1.145000E-8	0.002688
1.150000E-8	0.002175
1.155000E-8	0.001403
1.160000E-8	0.000488
1.165000E-8	-0.000409
1.170000E-8	-0.001397
1.175000E-8	-0.002350
1.180000E-8	-0.003141
1.185000E-8	-0.003769
1.190000E-8	-0.004294
1.195000E-8	-0.004363
1.200000E-8	-0.004262
1.205000E-8	-0.004100
1.210000E-8	-0.003525
1.215000E-8	-0.002772
1.220000E-8	-0.002028
1.225000E-8	-0.001028
1.230000E-8	4.687500E-5
1.235000E-8	0.001059
1.240000E-8	0.001897
1.245000E-8	0.002644
1.250000E-8	0.003200
1.255000E-8	0.003659
1.260000E-8	0.003763
1.265000E-8	0.003772
1.270000E-8	0.003475
1.275000E-8	0.002978
1.280000E-8	0.002416
1.285000E-8	0.001584
1.290000E-8	0.000591
1.295000E-8	-0.000363
1.300000E-8	-0.001334
1.305000E-8	-0.002022
1.310000E-8	-0.002600
1.315000E-8	-0.002997
1.320000E-8	-0.003231
1.325000E-8	-0.003194
1.330000E-8	-0.003063
1.335000E-8	-0.002434
1.340000E-8	-0.001819
1.345000E-8	-0.000981
1.350000E-8	-6.250000E-5
1.355000E-8	0.000913
1.360000E-8	0.001869
1.365000E-8	0.002763
1.370000E-8	0.003569
1.375000E-8	0.004181
1.380000E-8	0.004556
1.385000E-8	0.004747
1.390000E-8	0.004756
1.395000E-8	0.004406
1.400000E-8	0.003931
1.405000E-8	0.003103
1.410000E-8	0.002275
1.415000E-8	0.001559
1.420000E-8	0.000769
1.425000E-8	1.562500E-5
1.430000E-8	-0.000772
1.435000E-8	-0.001259
1.440000E-8	-0.001541
1.445000E-8	-0.001766
1.450000E-8	-0.001816
1.455000E-8	-0.001609
1.460000E-8	-0.001084
1.465000E-8	-0.000469
1.470000E-8	0.000131
1.475000E-8	0.001050
1.480000E-8	0.001781
1.485000E-8	0.002531
1.490000E-8	0.003341
1.495000E-8	0.003997
1.500000E-8	0.004484
1.505000E-8	0.004859
1.510000E-8	0.004884
1.515000E-8	0.004809
1.520000E-8	0.004406
1.525000E-8	0.004000
1.530000E-8	0.003419
1.535000E-8	0.002638
1.540000E-8	0.001794
1.545000E-8	0.001012
1.550000E-8	0.000134
1.555000E-8	-0.000584
1.560000E-8	-0.001203
1.565000E-8	-0.001659
1.570000E-8	-0.001838
1.575000E-8	-0.001969
1.580000E-8	-0.001638
1.585000E-8	-0.001244
1.590000E-8	-0.000741
1.595000E-8	-2.187500E-5
1.600000E-8	0.000916
1.605000E-8	0.001956
1.610000E-8	0.002853
1.615000E-8	0.003619
1.620000E-8	0.004284
1.625000E-8	0.004819
1.630000E-8	0.005225
1.635000E-8	0.005378
1.640000E-8	0.005413
1.645000E-8	0.005241
1.650000E-8	0.004694
1.655000E-8	0.004284
1.660000E-8	0.003609
1.665000E-8	0.002966
1.670000E-8	0.002131
1.675000E-8	0.001422
1.680000E-8	0.000616
1.685000E-8	-2.812500E-5
1.690000E-8	-0.000513
1.695000E-8	-0.000781
1.700000E-8	-0.000819
1.705000E-8	-0.000737
1.710000E-8	-0.000606
1.715000E-8	-7.500000E-5
1.720000E-8	0.000513
1.725000E-8	0.001203
1.730000E-8	0.002066
1.735000E-8	0.002825
1.740000E-8	0.003619
1.745000E-8	0.004303
1.750000E-8	0.004775
1.755000E-8	0.005259
1.760000E-8	0.005419
1.765000E-8	0.005447
1.770000E-8	0.005197
1.775000E-8	0.004625
1.780000E-8	0.004019
1.785000E-8	0.003438
1.790000E-8	0.002641
1.795000E-8	0.001716
1.800000E-8	0.001031
1.805000E-8	0.000331
1.810000E-8	-0.000381
1.815000E-8	-0.000737
1.820000E-8	-0.001091
1.825000E-8	-0.001012
1.830000E-8	-0.000922
1.835000E-8	-0.000666
1.840000E-8	-0.000116
1.845000E-8	0.000428
1.850000E-8	0.001138
1.855000E-8	0.001894
1.860000E-8	0.002641
1.865000E-8	0.003413
1.870000E-8	0.004025
1.875000E-8	0.004622
1.880000E-8	0.005081
1.885000E-8	0.005344
1.890000E-8	0.005478
1.895000E-8	0.005400
1.900000E-8	0.005122
1.905000E-8	0.004584
1.910000E-8	0.003975
1.915000E-8	0.003238
1.920000E-8	0.002484
1.925000E-8	0.001638
1.930000E-8	0.000822
1.935000E-8	0.000269
1.940000E-8	0.000000
1.945000E-8	-0.000297
1.950000E-8	-0.000303
1.955000E-8	-0.000222
1.960000E-8	0.000159
1.965000E-8	0.000750
1.970000E-8	0.001253
1.975000E-8	0.001897
1.980000E-8	0.002650
1.985000E-8	0.003378
1.990000E-8	0.003922
1.995000E-8	0.004434
2.000000E-8	0.004781
2.005000E-8	0.005141
2.010000E-8	0.005253
2.015000E-8	0.005359
2.020000E-8	0.005228
2.025000E-8	0.004991
2.030000E-8	0.004541
2.035000E-8	0.003966
2.040000E-8	0.003303
2.045000E-8	0.002613
2.050000E-8	0.001813
2.055000E-8	0.001163
2.060000E-8	0.000494
2.065000E-8	-0.000138
2.070000E-8	-0.000378
2.075000E-8	-0.000625
2.080000E-8	-0.000709
2.085000E-8	-0.000363
2.090000E-8	-2.812500E-5
2.095000E-8	0.000509
2.100000E-8	0.001103
2.105000E-8	0.001872
2.110000E-8	0.002678
2.115000E-8	0.003441
2.120000E-8	0.004091
2.125000E-8	0.004681
2.130000E-8	0.005031
2.135000E-8	0.005263
2.140000E-8	0.005353
2.145000E-8	0.005250
2.150000E-8	0.005059
2.155000E-8	0.004653
2.160000E-8	0.004241
2.165000E-8	0.003538
2.170000E-8	0.002884
2.175000E-8	0.002141
2.180000E-8	0.001666
2.185000E-8	0.001169
2.190000E-8	0.000828
2.195000E-8	0.000503
2.200000E-8	0.000394
2.205000E-8	0.000400
2.210000E-8	0.000419
2.215000E-8	0.000781
2.220000E-8	0.001225
2.225000E-8	0.001819
2.230000E-8	0.002425
2.235000E-8	0.003138
2.240000E-8	0.003844
2.245000E-8	0.004488
2.250000E-8	0.004866
2.255000E-8	0.005428
2.260000E-8	0.005744
2.265000E-8	0.005728
2.270000E-8	0.005728
2.275000E-8	0.005481
2.280000E-8	0.005066
2.285000E-8	0.004513
2.290000E-8	0.003741
2.295000E-8	0.003150
2.300000E-8	0.002491
2.305000E-8	0.001778
2.310000E-8	0.001200
2.315000E-8	0.000697
2.320000E-8	0.000338
2.325000E-8	0.000291
2.330000E-8	0.000213
2.335000E-8	0.000294
2.340000E-8	0.000453
2.345000E-8	0.000928
2.350000E-8	0.001488
2.355000E-8	0.002056
2.360000E-8	0.002697
2.365000E-8	0.003388
2.370000E-8	0.004013
2.375000E-8	0.004631
2.380000E-8	0.005025
2.385000E-8	0.005363
2.390000E-8	0.005328
2.395000E-8	0.005366
2.400000E-8	0.005122
2.405000E-8	0.004853
2.410000E-8	0.004266
2.415000E-8	0.003578
2.420000E-8	0.002978
2.425000E-8	0.002325
2.430000E-8	0.001687
2.435000E-8	0.001222
2.440000E-8	0.000788
2.445000E-8	0.000450
2.450000E-8	0.000259
2.455000E-8	0.000225
2.460000E-8	0.000425
2.465000E-8	0.000759
2.470000E-8	0.001178
2.475000E-8	0.001687
2.480000E-8	0.002309
2.485000E-8	0.002903
2.490000E-8	0.003506
2.495000E-8	0.004134
2.500000E-8	0.004694
2.505000E-8	0.005172
2.510000E-8	0.005484
2.515000E-8	0.005537
2.520000E-8	0.005625
2.525000E-8	0.005387
2.530000E-8	0.004950
2.535000E-8	0.004531
2.540000E-8	0.003950
2.545000E-8	0.003478
2.550000E-8	0.002897
2.555000E-8	0.002406
2.560000E-8	0.001859
2.565000E-8	0.001388
2.570000E-8	0.001088
2.575000E-8	0.000909
2.580000E-8	0.000766
2.585000E-8	0.000856
2.590000E-8	0.001078
2.595000E-8	0.001456
2.600000E-8	0.001875
2.605000E-8	0.002413
2.610000E-8	0.002972
2.615000E-8	0.003522
2.620000E-8	0.004256
2.625000E-8	0.004697
2.630000E-8	0.005019
2.635000E-8	0.005334
2.640000E-8	0.005475
2.645000E-8	0.005394
2.650000E-8	0.005213
2.655000E-8	0.005006
2.660000E-8	0.004500
2.665000E-8	0.003972
2.670000E-8	0.003488
2.675000E-8	0.002938
2.680000E-8	0.002228
2.685000E-8	0.001706
2.690000E-8	0.001216
2.695000E-8	0.000925
2.700000E-8	0.000716
2.705000E-8	0.000634
2.710000E-8	0.000725
2.715000E-8	0.001038
2.720000E-8	0.001284
2.725000E-8	0.001725
2.730000E-8	0.002209
2.735000E-8	0.002831
2.740000E-8	0.003384
2.745000E-8	0.003916
2.750000E-8	0.004431
2.755000E-8	0.004794
2.760000E-8	0.005106
2.765000E-8	0.005306
2.770000E-8	0.005309
2.775000E-8	0.005159
2.780000E-8	0.004928
2.785000E-8	0.004469
2.790000E-8	0.003959
2.795000E-8	0.003434
2.800000E-8	0.002800
2.805000E-8	0.002256
2.810000E-8	0.001884
2.815000E-8	0.001406
2.820000E-8	0.001006
2.825000E-8	0.000819
2.830000E-8	0.000747
2.835000E-8	0.000881
2.840000E-8	0.001031
2.845000E-8	0.001256
2.850000E-8	0.001687
2.855000E-8	0.002213
2.860000E-8	0.002706
2.865000E-8	0.003166
2.870000E-8	0.003672
2.875000E-8	0.004191
2.880000E-8	0.004662
2.885000E-8	0.004962
2.890000E-8	0.005116
2.895000E-8	0.005138
2.900000E-8	0.005088
2.905000E-8	0.005078
2.910000E-8	0.004653
2.915000E-8	0.004366
2.920000E-8	0.003853
2.925000E-8	0.003197
2.930000E-8	0.002638
2.935000E-8	0.002106
2.940000E-8	0.001681
2.945000E-8	0.001413
2.950000E-8	0.001069
2.955000E-8	0.001084
2.960000E-8	0.001128
2.965000E-8	0.001394
2.970000E-8	0.001641
2.975000E-8	0.002031
2.980000E-8	0.002437
2.985000E-8	0.002956
2.990000E-8	0.003500
2.995000E-8	0.003931
3.000000E-8	0.004469
3.005000E-8	0.004756
3.010000E-8	0.005063
3.015000E-8	0.005203
3.020000E-8	0.005203
3.025000E-8	0.005112
3.030000E-8	0.004866
3.035000E-8	0.004694
3.040000E-8	0.004131
3.045000E-8	0.003678
3.050000E-8	0.003225
3.055000E-8	0.002781
3.060000E-8	0.002206
3.065000E-8	0.001763
3.070000E-8	0.001341
3.075000E-8	0.001272
3.080000E-8	0.001012
3.085000E-8	0.001078
3.090000E-8	0.001072
3.095000E-8	0.001397
3.100000E-8	0.001794
3.105000E-8	0.002250
3.110000E-8	0.002713
3.115000E-8	0.003094
3.120000E-8	0.003716
3.125000E-8	0.004213
3.130000E-8	0.004478
3.135000E-8	0.004622
3.140000E-8	0.004797
3.145000E-8	0.005100
3.150000E-8	0.004925
3.155000E-8	0.004769
3.160000E-8	0.004503
3.165000E-8	0.004047
3.170000E-8	0.003644
3.175000E-8	0.003156
3.180000E-8	0.002625
3.185000E-8	0.002209
3.190000E-8	0.001697
3.195000E-8	0.001394
3.200000E-8	0.001203
3.205000E-8	0.001125
3.210000E-8	0.001084
3.215000E-8	0.001234
3.220000E-8	0.001391
3.225000E-8	0.001800
3.230000E-8	0.002216
3.235000E-8	0.002731
3.240000E-8	0.003272
3.245000E-8	0.003613
3.250000E-8	0.004022
3.255000E-8	0.004375
3.260000E-8	0.004597
3.265000E-8	0.004772
3.270000E-8	0.004741
3.275000E-8	0.004619
3.280000E-8	0.004519
3.285000E-8	0.004203
3.290000E-8	0.003731
3.295000E-8	0.003388
3.300000E-8	0.002856
3.305000E-8	0.002394
3.310000E-8	0.002063
3.315000E-8	0.001603
3.320000E-8	0.001222
3.325000E-8	0.000816
3.330000E-8	0.000581
3.335000E-8	0.000425
3.340000E-8	0.000631
3.345000E-8	0.000859
3.350000E-8	0.001116
3.355000E-8	0.001609
3.360000E-8	0.002012
3.365000E-8	0.002522
3.370000E-8	0.003069
3.375000E-8	0.003625
3.380000E-8	0.003888
3.385000E-8	0.004213
3.390000E-8	0.004491
3.395000E-8	0.004484
3.400000E-8	0.004375
3.405000E-8	0.004350
3.410000E-8	0.004091
3.415000E-8	0.003744
3.420000E-8	0.003303
3.425000E-8	0.002947
3.430000E-8	0.002484
3.435000E-8	0.002094
3.440000E-8	0.001659
3.445000E-8	0.001431
3.450000E-8	0.001375
3.455000E-8	0.001234
3.460000E-8	0.001250
3.465000E-8	0.001475
3.470000E-8	0.001666
3.475000E-8	0.001794
3.480000E-8	0.002103
3.485000E-8	0.002391
3.490000E-8	0.002806
3.495000E-8	0.003197
3.500000E-8	0.003525
3.505000E-8	0.003841
3.510000E-8	0.004106
3.515000E-8	0.004381
3.520000E-8	0.004594
3.525000E-8	0.004647
3.530000E-8	0.004687
3.535000E-8	0.004619
3.540000E-8	0.004438
3.545000E-8	0.004219
3.550000E-8	0.003803
3.555000E-8	0.003534
3.560000E-8	0.003075
3.565000E-8	0.002628
3.570000E-8	0.002150
3.575000E-8	0.001850
3.580000E-8	0.001788
3.585000E-8	0.001550
3.590000E-8	0.001534
3.595000E-8	0.001778
3.600000E-8	0.002034
3.605000E-8	0.002334
3.610000E-8	0.002662
3.615000E-8	0.002931
3.620000E-8	0.003344
3.625000E-8	0.003825
3.630000E-8	0.004025
3.635000E-8	0.004250
3.640000E-8	0.004519
3.645000E-8	0.004503
3.650000E-8	0.004500
3.655000E-8	0.004484
3.660000E-8	0.004416
3.665000E-8	0.004184
3.670000E-8	0.003913
3.675000E-8	0.003584
3.680000E-8	0.003231
3.685000E-8	0.002737
3.690000E-8	0.002234
3.695000E-8	0.001991
3.700000E-8	0.001531
3.705000E-8	0.001362
3.710000E-8	0.001291
3.715000E-8	0.001419
3.720000E-8	0.001522
3.725000E-8	0.001806
3.730000E-8	0.002122
3.735000E-8	0.002587
3.740000E-8	0.003006
3.745000E-8	0.003447
3.750000E-8	0.003759
3.755000E-8	0.004216
3.760000E-8	0.004556
3.765000E-8	0.004734
3.770000E-8	0.004769
3.775000E-8	0.004825
3.780000E-8	0.004656
3.785000E-8	0.004550
3.790000E-8	0.004331
3.795000E-8	0.003962
3.800000E-8	0.003613
3.805000E-8	0.003328
3.810000E-8	0.002959
3.815000E-8	0.002631
3.820000E-8	0.002444
3.825000E-8	0.002144
3.830000E-8	0.001972
3.835000E-8	0.001884
3.840000E-8	0.001809
3.845000E-8	0.001941
3.850000E-8	0.002172
3.855000E-8	0.002519
3.860000E-8	0.002869
3.865000E-8	0.003116
3.870000E-8	0.003475
3.875000E-8	0.003866
3.880000E-8	0.004134
3.885000E-8	0.004353
3.890000E-8	0.004544
3.895000E-8	0.004703
3.900000E-8	0.004725
3.905000E-8	0.004672
3.910000E-8	0.004516
3.915000E-8	0.004247
3.920000E-8	0.003975
3.925000E-8	0.003587
3.930000E-8	0.003216
3.935000E-8	0.002803
3.940000E-8	0.002419
3.945000E-8	0.001941
3.950000E-8	0.001625
3.955000E-8	0.001472
3.960000E-8	0.001409
3.965000E-8	0.001428
3.970000E-8	0.001413
3.975000E-8	0.001719
3.980000E-8	0.001984
3.985000E-8	0.002375
3.990000E-8	0.002791
3.995000E-8	0.003075
4.000000E-8	0.003516
4.005000E-8	0.003784
4.010000E-8	0.004053
4.015000E-8	0.004281
4.020000E-8	0.004438
4.025000E-8	0.004484
4.030000E-8	0.004409
4.035000E-8	0.004225
4.040000E-8	0.004072
4.045000E-8	0.003844
4.050000E-8	0.003447
4.055000E-8	0.003156
4.060000E-8	0.002859
4.065000E-8	0.002491
4.070000E-8	0.002200
4.075000E-8	0.001928
4.080000E-8	0.001753
4.085000E-8	0.001609
4.090000E-8	0.001538
4.095000E-8	0.001772
4.100000E-8	0.001831
4.105000E-8	0.002162
4.110000E-8	0.002534
4.115000E-8	0.002747
4.120000E-8	0.003003
4.125000E-8	0.003500
4.130000E-8	0.003741
4.135000E-8	0.004112
4.140000E-8	0.004363
4.145000E-8	0.004456
4.150000E-8	0.004488
4.155000E-8	0.004537
4.160000E-8	0.004459
4.165000E-8	0.004347
4.170000E-8	0.004019
4.175000E-8	0.003678
4.180000E-8	0.003213
4.185000E-8	0.002809
4.190000E-8	0.002416
4.195000E-8	0.002094
4.200000E-8	0.001750
4.205000E-8	0.001656
4.210000E-8	0.001497
4.215000E-8	0.001513
4.220000E-8	0.001581
4.225000E-8	0.001738
4.230000E-8	0.002019
4.235000E-8	0.002241
4.240000E-8	0.002478
4.245000E-8	0.002697
4.250000E-8	0.002959
4.255000E-8	0.003325
4.260000E-8	0.003519
4.265000E-8	0.003678
4.270000E-8	0.003741
4.275000E-8	0.003953
4.280000E-8	0.004059
4.285000E-8	0.004053
4.290000E-8	0.003863
4.295000E-8	0.003666
4.300000E-8	0.003384
4.305000E-8	0.003016
4.310000E-8	0.002778
4.315000E-8	0.002497
4.320000E-8	0.002109
4.325000E-8	0.001788
4.330000E-8	0.001575
4.335000E-8	0.001456
4.340000E-8	0.001478
4.345000E-8	0.001547
4.350000E-8	0.001791
4.355000E-8	0.002034
4.360000E-8	0.002416
4.365000E-8	0.002819
4.370000E-8	0.003216
4.375000E-8	0.003547
4.380000E-8	0.003909
4.385000E-8	0.004138
4.390000E-8	0.004322
4.395000E-8	0.004466
4.400000E-8	0.004500
4.405000E-8	0.004519
4.410000E-8	0.004469
4.415000E-8	0.004384
4.420000E-8	0.004213
4.425000E-8	0.003916
4.430000E-8	0.003544
4.435000E-8	0.003338
4.440000E-8	0.003022
4.445000E-8	0.002647
4.450000E-8	0.002231
4.455000E-8	0.002147
4.460000E-8	0.001847
4.465000E-8	0.001809
4.470000E-8	0.001769
4.475000E-8	0.001891
4.480000E-8	0.002128
4.485000E-8	0.002353
4.490000E-8	0.002622
4.495000E-8	0.002934
4.500000E-8	0.003225
4.505000E-8	0.003559
4.510000E-8	0.003775
4.515000E-8	0.003956
4.520000E-8	0.004066
4.525000E-8	0.004094
4.530000E-8	0.004047
4.535000E-8	0.004091
4.540000E-8	0.003850
4.545000E-8	0.003600
4.550000E-8	0.003272
4.555000E-8	0.003028
4.560000E-8	0.002775
4.565000E-8	0.002509
4.570000E-8	0.002266
4.575000E-8	0.002053
4.580000E-8	0.001850
4.585000E-8	0.001663
4.590000E-8	0.001719
4.595000E-8	0.001775
4.600000E-8	0.001931
4.605000E-8	0.002109
4.610000E-8	0.002341
4.615000E-8	0.002625
4.620000E-8	0.002981
4.625000E-8	0.003281
4.630000E-8	0.003616
4.635000E-8	0.004047
4.640000E-8	0.004262
4.645000E-8	0.004475
4.650000E-8	0.004506
4.655000E-8	0.004372
4.660000E-8	0.004363
4.665000E-8	0.004128
4.670000E-8	0.003903
4.675000E-8	0.003691
4.680000E-8	0.003506
4.685000E-8	0.003234
4.690000E-8	0.003047
4.695000E-8	0.002834
4.700000E-8	0.002556
4.705000E-8	0.002559
4.710000E-8	0.002359
4.715000E-8	0.002228
4.720000E-8	0.002162
4.725000E-8	0.002134
4.730000E-8	0.002344
4.735000E-8	0.002469
4.740000E-8	0.002713
4.745000E-8	0.003022
4.750000E-8	0.003263
4.755000E-8	0.003519
4.760000E-8	0.003828
4.765000E-8	0.003975
4.770000E-8	0.004119
4.775000E-8	0.004194
4.780000E-8	0.004131
4.785000E-8	0.004047
4.790000E-8	0.003838
4.795000E-8	0.003656
4.800000E-8	0.003397
4.805000E-8	0.003119
4.810000E-8	0.002809
4.815000E-8	0.002625
4.820000E-8	0.002300
4.825000E-8	0.001972
4.830000E-8	0.001794
4.835000E-8	0.001591
4.840000E-8	0.001619
4.845000E-8	0.001650
4.850000E-8	0.001697
4.855000E-8	0.001809
4.860000E-8	0.001988
4.865000E-8	0.002259
4.870000E-8	0.002534
4.875000E-8	0.002866
4.880000E-8	0.003100
4.885000E-8	0.003447
4.890000E-8	0.003666
4.895000E-8	0.003894
4.900000E-8	0.004059
4.905000E-8	0.004241
4.910000E-8	0.004175
4.915000E-8	0.004103
4.920000E-8	0.004081
4.925000E-8	0.004000
4.930000E-8	0.003700
4.935000E-8	0.003447
4.940000E-8	0.003213
4.945000E-8	0.002919
4.950000E-8	0.002628
4.955000E-8	0.002294
4.960000E-8	0.002113
4.965000E-8	0.002047
4.970000E-8	0.001906
4.975000E-8	0.001975
4.980000E-8	0.001966
4.985000E-8	0.002197
4.990000E-8	0.002328
4.995000E-8	0.002591
5.000000E-8	0.002825
5.005000E-8	0.003172
5.010000E-8	0.003428
5.015000E-8	0.003694
5.020000E-8	0.003941
5.025000E-8	0.003944
5.030000E-8	0.004031
5.035000E-8	0.004056
5.040000E-8	0.003909
5.045000E-8	0.003716
5.050000E-8	0.003434
5.055000E-8	0.003141
5.060000E-8	0.002788
5.065000E-8	0.002441
5.070000E-8	0.002122
5.075000E-8	0.002019
5.080000E-8	0.001934
5.085000E-8	0.001925
5.090000E-8	0.001866
5.095000E-8	0.001950
5.100000E-8	0.001984
5.105000E-8	0.002006
5.110000E-8	0.002213
5.115000E-8	0.002359
5.120000E-8	0.002613
5.125000E-8	0.002844
5.130000E-8	0.003050
5.135000E-8	0.003263
5.140000E-8	0.003459
5.145000E-8	0.003659
5.150000E-8	0.003813
5.155000E-8	0.003997
5.160000E-8	0.004066
5.165000E-8	0.004038
5.170000E-8	0.003838
5.175000E-8	0.003653
5.180000E-8	0.003447
5.185000E-8	0.003306
5.190000E-8	0.002938
5.195000E-8	0.002750
5.200000E-8	0.002544
5.205000E-8	0.002372
5.210000E-8	0.002178
5.215000E-8	0.002256
5.220000E-8	0.002234
5.225000E-8	0.002278
5.230000E-8	0.002388
5.235000E-8	0.002481
5.240000E-8	0.002622
5.245000E-8	0.002744
5.250000E-8	0.002953
5.255000E-8	0.003100
5.260000E-8	0.003272
5.265000E-8	0.003444
5.270000E-8	0.003763
5.275000E-8	0.003859
5.280000E-8	0.003959
5.285000E-8	0.003997
5.290000E-8	0.003863
5.295000E-8	0.003741
5.300000E-8	0.003572
5.305000E-8	0.003472
5.310000E-8	0.003209
5.315000E-8	0.002969
5.320000E-8	0.002725
5.325000E-8	0.002563
5.330000E-8	0.002291
5.335000E-8	0.002097
5.340000E-8	0.002016
5.345000E-8	0.002044
5.350000E-8	0.001959
5.355000E-8	0.002003
5.360000E-8	0.001963
5.365000E-8	0.002069
5.370000E-8	0.002259
5.375000E-8	0.002541
5.380000E-8	0.002719
5.385000E-8	0.003034
5.390000E-8	0.003269
5.395000E-8	0.003569
5.400000E-8	0.003656
5.405000E-8	0.003816
5.410000E-8	0.003709
5.415000E-8	0.003797
5.420000E-8	0.003703
5.425000E-8	0.003597
5.430000E-8	0.003356
5.435000E-8	0.003134
5.440000E-8	0.002809
5.445000E-8	0.002666
5.450000E-8	0.002356
5.455000E-8	0.002222
5.460000E-8	0.002103
5.465000E-8	0.001856
5.470000E-8	0.001828
5.475000E-8	0.001884
5.480000E-8	0.001844
5.485000E-8	0.002109
5.490000E-8	0.002281
5.495000E-8	0.002500
5.500000E-8	0.002781
5.505000E-8	0.003125
5.510000E-8	0.003441
5.515000E-8	0.003550
5.520000E-8	0.003847
5.525000E-8	0.003931
5.530000E-8	0.003922
5.535000E-8	0.004006
5.540000E-8	0.003831
5.545000E-8	0.003841
5.550000E-8	0.003550
5.555000E-8	0.003528
5.560000E-8	0.003384
5.565000E-8	0.003231
5.570000E-8	0.002950
5.575000E-8	0.002769
5.580000E-8	0.002616
5.585000E-8	0.002456
5.590000E-8	0.002394
5.595000E-8	0.002328
5.600000E-8	0.002300
5.605000E-8	0.002300
5.610000E-8	0.002309
5.615000E-8	0.002437
5.620000E-8	0.002528
5.625000E-8	0.002772
5.630000E-8	0.002941
5.635000E-8	0.003197
5.640000E-8	0.003369
5.645000E-8	0.003544
5.650000E-8	0.003597
5.655000E-8	0.003728
5.660000E-8	0.003819
5.665000E-8	0.003694
5.670000E-8	0.003631
5.675000E-8	0.003666
5.680000E-8	0.003625
5.685000E-8	0.003475
5.690000E-8	0.003247
5.695000E-8	0.003063
5.700000E-8	0.002850
5.705000E-8	0.002716
5.710000E-8	0.002381
5.715000E-8	0.002328
5.720000E-8	0.002272
5.725000E-8	0.002228
5.730000E-8	0.002156
5.735000E-8	0.002275
5.740000E-8	0.002403
5.745000E-8	0.002581
5.750000E-8	0.002744
5.755000E-8	0.003025
5.760000E-8	0.003278
5.765000E-8	0.003419
5.770000E-8	0.003613
5.775000E-8	0.003825
5.780000E-8	0.003841
5.785000E-8	0.003863
5.790000E-8	0.003838
5.795000E-8	0.003856
5.800000E-8	0.003659
5.805000E-8	0.003575
5.810000E-8	0.003422
5.815000E-8	0.003359
5.820000E-8	0.003144
5.825000E-8	0.002941
5.830000E-8	0.002803
5.835000E-8	0.002856
5.840000E-8	0.002700
5.845000E-8	0.002584
5.850000E-8	0.002506
5.855000E-8	0.002509
5.860000E-8	0.002528
5.865000E-8	0.002534
5.870000E-8	0.002563
5.875000E-8	0.002747
5.880000E-8	0.002797
5.885000E-8	0.003041
5.890000E-8	0.003222
5.895000E-8	0.003359
5.900000E-8	0.003425
5.905000E-8	0.003597
5.910000E-8	0.003650
5.915000E-8	0.003706
5.920000E-8	0.003584
5.925000E-8	0.003528
5.930000E-8	0.003244
5.935000E-8	0.003119
5.940000E-8	0.002941
5.945000E-8	0.002756
5.950000E-8	0.002500
5.955000E-8	0.002359
5.960000E-8	0.002194
5.965000E-8	0.002078
5.970000E-8	0.002156
5.975000E-8	0.002225
5.980000E-8	0.002188
5.985000E-8	0.002481
5.990000E-8	0.002625
5.995000E-8	0.002737
6.000000E-8	0.002978
6.005000E-8	0.003159
6.010000E-8	0.003256
6.015000E-8	0.003472
6.020000E-8	0.003619
6.025000E-8	0.003750
6.030000E-8	0.003750
6.035000E-8	0.003744
6.040000E-8	0.003713
6.045000E-8	0.003638
6.050000E-8	0.003584
6.055000E-8	0.003478
6.060000E-8	0.003263
6.065000E-8	0.003175
6.070000E-8	0.003075
6.075000E-8	0.002881
6.080000E-8	0.002600
6.085000E-8	0.002447
6.090000E-8	0.002266
6.095000E-8	0.002147
6.100000E-8	0.001963
6.105000E-8	0.002034
6.110000E-8	0.002113
6.115000E-8	0.002228
6.120000E-8	0.002400
6.125000E-8	0.002613
6.130000E-8	0.002725
6.135000E-8	0.002919
6.140000E-8	0.003138
6.145000E-8	0.003359
6.150000E-8	0.003625
6.155000E-8	0.003781
6.160000E-8	0.003791
6.165000E-8	0.003759
6.170000E-8	0.003706
6.175000E-8	0.003666
6.180000E-8	0.003506
6.185000E-8	0.003344
6.190000E-8	0.003056
6.195000E-8	0.002928
6.200000E-8	0.002766
6.205000E-8	0.002600
6.210000E-8	0.002372
6.215000E-8	0.002388
6.220000E-8	0.002294
6.225000E-8	0.002281
6.230000E-8	0.002344
6.235000E-8	0.002434
6.240000E-8	0.002512
6.245000E-8	0.002662
6.250000E-8	0.002778
6.255000E-8	0.003116
6.260000E-8	0.003291
6.265000E-8	0.003475
6.270000E-8	0.003528
6.275000E-8	0.003634
6.280000E-8	0.003756
6.285000E-8	0.003763
6.290000E-8	0.003641
6.295000E-8	0.003809
6.300000E-8	0.003659
6.305000E-8	0.003669
6.310000E-8	0.003484
6.315000E-8	0.003425
6.320000E-8	0.003191
6.325000E-8	0.002934
6.330000E-8	0.002800
6.335000E-8	0.002578
6.340000E-8	0.002500
6.345000E-8	0.002309
6.350000E-8	0.002250
6.355000E-8	0.002372
6.360000E-8	0.002313
6.365000E-8	0.002388
6.370000E-8	0.002628
6.375000E-8	0.002831
6.380000E-8	0.002950
6.385000E-8	0.003203
6.390000E-8	0.003300
6.395000E-8	0.003497
6.400000E-8	0.003566
6.405000E-8	0.003556
6.410000E-8	0.003597
6.415000E-8	0.003591
6.420000E-8	0.003503
6.425000E-8	0.003313
6.430000E-8	0.003081
6.435000E-8	0.002981
6.440000E-8	0.002819
6.445000E-8	0.002847
6.450000E-8	0.002638
6.455000E-8	0.002578
6.460000E-8	0.002456
6.465000E-8	0.002497
6.470000E-8	0.002503
6.475000E-8	0.002437
6.480000E-8	0.002381
6.485000E-8	0.002478
6.490000E-8	0.002534
6.495000E-8	0.002697
6.500000E-8	0.002791
6.505000E-8	0.002791
6.510000E-8	0.002894
6.515000E-8	0.003044
6.520000E-8	0.003216
6.525000E-8	0.003422
6.530000E-8	0.003594
6.535000E-8	0.003609
6.540000E-8	0.003641
6.545000E-8	0.003684
6.550000E-8	0.003647
6.555000E-8	0.003563
6.560000E-8	0.003419
6.565000E-8	0.003388
6.570000E-8	0.003078
6.575000E-8	0.002931
6.580000E-8	0.002616
6.585000E-8	0.002325
6.590000E-8	0.002172
6.595000E-8	0.001972
6.600000E-8	0.001909
6.605000E-8	0.001872
6.610000E-8	0.001922
6.615000E-8	0.002141
6.620000E-8	0.002359
6.625000E-8	0.002641
6.630000E-8	0.002756
6.635000E-8	0.003019
6.640000E-8	0.003338
6.645000E-8	0.003566
6.650000E-8	0.003794
6.655000E-8	0.003891
6.660000E-8	0.003916
6.665000E-8	0.003962
6.670000E-8	0.003856
6.675000E-8	0.003641
6.680000E-8	0.003503
6.685000E-8	0.003378
6.690000E-8	0.003184
6.695000E-8	0.003100
6.700000E-8	0.002881
6.705000E-8	0.002719
6.710000E-8	0.002575
6.715000E-8	0.002384
6.720000E-8	0.002259
6.725000E-8	0.002394
6.730000E-8	0.002425
6.735000E-8	0.002428
6.740000E-8	0.002469
6.745000E-8	0.002522
6.750000E-8	0.002569
6.755000E-8	0.002744
6.760000E-8	0.002925
6.765000E-8	0.003038
6.770000E-8	0.003228
6.775000E-8	0.003391
6.780000E-8	0.003572
6.785000E-8	0.003597
6.790000E-8	0.003603
6.795000E-8	0.003616
6.800000E-8	0.003659
6.805000E-8	0.003463
6.810000E-8	0.003331
6.815000E-8	0.003150
6.820000E-8	0.002956
6.825000E-8	0.002688
6.830000E-8	0.002409
6.835000E-8	0.002294
6.840000E-8	0.002237
6.845000E-8	0.002319
6.850000E-8	0.002309
6.855000E-8	0.002363
6.860000E-8	0.002491
6.865000E-8	0.002544
6.870000E-8	0.002716
6.875000E-8	0.002741
6.880000E-8	0.002834
6.885000E-8	0.002944
6.890000E-8	0.003056
6.895000E-8	0.003134
6.900000E-8	0.003319
6.905000E-8	0.003481
6.910000E-8	0.003434
6.915000E-8	0.003469
6.920000E-8	0.003434
6.925000E-8	0.003500
6.930000E-8	0.003353
6.935000E-8	0.003375
6.940000E-8	0.003206
6.945000E-8	0.003138
6.950000E-8	0.002969
6.955000E-8	0.002925
6.960000E-8	0.002781
6.965000E-8	0.002759
6.970000E-8	0.002628
6.975000E-8	0.002587
6.980000E-8	0.002700
6.985000E-8	0.002756
6.990000E-8	0.002747
6.995000E-8	0.002853
7.000000E-8	0.003016
7.005000E-8	0.003181
7.010000E-8	0.003347
7.015000E-8	0.003525
7.020000E-8	0.003688
7.025000E-8	0.003813
7.030000E-8	0.003875
7.035000E-8	0.003894
7.040000E-8	0.003881
7.045000E-8	0.003809
7.050000E-8	0.003722
7.055000E-8	0.003656
7.060000E-8	0.003538
7.065000E-8	0.003359
7.070000E-8	0.003263
7.075000E-8	0.003166
7.080000E-8	0.003012
7.085000E-8	0.002834
7.090000E-8	0.002750
7.095000E-8	0.002625
7.100000E-8	0.002391
7.105000E-8	0.002434
7.110000E-8	0.002372
7.115000E-8	0.002484
7.120000E-8	0.002531
7.125000E-8	0.002541
7.130000E-8	0.002669
7.135000E-8	0.002819
7.140000E-8	0.002975
7.145000E-8	0.003216
7.150000E-8	0.003306
7.155000E-8	0.003447
7.160000E-8	0.003631
7.165000E-8	0.003609
7.170000E-8	0.003597
7.175000E-8	0.003594
7.180000E-8	0.003447
7.185000E-8	0.003359
7.190000E-8	0.003244
7.195000E-8	0.003097
7.200000E-8	0.002934
7.205000E-8	0.002913
7.210000E-8	0.002609
7.215000E-8	0.002575
7.220000E-8	0.002541
7.225000E-8	0.002450
7.230000E-8	0.002425
7.235000E-8	0.002528
7.240000E-8	0.002650
7.245000E-8	0.002681
7.250000E-8	0.002903
7.255000E-8	0.003113
7.260000E-8	0.003263
7.265000E-8	0.003506
7.270000E-8	0.003641
7.275000E-8	0.003797
7.280000E-8	0.003878
7.285000E-8	0.003931
7.290000E-8	0.003775
7.295000E-8	0.003716
7.300000E-8	0.003678
7.305000E-8	0.003575
7.310000E-8	0.003378
7.315000E-8	0.003300
7.320000E-8	0.003081
7.325000E-8	0.002944
7.330000E-8	0.002838
7.335000E-8	0.002694
7.340000E-8	0.002563
7.345000E-8	0.002584
7.350000E-8	0.002341
7.355000E-8	0.002416
7.360000E-8	0.002356
7.365000E-8	0.002522
7.370000E-8	0.002547
7.375000E-8	0.002506
7.380000E-8	0.002778
7.385000E-8	0.002863
7.390000E-8	0.002969
7.395000E-8	0.003234
7.400000E-8	0.003428
7.405000E-8	0.003550
7.410000E-8	0.003738
7.415000E-8	0.003709
7.420000E-8	0.003784
7.425000E-8	0.003731
7.430000E-8	0.003644
7.435000E-8	0.003547
7.440000E-8	0.003388
7.445000E-8	0.003297
7.450000E-8	0.003109
7.455000E-8	0.002938
7.460000E-8	0.002866
7.465000E-8	0.002700
7.470000E-8	0.002653
7.475000E-8	0.002578
7.480000E-8	0.002541
7.485000E-8	0.002538
7.490000E-8	0.002659
7.495000E-8	0.002703
7.500000E-8	0.002700
7.505000E-8	0.002763
7.510000E-8	0.002863
7.515000E-8	0.002913
7.520000E-8	0.002969
7.525000E-8	0.003081
7.530000E-8	0.003178
7.535000E-8	0.003334
7.540000E-8	0.003369
7.545000E-8	0.003444
7.550000E-8	0.003484
7.555000E-8	0.003434
7.560000E-8	0.003306
7.565000E-8	0.003269
7.570000E-8	0.003050
7.575000E-8	0.002969
7.580000E-8	0.002750
7.585000E-8	0.002569
7.590000E-8	0.002391
7.595000E-8	0.002400
7.600000E-8	0.002413
7.605000E-8	0.002356
7.610000E-8	0.002488
7.615000E-8	0.002591
7.620000E-8	0.002528
7.625000E-8	0.002694
7.630000E-8	0.002759
7.635000E-8	0.002844
7.640000E-8	0.002894
7.645000E-8	0.003003
7.650000E-8	0.003109
7.655000E-8	0.003141
7.660000E-8	0.003147
7.665000E-8	0.003219
7.670000E-8	0.003150
7.675000E-8	0.003256
7.680000E-8	0.003162
7.685000E-8	0.003122
7.690000E-8	0.003022
7.695000E-8	0.003041
7.700000E-8	0.002941
7.705000E-8	0.002891
7.710000E-8	0.002838
7.715000E-8	0.002897
7.720000E-8	0.002656
7.725000E-8	0.002631
7.730000E-8	0.002575
7.735000E-8	0.002563
7.740000E-8	0.002512
7.745000E-8	0.002469
7.750000E-8	0.002506
7.755000E-8	0.002597
7.760000E-8	0.002747
7.765000E-8	0.002878
7.770000E-8	0.003019
7.775000E-8	0.003206
7.780000E-8	0.003325
7.785000E-8	0.003475
7.790000E-8	0.003597
7.795000E-8	0.003597
7.800000E-8	0.003709
7.805000E-8	0.003522
7.810000E-8	0.003453
7.815000E-8	0.003363
7.820000E-8	0.003200
7.825000E-8	0.003134
7.830000E-8	0.002884
7.835000E-8	0.002728
7.840000E-8	0.002547
7.845000E-8	0.002500
7.850000E-8	0.002503
7.855000E-8	0.002459
7.860000E-8	0.002481
7.865000E-8	0.002378
7.870000E-8	0.002431
7.875000E-8	0.002516
7.880000E-8	0.002484
7.885000E-8	0.002731
7.890000E-8	0.002838
7.895000E-8	0.002922
7.900000E-8	0.003031
7.905000E-8	0.003162
7.910000E-8	0.003150
7.915000E-8	0.003250
7.920000E-8	0.003209
7.925000E-8	0.003069
7.930000E-8	0.003003
7.935000E-8	0.002888
7.940000E-8	0.002775
7.945000E-8	0.002713
7.950000E-8	0.002584
7.955000E-8	0.002425
7.960000E-8	0.002328
7.965000E-8	0.002300
7.970000E-8	0.002325
7.975000E-8	0.002216
7.980000E-8	0.002188
7.985000E-8	0.002247
7.990000E-8	0.002309
7.995000E-8	0.002463
8.000000E-8	0.002441
8.005000E-8	0.002475
8.010000E-8	0.002459
8.015000E-8	0.002647
8.020000E-8	0.002913
8.025000E-8	0.003125
8.030000E-8	0.003319
8.035000E-8	0.003438
8.040000E-8	0.003469
8.045000E-8	0.003538
8.050000E-8	0.003556
8.055000E-8	0.003691
8.060000E-8	0.003794
8.065000E-8	0.003725
8.070000E-8	0.003625
8.075000E-8	0.003469
8.080000E-8	0.003309
8.085000E-8	0.003291
8.090000E-8	0.003000
8.095000E-8	0.002928
8.100000E-8	0.002819
8.105000E-8	0.002828
8.110000E-8	0.002941
8.115000E-8	0.002972
8.120000E-8	0.003031
8.125000E-8	0.003153
8.130000E-8	0.003328
8.135000E-8	0.003450
8.140000E-8	0.003450
8.145000E-8	0.003469
8.150000E-8	0.003450
8.155000E-8	0.003447
8.160000E-8	0.003447
8.165000E-8	0.003369
8.170000E-8	0.003228
8.175000E-8	0.003109
8.180000E-8	0.003094
8.185000E-8	0.003041
8.190000E-8	0.003006
8.195000E-8	0.002878
8.200000E-8	0.002813
8.205000E-8	0.002863
8.210000E-8	0.002813
8.215000E-8	0.002769
8.220000E-8	0.002737
8.225000E-8	0.002691
8.230000E-8	0.002669
8.235000E-8	0.002800
8.240000E-8	0.002763
8.245000E-8	0.002919
8.250000E-8	0.002866
8.255000E-8	0.002966
8.260000E-8	0.003159
8.265000E-8	0.003175
8.270000E-8	0.003200
8.275000E-8	0.003313
8.280000E-8	0.003288
8.285000E-8	0.003356
8.290000E-8	0.003319
8.295000E-8	0.003397
8.300000E-8	0.003328
8.305000E-8	0.003397
8.310000E-8	0.003450
8.315000E-8	0.003450
8.320000E-8	0.003238
8.325000E-8	0.003128
8.330000E-8	0.002894
8.335000E-8	0.002838
8.340000E-8	0.002853
8.345000E-8	0.002713
8.350000E-8	0.002584
8.355000E-8	0.002553
8.360000E-8	0.002519
8.365000E-8	0.002628
8.370000E-8	0.002578
8.375000E-8	0.002638
8.380000E-8	0.002691
8.385000E-8	0.002875
8.390000E-8	0.002909
8.395000E-8	0.002994
8.400000E-8	0.003063
8.405000E-8	0.003084
8.410000E-8	0.003125
8.415000E-8	0.003153
8.420000E-8	0.003200
8.425000E-8	0.003084
8.430000E-8	0.003075
8.435000E-8	0.003041
8.440000E-8	0.002981
8.445000E-8	0.002950
8.450000E-8	0.002844
8.455000E-8	0.002847
8.460000E-8	0.002881
8.465000E-8	0.002903
8.470000E-8	0.002769
8.475000E-8	0.002772
8.480000E-8	0.002734
8.485000E-8	0.002766
8.490000E-8	0.002700
8.495000E-8	0.002616
8.500000E-8	0.002669
8.505000E-8	0.002709
8.510000E-8	0.002834
8.515000E-8	0.002903
8.520000E-8	0.003009
8.525000E-8	0.003144
8.530000E-8	0.003097
8.535000E-8	0.003284
8.540000E-8	0.003291
8.545000E-8	0.003334
8.550000E-8	0.003316
8.555000E-8	0.003319
8.560000E-8	0.003228
8.565000E-8	0.003222
8.570000E-8	0.003106
8.575000E-8	0.002947
8.580000E-8	0.002925
8.585000E-8	0.002900
8.590000E-8	0.002788
8.595000E-8	0.002684
8.600000E-8	0.002625
8.605000E-8	0.002619
8.610000E-8	0.002616
8.615000E-8	0.002541
8.620000E-8	0.002534
8.625000E-8	0.002684
8.630000E-8	0.002666
8.635000E-8	0.002666
8.640000E-8	0.002566
8.645000E-8	0.002688
8.650000E-8	0.002897
8.655000E-8	0.002869
8.660000E-8	0.003019
8.665000E-8	0.003053
8.670000E-8	0.003141
8.675000E-8	0.003162
8.680000E-8	0.003213
8.685000E-8	0.003250
8.690000E-8	0.003303
8.695000E-8	0.003341
8.700000E-8	0.003225
8.705000E-8	0.003253
8.710000E-8	0.003138
8.715000E-8	0.003038
8.720000E-8	0.002863
8.725000E-8	0.002744
8.730000E-8	0.002547
8.735000E-8	0.002497
8.740000E-8	0.002350
8.745000E-8	0.002297
8.750000E-8	0.002484
8.755000E-8	0.002566
8.760000E-8	0.002684
8.765000E-8	0.002941
8.770000E-8	0.003116
8.775000E-8	0.003322
8.780000E-8	0.003512
8.785000E-8	0.003666
8.790000E-8	0.003647
8.795000E-8	0.003600
8.800000E-8	0.003494
8.805000E-8	0.003500
8.810000E-8	0.003356
8.815000E-8	0.003256
8.820000E-8	0.003094
8.825000E-8	0.002975
8.830000E-8	0.002991
8.835000E-8	0.002919
8.840000E-8	0.002834
8.845000E-8	0.002878
8.850000E-8	0.002813
8.855000E-8	0.002856
8.860000E-8	0.002881
8.865000E-8	0.002819
8.870000E-8	0.002850
8.875000E-8	0.002866
8.880000E-8	0.002797
8.885000E-8	0.002863
8.890000E-8	0.002878
8.895000E-8	0.002944
8.900000E-8	0.002934
8.905000E-8	0.002997
8.910000E-8	0.003087
8.915000E-8	0.003131
8.920000E-8	0.003194
8.925000E-8	0.003263
8.930000E-8	0.003294
8.935000E-8	0.003288
8.940000E-8	0.003213
8.945000E-8	0.003109
8.950000E-8	0.003053
8.955000E-8	0.003106
8.960000E-8	0.002947
8.965000E-8	0.002847
8.970000E-8	0.002769
8.975000E-8	0.002725
8.980000E-8	0.002737
8.985000E-8	0.002703
8.990000E-8	0.002647
8.995000E-8	0.002653
9.000000E-8	0.002709
9.005000E-8	0.002722
9.010000E-8	0.002809
9.015000E-8	0.002850
9.020000E-8	0.002888
9.025000E-8	0.002947
9.030000E-8	0.002956
9.035000E-8	0.003031
9.040000E-8	0.003094
9.045000E-8	0.003063
9.050000E-8	0.003103
9.055000E-8	0.003169
9.060000E-8	0.003194
9.065000E-8	0.003047
9.070000E-8	0.003091
9.075000E-8	0.003019
9.080000E-8	0.003003
9.085000E-8	0.002963
9.090000E-8	0.002803
9.095000E-8	0.002825
9.100000E-8	0.002747
9.105000E-8	0.002788
9.110000E-8	0.002900
9.115000E-8	0.002869
9.120000E-8	0.002903
9.125000E-8	0.002972
9.130000E-8	0.003047
9.135000E-8	0.003091
9.140000E-8	0.003109
9.145000E-8	0.003250
9.150000E-8	0.003253
9.155000E-8	0.003263
9.160000E-8	0.003297
9.165000E-8	0.003278
9.170000E-8	0.003406
9.175000E-8	0.003434
9.180000E-8	0.003253
9.185000E-8	0.003053
9.190000E-8	0.003066
9.195000E-8	0.002916
9.200000E-8	0.002988
9.205000E-8	0.002853
9.210000E-8	0.002922
9.215000E-8	0.002891
9.220000E-8	0.002806
9.225000E-8	0.002997
9.230000E-8	0.002969
9.235000E-8	0.003028
9.240000E-8	0.003056
9.245000E-8	0.002975
9.250000E-8	0.002978
9.255000E-8	0.002978
9.260000E-8	0.002838
9.265000E-8	0.002734
9.270000E-8	0.002625
9.275000E-8	0.002597
9.280000E-8	0.002728
9.285000E-8	0.002819
9.290000E-8	0.002925
9.295000E-8	0.002997
9.300000E-8	0.003056
9.305000E-8	0.003116
9.310000E-8	0.003081
9.315000E-8	0.003162
9.320000E-8	0.003159
9.325000E-8	0.003034
9.330000E-8	0.002850
9.335000E-8	0.002866
9.340000E-8	0.002866
9.345000E-8	0.002784
9.350000E-8	0.002650
9.355000E-8	0.002725
9.360000E-8	0.002684
9.365000E-8	0.002650
9.370000E-8	0.002631
9.375000E-8	0.002737
9.380000E-8	0.002678
9.385000E-8	0.002847
9.390000E-8	0.003019
9.395000E-8	0.003087
9.400000E-8	0.003188
9.405000E-8	0.003266
9.410000E-8	0.003281
9.415000E-8	0.003338
9.420000E-8	0.003303
9.425000E-8	0.003288
9.430000E-8	0.003291
9.435000E-8	0.003272
9.440000E-8	0.003147
9.445000E-8	0.003012
9.450000E-8	0.002906
9.455000E-8	0.002931
9.460000E-8	0.002838
9.465000E-8	0.002797
9.470000E-8	0.002697
9.475000E-8	0.002641
9.480000E-8	0.002666
9.485000E-8	0.002791
9.490000E-8	0.002722
9.495000E-8	0.002841
9.500000E-8	0.002844
9.505000E-8	0.002872
9.510000E-8	0.002922
9.515000E-8	0.003069
9.520000E-8	0.003091
9.525000E-8	0.003044
9.530000E-8	0.003050
9.535000E-8	0.003084
9.540000E-8	0.003216
9.545000E-8	0.003191
9.550000E-8	0.003144
9.555000E-8	0.003169
9.560000E-8	0.003172
9.565000E-8	0.003194
9.570000E-8	0.003153
9.575000E-8	0.003178
9.580000E-8	0.003059
9.585000E-8	0.003031
9.590000E-8	0.002838
9.595000E-8	0.002759
9.600000E-8	0.002716
9.605000E-8	0.002622
9.610000E-8	0.002559
9.615000E-8	0.002541
9.620000E-8	0.002613
9.625000E-8	0.002741
9.630000E-8	0.002859
9.635000E-8	0.002850
9.640000E-8	0.003003
9.645000E-8	0.003034
9.650000E-8	0.002941
9.655000E-8	0.003034
9.660000E-8	0.002966
9.665000E-8	0.002963
9.670000E-8	0.002888
9.675000E-8	0.002913
9.680000E-8	0.002916
9.685000E-8	0.002981
9.690000E-8	0.002988
9.695000E-8	0.003000
9.700000E-8	0.002975
9.705000E-8	0.003034
9.710000E-8	0.003053
9.715000E-8	0.003044
9.720000E-8	0.003006
9.725000E-8	0.002963
9.730000E-8	0.003122
9.735000E-8	0.003184
9.740000E-8	0.003159
9.745000E-8	0.003044
9.750000E-8	0.003041
9.755000E-8	0.003022
9.760000E-8	0.003003
9.765000E-8	0.002838
9.770000E-8	0.002856
9.775000E-8	0.002806
9.780000E-8	0.002800
9.785000E-8	0.002853
9.790000E-8	0.002781
9.795000E-8	0.002978
9.800000E-8	0.003016
9.805000E-8	0.003103
9.810000E-8	0.003131
9.815000E-8	0.003025
9.820000E-8	0.002975
9.825000E-8	0.003034
9.830000E-8	0.002934
9.835000E-8	0.002853
9.840000E-8	0.002681
9.845000E-8	0.002734
9.850000E-8	0.002603
9.855000E-8	0.002497
9.860000E-8	0.002531
9.865000E-8	0.002594
9.870000E-8	0.002597
9.875000E-8	0.002625
9.880000E-8	0.002566
9.885000E-8	0.002678
9.890000E-8	0.002713
9.895000E-8	0.002688
9.900000E-8	0.002675
9.905000E-8	0.002744
9.910000E-8	0.002822
9.915000E-8	0.002913
9.920000E-8	0.002928
9.925000E-8	0.002950
9.930000E-8	0.003078
9.935000E-8	0.003162
9.940000E-8	0.003100
9.945000E-8	0.003141
9.950000E-8	0.003181
9.955000E-8	0.003141
9.960000E-8	0.003100
9.965000E-8	0.002994
9.970000E-8	0.002844
9.975000E-8	0.002706
9.980000E-8	0.002656
9.985000E-8	0.002638
9.990000E-8	0.002669
9.995000E-8	0.002647
