LabVIEW Measurement	
Writer_Version	2
Reader_Version	2
Separator	Tab
Decimal_Separator	.
Multi_Headings	No
X_Columns	Multi
Time_Pref	Relative
Operator	TG lab
Date	2015/03/06
Time	19:36:21.4234395027160644532
***End_of_Header***	
	
Channels	1	
Samples	2000	
Date	1903/12/31	
Time	19:00:00	
X_Dimension	Time	
X0	0.0000000000000000E+0	
Delta_X	5.000000E-11	
***End_of_Header***		
X_Value	Untitled	Comment
0.000000	0.002838
5.000000E-11	0.002909
1.000000E-10	0.002903
1.500000E-10	0.002838
2.000000E-10	0.002847
2.500000E-10	0.002859
3.000000E-10	0.002856
3.500000E-10	0.002844
4.000000E-10	0.002866
4.500000E-10	0.002834
5.000000E-10	0.002844
5.500000E-10	0.002894
6.000000E-10	0.002894
6.500000E-10	0.002950
7.000000E-10	0.002881
7.500000E-10	0.002850
8.000000E-10	0.002794
8.500000E-10	0.002747
9.000000E-10	0.002703
9.500000E-10	0.002581
1.000000E-9	0.002509
1.050000E-9	0.002450
1.100000E-9	0.002319
1.150000E-9	0.002478
1.200000E-9	0.002437
1.250000E-9	0.002591
1.300000E-9	0.002603
1.350000E-9	0.002825
1.400000E-9	0.002753
1.450000E-9	0.003000
1.500000E-9	0.002947
1.550000E-9	0.003016
1.600000E-9	0.002994
1.650000E-9	0.003012
1.700000E-9	0.003031
1.750000E-9	0.002975
1.800000E-9	0.003012
1.850000E-9	0.003031
1.900000E-9	0.002941
1.950000E-9	0.003087
2.000000E-9	0.003016
2.050000E-9	0.003153
2.100000E-9	0.003041
2.150000E-9	0.003247
2.200000E-9	0.003228
2.250000E-9	0.003406
2.300000E-9	0.003356
2.350000E-9	0.003416
2.400000E-9	0.003422
2.450000E-9	0.003541
2.500000E-9	0.003569
2.550000E-9	0.003469
2.600000E-9	0.003353
2.650000E-9	0.003450
2.700000E-9	0.003413
2.750000E-9	0.003359
2.800000E-9	0.003425
2.850000E-9	0.003519
2.900000E-9	0.003475
2.950000E-9	0.003566
3.000000E-9	0.003650
3.050000E-9	0.003647
3.100000E-9	0.003672
3.150000E-9	0.003800
3.200000E-9	0.003747
3.250000E-9	0.003847
3.300000E-9	0.003816
3.350000E-9	0.003894
3.400000E-9	0.003897
3.450000E-9	0.003997
3.500000E-9	0.003831
3.550000E-9	0.003788
3.600000E-9	0.003778
3.650000E-9	0.003969
3.700000E-9	0.003962
3.750000E-9	0.004109
3.800000E-9	0.004134
3.850000E-9	0.004378
3.900000E-9	0.004481
3.950000E-9	0.004594
4.000000E-9	0.004728
4.050000E-9	0.004766
4.100000E-9	0.004838
4.150000E-9	0.004981
4.200000E-9	0.005016
4.250000E-9	0.005275
4.300000E-9	0.005419
4.350000E-9	0.005719
4.400000E-9	0.006106
4.450000E-9	0.006522
4.500000E-9	0.007153
4.550000E-9	0.007919
4.600000E-9	0.008678
4.650000E-9	0.009737
4.700000E-9	0.010788
4.750000E-9	0.012038
4.800000E-9	0.013141
4.850000E-9	0.014656
4.900000E-9	0.016088
4.950000E-9	0.017728
5.000000E-9	0.019478
5.050000E-9	0.021122
5.100000E-9	0.022906
5.150000E-9	0.024794
5.200000E-9	0.026503
5.250000E-9	0.028153
5.300000E-9	0.029666
5.350000E-9	0.031056
5.400000E-9	0.032084
5.450000E-9	0.032962
5.500000E-9	0.033675
5.550000E-9	0.034006
5.600000E-9	0.034300
5.650000E-9	0.034394
5.700000E-9	0.034206
5.750000E-9	0.033725
5.800000E-9	0.032966
5.850000E-9	0.031984
5.900000E-9	0.030703
5.950000E-9	0.029175
6.000000E-9	0.027509
6.050000E-9	0.025725
6.100000E-9	0.023991
6.150000E-9	0.022353
6.200000E-9	0.021112
6.250000E-9	0.020134
6.300000E-9	0.019478
6.350000E-9	0.019203
6.400000E-9	0.019228
6.450000E-9	0.019531
6.500000E-9	0.020147
6.550000E-9	0.020844
6.600000E-9	0.021472
6.650000E-9	0.022247
6.700000E-9	0.022897
6.750000E-9	0.023425
6.800000E-9	0.023822
6.850000E-9	0.024013
6.900000E-9	0.023872
6.950000E-9	0.023772
7.000000E-9	0.023291
7.050000E-9	0.022525
7.100000E-9	0.021722
7.150000E-9	0.020694
7.200000E-9	0.019419
7.250000E-9	0.018063
7.300000E-9	0.016781
7.350000E-9	0.015538
7.400000E-9	0.014291
7.450000E-9	0.013269
7.500000E-9	0.012384
7.550000E-9	0.011888
7.600000E-9	0.011647
7.650000E-9	0.011703
7.700000E-9	0.011869
7.750000E-9	0.012422
7.800000E-9	0.013262
7.850000E-9	0.014203
7.900000E-9	0.014956
7.950000E-9	0.015891
8.000000E-9	0.016637
8.050000E-9	0.017309
8.100000E-9	0.017797
8.150000E-9	0.017984
8.200000E-9	0.017931
8.250000E-9	0.017606
8.300000E-9	0.017131
8.350000E-9	0.016397
8.400000E-9	0.015375
8.450000E-9	0.014209
8.500000E-9	0.012956
8.550000E-9	0.011703
8.600000E-9	0.010584
8.650000E-9	0.009506
8.700000E-9	0.008622
8.750000E-9	0.007897
8.800000E-9	0.007350
8.850000E-9	0.007238
8.900000E-9	0.007200
8.950000E-9	0.007509
9.000000E-9	0.008016
9.050000E-9	0.008734
9.100000E-9	0.009550
9.150000E-9	0.010531
9.200000E-9	0.011434
9.250000E-9	0.012216
9.300000E-9	0.012922
9.350000E-9	0.013419
9.400000E-9	0.013778
9.450000E-9	0.013966
9.500000E-9	0.013847
9.550000E-9	0.013450
9.600000E-9	0.012822
9.650000E-9	0.012022
9.700000E-9	0.011016
9.750000E-9	0.009928
9.800000E-9	0.008813
9.850000E-9	0.007750
9.900000E-9	0.006653
9.950000E-9	0.005788
1.000000E-8	0.005178
1.005000E-8	0.004681
1.010000E-8	0.004547
1.015000E-8	0.004581
1.020000E-8	0.004672
1.025000E-8	0.005294
1.030000E-8	0.006003
1.035000E-8	0.006909
1.040000E-8	0.007809
1.045000E-8	0.008875
1.050000E-8	0.009875
1.055000E-8	0.010700
1.060000E-8	0.011278
1.065000E-8	0.011847
1.070000E-8	0.011950
1.075000E-8	0.011778
1.080000E-8	0.011463
1.085000E-8	0.010950
1.090000E-8	0.010209
1.095000E-8	0.009253
1.100000E-8	0.008228
1.105000E-8	0.007222
1.110000E-8	0.006153
1.115000E-8	0.005159
1.120000E-8	0.004288
1.125000E-8	0.003481
1.130000E-8	0.002969
1.135000E-8	0.002719
1.140000E-8	0.002672
1.145000E-8	0.002925
1.150000E-8	0.003372
1.155000E-8	0.004125
1.160000E-8	0.004844
1.165000E-8	0.005766
1.170000E-8	0.006756
1.175000E-8	0.007897
1.180000E-8	0.008712
1.185000E-8	0.009341
1.190000E-8	0.009803
1.195000E-8	0.010213
1.200000E-8	0.010169
1.205000E-8	0.009934
1.210000E-8	0.009431
1.215000E-8	0.008725
1.220000E-8	0.007834
1.225000E-8	0.006975
1.230000E-8	0.005853
1.235000E-8	0.004806
1.240000E-8	0.003797
1.245000E-8	0.002988
1.250000E-8	0.002453
1.255000E-8	0.001913
1.260000E-8	0.001669
1.265000E-8	0.001703
1.270000E-8	0.002025
1.275000E-8	0.002550
1.280000E-8	0.003197
1.285000E-8	0.004050
1.290000E-8	0.004966
1.295000E-8	0.005941
1.300000E-8	0.006750
1.305000E-8	0.007631
1.310000E-8	0.008334
1.315000E-8	0.008878
1.320000E-8	0.009128
1.325000E-8	0.009178
1.330000E-8	0.008941
1.335000E-8	0.008441
1.340000E-8	0.007753
1.345000E-8	0.007022
1.350000E-8	0.006097
1.355000E-8	0.005084
1.360000E-8	0.004028
1.365000E-8	0.003216
1.370000E-8	0.002528
1.375000E-8	0.001831
1.380000E-8	0.001344
1.385000E-8	0.001225
1.390000E-8	0.001231
1.395000E-8	0.001463
1.400000E-8	0.001909
1.405000E-8	0.002581
1.410000E-8	0.003378
1.415000E-8	0.004434
1.420000E-8	0.005219
1.425000E-8	0.006237
1.430000E-8	0.007091
1.435000E-8	0.007794
1.440000E-8	0.008316
1.445000E-8	0.008441
1.450000E-8	0.008481
1.455000E-8	0.008316
1.460000E-8	0.007809
1.465000E-8	0.007172
1.470000E-8	0.006328
1.475000E-8	0.005359
1.480000E-8	0.004338
1.485000E-8	0.003353
1.490000E-8	0.002309
1.495000E-8	0.001500
1.500000E-8	0.000903
1.505000E-8	0.000553
1.510000E-8	0.000178
1.515000E-8	0.000313
1.520000E-8	0.000525
1.525000E-8	0.001016
1.530000E-8	0.001659
1.535000E-8	0.002522
1.540000E-8	0.003394
1.545000E-8	0.004297
1.550000E-8	0.005197
1.555000E-8	0.006038
1.560000E-8	0.006603
1.565000E-8	0.007138
1.570000E-8	0.007378
1.575000E-8	0.007438
1.580000E-8	0.007253
1.585000E-8	0.006934
1.590000E-8	0.006409
1.595000E-8	0.005566
1.600000E-8	0.004662
1.605000E-8	0.003847
1.610000E-8	0.002875
1.615000E-8	0.002041
1.620000E-8	0.001322
1.625000E-8	0.000719
1.630000E-8	0.000234
1.635000E-8	4.687500E-5
1.640000E-8	-3.125000E-5
1.645000E-8	0.000278
1.650000E-8	0.000706
1.655000E-8	0.001472
1.660000E-8	0.002125
1.665000E-8	0.003125
1.670000E-8	0.004069
1.675000E-8	0.004928
1.680000E-8	0.005725
1.685000E-8	0.006509
1.690000E-8	0.006847
1.695000E-8	0.007200
1.700000E-8	0.007278
1.705000E-8	0.007134
1.710000E-8	0.006688
1.715000E-8	0.006138
1.720000E-8	0.005403
1.725000E-8	0.004766
1.730000E-8	0.003788
1.735000E-8	0.002834
1.740000E-8	0.001919
1.745000E-8	0.001128
1.750000E-8	0.000491
1.755000E-8	5.937500E-5
1.760000E-8	-0.000334
1.765000E-8	-0.000416
1.770000E-8	-0.000334
1.775000E-8	3.125000E-5
1.780000E-8	0.000631
1.785000E-8	0.001291
1.790000E-8	0.002119
1.795000E-8	0.002934
1.800000E-8	0.003913
1.805000E-8	0.004672
1.810000E-8	0.005406
1.815000E-8	0.006000
1.820000E-8	0.006406
1.825000E-8	0.006697
1.830000E-8	0.006644
1.835000E-8	0.006209
1.840000E-8	0.005778
1.845000E-8	0.005256
1.850000E-8	0.004372
1.855000E-8	0.003525
1.860000E-8	0.002631
1.865000E-8	0.001803
1.870000E-8	0.001063
1.875000E-8	0.000441
1.880000E-8	-5.312500E-5
1.885000E-8	-0.000278
1.890000E-8	-0.000378
1.895000E-8	-0.000100
1.900000E-8	0.000322
1.905000E-8	0.000838
1.910000E-8	0.001444
1.915000E-8	0.002313
1.920000E-8	0.003172
1.925000E-8	0.004006
1.930000E-8	0.004778
1.935000E-8	0.005447
1.940000E-8	0.005953
1.945000E-8	0.006338
1.950000E-8	0.006391
1.955000E-8	0.006359
1.960000E-8	0.006106
1.965000E-8	0.005853
1.970000E-8	0.005219
1.975000E-8	0.004563
1.980000E-8	0.003791
1.985000E-8	0.002953
1.990000E-8	0.002156
1.995000E-8	0.001434
2.000000E-8	0.000922
2.005000E-8	0.000497
2.010000E-8	8.437500E-5
2.015000E-8	3.437500E-5
2.020000E-8	2.187500E-5
2.025000E-8	0.000313
2.030000E-8	0.000706
2.035000E-8	0.001359
2.040000E-8	0.002094
2.045000E-8	0.002819
2.050000E-8	0.003512
2.055000E-8	0.004128
2.060000E-8	0.004756
2.065000E-8	0.005275
2.070000E-8	0.005656
2.075000E-8	0.005825
2.080000E-8	0.005763
2.085000E-8	0.005591
2.090000E-8	0.005194
2.095000E-8	0.004606
2.100000E-8	0.004041
2.105000E-8	0.003328
2.110000E-8	0.002563
2.115000E-8	0.001784
2.120000E-8	0.001059
2.125000E-8	0.000425
2.130000E-8	9.375000E-6
2.135000E-8	-0.000209
2.140000E-8	-0.000175
2.145000E-8	-3.437500E-5
2.150000E-8	0.000175
2.155000E-8	0.000616
2.160000E-8	0.001325
2.165000E-8	0.001969
2.170000E-8	0.002700
2.175000E-8	0.003525
2.180000E-8	0.004122
2.185000E-8	0.004700
2.190000E-8	0.005188
2.195000E-8	0.005553
2.200000E-8	0.005616
2.205000E-8	0.005606
2.210000E-8	0.005441
2.215000E-8	0.005169
2.220000E-8	0.004697
2.225000E-8	0.004247
2.230000E-8	0.003547
2.235000E-8	0.002803
2.240000E-8	0.002125
2.245000E-8	0.001506
2.250000E-8	0.000881
2.255000E-8	0.000412
2.260000E-8	6.875000E-5
2.265000E-8	-6.250000E-6
2.270000E-8	9.375000E-6
2.275000E-8	0.000284
2.280000E-8	0.000781
2.285000E-8	0.001222
2.290000E-8	0.001841
2.295000E-8	0.002463
2.300000E-8	0.003003
2.305000E-8	0.003672
2.310000E-8	0.004150
2.315000E-8	0.004644
2.320000E-8	0.004828
2.325000E-8	0.005184
2.330000E-8	0.005122
2.335000E-8	0.005131
2.340000E-8	0.004938
2.345000E-8	0.004694
2.350000E-8	0.004200
2.355000E-8	0.003669
2.360000E-8	0.003056
2.365000E-8	0.002544
2.370000E-8	0.001888
2.375000E-8	0.001344
2.380000E-8	0.000784
2.385000E-8	0.000547
2.390000E-8	0.000144
2.395000E-8	0.000237
2.400000E-8	0.000325
2.405000E-8	0.000491
2.410000E-8	0.001031
2.415000E-8	0.001578
2.420000E-8	0.002178
2.425000E-8	0.002925
2.430000E-8	0.003672
2.435000E-8	0.004316
2.440000E-8	0.004791
2.445000E-8	0.005275
2.450000E-8	0.005497
2.455000E-8	0.005625
2.460000E-8	0.005603
2.465000E-8	0.005500
2.470000E-8	0.005091
2.475000E-8	0.004566
2.480000E-8	0.003744
2.485000E-8	0.003106
2.490000E-8	0.002419
2.495000E-8	0.001828
2.500000E-8	0.001178
2.505000E-8	0.000725
2.510000E-8	0.000378
2.515000E-8	0.000309
2.520000E-8	0.000203
2.525000E-8	0.000309
2.530000E-8	0.000672
2.535000E-8	0.001047
2.540000E-8	0.001706
2.545000E-8	0.002356
2.550000E-8	0.002919
2.555000E-8	0.003603
2.560000E-8	0.004044
2.565000E-8	0.004553
2.570000E-8	0.004909
2.575000E-8	0.005231
2.580000E-8	0.005300
2.585000E-8	0.005269
2.590000E-8	0.005053
2.595000E-8	0.004613
2.600000E-8	0.004003
2.605000E-8	0.003459
2.610000E-8	0.002875
2.615000E-8	0.002125
2.620000E-8	0.001503
2.625000E-8	0.000909
2.630000E-8	0.000347
2.635000E-8	6.875000E-5
2.640000E-8	-0.000128
2.645000E-8	-0.000131
2.650000E-8	-0.000141
2.655000E-8	0.000191
2.660000E-8	0.000509
2.665000E-8	0.001197
2.670000E-8	0.001794
2.675000E-8	0.002472
2.680000E-8	0.003156
2.685000E-8	0.003866
2.690000E-8	0.004378
2.695000E-8	0.004875
2.700000E-8	0.005216
2.705000E-8	0.005413
2.710000E-8	0.005256
2.715000E-8	0.005050
2.720000E-8	0.004603
2.725000E-8	0.004028
2.730000E-8	0.003509
2.735000E-8	0.002913
2.740000E-8	0.002250
2.745000E-8	0.001753
2.750000E-8	0.001269
2.755000E-8	0.000931
2.760000E-8	0.000553
2.765000E-8	0.000434
2.770000E-8	0.000425
2.775000E-8	0.000509
2.780000E-8	0.000678
2.785000E-8	0.001066
2.790000E-8	0.001500
2.795000E-8	0.002094
2.800000E-8	0.002644
2.805000E-8	0.003263
2.810000E-8	0.003822
2.815000E-8	0.004294
2.820000E-8	0.004622
2.825000E-8	0.004994
2.830000E-8	0.005031
2.835000E-8	0.005019
2.840000E-8	0.004797
2.845000E-8	0.004425
2.850000E-8	0.004016
2.855000E-8	0.003538
2.860000E-8	0.002884
2.865000E-8	0.002250
2.870000E-8	0.001619
2.875000E-8	0.001244
2.880000E-8	0.000916
2.885000E-8	0.000569
2.890000E-8	0.000334
2.895000E-8	0.000381
2.900000E-8	0.000428
2.905000E-8	0.000713
2.910000E-8	0.000997
2.915000E-8	0.001506
2.920000E-8	0.001806
2.925000E-8	0.002434
2.930000E-8	0.002841
2.935000E-8	0.003363
2.940000E-8	0.003628
2.945000E-8	0.004013
2.950000E-8	0.004275
2.955000E-8	0.004503
2.960000E-8	0.004516
2.965000E-8	0.004550
2.970000E-8	0.004303
2.975000E-8	0.004006
2.980000E-8	0.003681
2.985000E-8	0.003159
2.990000E-8	0.002684
2.995000E-8	0.002138
3.000000E-8	0.001559
3.005000E-8	0.001119
3.010000E-8	0.000644
3.015000E-8	0.000363
3.020000E-8	0.000222
3.025000E-8	0.000216
3.030000E-8	0.000403
3.035000E-8	0.000766
3.040000E-8	0.001150
3.045000E-8	0.001622
3.050000E-8	0.002078
3.055000E-8	0.002672
3.060000E-8	0.003241
3.065000E-8	0.003784
3.070000E-8	0.004206
3.075000E-8	0.004525
3.080000E-8	0.004756
3.085000E-8	0.004856
3.090000E-8	0.004747
3.095000E-8	0.004469
3.100000E-8	0.004178
3.105000E-8	0.003791
3.110000E-8	0.003188
3.115000E-8	0.002784
3.120000E-8	0.002244
3.125000E-8	0.001844
3.130000E-8	0.001456
3.135000E-8	0.001169
3.140000E-8	0.000897
3.145000E-8	0.000991
3.150000E-8	0.001097
3.155000E-8	0.001122
3.160000E-8	0.001400
3.165000E-8	0.001838
3.170000E-8	0.002162
3.175000E-8	0.002700
3.180000E-8	0.002997
3.185000E-8	0.003500
3.190000E-8	0.003866
3.195000E-8	0.004112
3.200000E-8	0.004397
3.205000E-8	0.004694
3.210000E-8	0.004653
3.215000E-8	0.004622
3.220000E-8	0.004563
3.225000E-8	0.004353
3.230000E-8	0.003969
3.235000E-8	0.003581
3.240000E-8	0.003091
3.245000E-8	0.002563
3.250000E-8	0.001956
3.255000E-8	0.001522
3.260000E-8	0.001038
3.265000E-8	0.000781
3.270000E-8	0.000597
3.275000E-8	0.000644
3.280000E-8	0.000737
3.285000E-8	0.000947
3.290000E-8	0.001272
3.295000E-8	0.001809
3.300000E-8	0.002172
3.305000E-8	0.002713
3.310000E-8	0.003191
3.315000E-8	0.003659
3.320000E-8	0.004059
3.325000E-8	0.004475
3.330000E-8	0.004728
3.335000E-8	0.004859
3.340000E-8	0.004747
3.345000E-8	0.004597
3.350000E-8	0.004316
3.355000E-8	0.003941
3.360000E-8	0.003466
3.365000E-8	0.002953
3.370000E-8	0.002313
3.375000E-8	0.001834
3.380000E-8	0.001347
3.385000E-8	0.001025
3.390000E-8	0.000834
3.395000E-8	0.000709
3.400000E-8	0.000650
3.405000E-8	0.000791
3.410000E-8	0.000972
3.415000E-8	0.001316
3.420000E-8	0.001731
3.425000E-8	0.002188
3.430000E-8	0.002672
3.435000E-8	0.003238
3.440000E-8	0.003641
3.445000E-8	0.004087
3.450000E-8	0.004366
3.455000E-8	0.004566
3.460000E-8	0.004553
3.465000E-8	0.004509
3.470000E-8	0.004381
3.475000E-8	0.004050
3.480000E-8	0.003603
3.485000E-8	0.003250
3.490000E-8	0.002678
3.495000E-8	0.002228
3.500000E-8	0.001863
3.505000E-8	0.001419
3.510000E-8	0.001169
3.515000E-8	0.000988
3.520000E-8	0.000819
3.525000E-8	0.000947
3.530000E-8	0.000991
3.535000E-8	0.001366
3.540000E-8	0.001753
3.545000E-8	0.002184
3.550000E-8	0.002516
3.555000E-8	0.002975
3.560000E-8	0.003456
3.565000E-8	0.003891
3.570000E-8	0.004197
3.575000E-8	0.004531
3.580000E-8	0.004669
3.585000E-8	0.004634
3.590000E-8	0.004581
3.595000E-8	0.004556
3.600000E-8	0.004278
3.605000E-8	0.004034
3.610000E-8	0.003641
3.615000E-8	0.003181
3.620000E-8	0.002688
3.625000E-8	0.002347
3.630000E-8	0.001853
3.635000E-8	0.001628
3.640000E-8	0.001231
3.645000E-8	0.001003
3.650000E-8	0.000906
3.655000E-8	0.000834
3.660000E-8	0.000894
3.665000E-8	0.001331
3.670000E-8	0.001650
3.675000E-8	0.002034
3.680000E-8	0.002491
3.685000E-8	0.002825
3.690000E-8	0.003256
3.695000E-8	0.003656
3.700000E-8	0.003834
3.705000E-8	0.004122
3.710000E-8	0.004222
3.715000E-8	0.004316
3.720000E-8	0.004053
3.725000E-8	0.003981
3.730000E-8	0.003841
3.735000E-8	0.003491
3.740000E-8	0.003069
3.745000E-8	0.002744
3.750000E-8	0.002269
3.755000E-8	0.001934
3.760000E-8	0.001669
3.765000E-8	0.001391
3.770000E-8	0.001184
3.775000E-8	0.001166
3.780000E-8	0.001125
3.785000E-8	0.001203
3.790000E-8	0.001413
3.795000E-8	0.001734
3.800000E-8	0.002106
3.805000E-8	0.002425
3.810000E-8	0.002641
3.815000E-8	0.003084
3.820000E-8	0.003522
3.825000E-8	0.003844
3.830000E-8	0.003978
3.835000E-8	0.004269
3.840000E-8	0.004378
3.845000E-8	0.004347
3.850000E-8	0.003966
3.855000E-8	0.003828
3.860000E-8	0.003591
3.865000E-8	0.003228
3.870000E-8	0.002691
3.875000E-8	0.002272
3.880000E-8	0.001856
3.885000E-8	0.001437
3.890000E-8	0.001200
3.895000E-8	0.001153
3.900000E-8	0.001038
3.905000E-8	0.001278
3.910000E-8	0.001375
3.915000E-8	0.001663
3.920000E-8	0.001891
3.925000E-8	0.002344
3.930000E-8	0.002697
3.935000E-8	0.003159
3.940000E-8	0.003397
3.945000E-8	0.003719
3.950000E-8	0.003881
3.955000E-8	0.004041
3.960000E-8	0.004025
3.965000E-8	0.003950
3.970000E-8	0.003763
3.975000E-8	0.003591
3.980000E-8	0.003269
3.985000E-8	0.002953
3.990000E-8	0.002575
3.995000E-8	0.002309
4.000000E-8	0.001875
4.005000E-8	0.001659
4.010000E-8	0.001344
4.015000E-8	0.001250
4.020000E-8	0.001144
4.025000E-8	0.001178
4.030000E-8	0.001153
4.035000E-8	0.001272
4.040000E-8	0.001450
4.045000E-8	0.001775
4.050000E-8	0.002022
4.055000E-8	0.002291
4.060000E-8	0.002566
4.065000E-8	0.002891
4.070000E-8	0.003203
4.075000E-8	0.003512
4.080000E-8	0.003722
4.085000E-8	0.003900
4.090000E-8	0.003922
4.095000E-8	0.004050
4.100000E-8	0.003928
4.105000E-8	0.003781
4.110000E-8	0.003531
4.115000E-8	0.003116
4.120000E-8	0.002741
4.125000E-8	0.002413
4.130000E-8	0.002012
4.135000E-8	0.001763
4.140000E-8	0.001409
4.145000E-8	0.001303
4.150000E-8	0.001109
4.155000E-8	0.001088
4.160000E-8	0.001197
4.165000E-8	0.001316
4.170000E-8	0.001650
4.175000E-8	0.001959
4.180000E-8	0.002303
4.185000E-8	0.002725
4.190000E-8	0.003141
4.195000E-8	0.003450
4.200000E-8	0.003747
4.205000E-8	0.004038
4.210000E-8	0.004200
4.215000E-8	0.004266
4.220000E-8	0.004250
4.225000E-8	0.003975
4.230000E-8	0.003644
4.235000E-8	0.003353
4.240000E-8	0.002913
4.245000E-8	0.002609
4.250000E-8	0.002169
4.255000E-8	0.001844
4.260000E-8	0.001478
4.265000E-8	0.001278
4.270000E-8	0.001125
4.275000E-8	0.001131
4.280000E-8	0.001031
4.285000E-8	0.001147
4.290000E-8	0.001359
4.295000E-8	0.001625
4.300000E-8	0.002031
4.305000E-8	0.002413
4.310000E-8	0.002781
4.315000E-8	0.003188
4.320000E-8	0.003506
4.325000E-8	0.003772
4.330000E-8	0.004009
4.335000E-8	0.004159
4.340000E-8	0.004169
4.345000E-8	0.004103
4.350000E-8	0.003928
4.355000E-8	0.003669
4.360000E-8	0.003472
4.365000E-8	0.003188
4.370000E-8	0.002769
4.375000E-8	0.002469
4.380000E-8	0.002116
4.385000E-8	0.001800
4.390000E-8	0.001409
4.395000E-8	0.001225
4.400000E-8	0.001059
4.405000E-8	0.001000
4.410000E-8	0.001172
4.415000E-8	0.001272
4.420000E-8	0.001513
4.425000E-8	0.001897
4.430000E-8	0.002247
4.435000E-8	0.002656
4.440000E-8	0.003066
4.445000E-8	0.003413
4.450000E-8	0.003722
4.455000E-8	0.003916
4.460000E-8	0.004050
4.465000E-8	0.003969
4.470000E-8	0.003978
4.475000E-8	0.003741
4.480000E-8	0.003425
4.485000E-8	0.003084
4.490000E-8	0.002638
4.495000E-8	0.002313
4.500000E-8	0.001913
4.505000E-8	0.001706
4.510000E-8	0.001475
4.515000E-8	0.001369
4.520000E-8	0.001141
4.525000E-8	0.001103
4.530000E-8	0.001166
4.535000E-8	0.001234
4.540000E-8	0.001300
4.545000E-8	0.001603
4.550000E-8	0.001794
4.555000E-8	0.002103
4.560000E-8	0.002369
4.565000E-8	0.002719
4.570000E-8	0.002900
4.575000E-8	0.003256
4.580000E-8	0.003444
4.585000E-8	0.003859
4.590000E-8	0.003844
4.595000E-8	0.003938
4.600000E-8	0.003900
4.605000E-8	0.003784
4.610000E-8	0.003503
4.615000E-8	0.003316
4.620000E-8	0.002997
4.625000E-8	0.002666
4.630000E-8	0.002209
4.635000E-8	0.002041
4.640000E-8	0.001603
4.645000E-8	0.001481
4.650000E-8	0.001481
4.655000E-8	0.001569
4.660000E-8	0.001566
4.665000E-8	0.001853
4.670000E-8	0.001919
4.675000E-8	0.002291
4.680000E-8	0.002494
4.685000E-8	0.002853
4.690000E-8	0.003034
4.695000E-8	0.003288
4.700000E-8	0.003428
4.705000E-8	0.003538
4.710000E-8	0.003669
4.715000E-8	0.003684
4.720000E-8	0.003653
4.725000E-8	0.003609
4.730000E-8	0.003509
4.735000E-8	0.003338
4.740000E-8	0.002969
4.745000E-8	0.002834
4.750000E-8	0.002491
4.755000E-8	0.002213
4.760000E-8	0.001913
4.765000E-8	0.001625
4.770000E-8	0.001338
4.775000E-8	0.001241
4.780000E-8	0.001072
4.785000E-8	0.001047
4.790000E-8	0.001034
4.795000E-8	0.001266
4.800000E-8	0.001344
4.805000E-8	0.001794
4.810000E-8	0.002141
4.815000E-8	0.002522
4.820000E-8	0.002809
4.825000E-8	0.003275
4.830000E-8	0.003600
4.835000E-8	0.003838
4.840000E-8	0.003913
4.845000E-8	0.004044
4.850000E-8	0.004006
4.855000E-8	0.003988
4.860000E-8	0.003638
4.865000E-8	0.003309
4.870000E-8	0.003028
4.875000E-8	0.002731
4.880000E-8	0.002447
4.885000E-8	0.002141
4.890000E-8	0.001781
4.895000E-8	0.001669
4.900000E-8	0.001553
4.905000E-8	0.001391
4.910000E-8	0.001356
4.915000E-8	0.001463
4.920000E-8	0.001588
4.925000E-8	0.001806
4.930000E-8	0.002069
4.935000E-8	0.002384
4.940000E-8	0.002606
4.945000E-8	0.002947
4.950000E-8	0.003247
4.955000E-8	0.003409
4.960000E-8	0.003528
4.965000E-8	0.003772
4.970000E-8	0.003656
4.975000E-8	0.003672
4.980000E-8	0.003634
4.985000E-8	0.003478
4.990000E-8	0.003181
4.995000E-8	0.003019
5.000000E-8	0.002766
5.005000E-8	0.002503
5.010000E-8	0.002281
5.015000E-8	0.002063
5.020000E-8	0.001691
5.025000E-8	0.001484
5.030000E-8	0.001275
5.035000E-8	0.001341
5.040000E-8	0.001281
5.045000E-8	0.001394
5.050000E-8	0.001509
5.055000E-8	0.001753
5.060000E-8	0.002075
5.065000E-8	0.002450
5.070000E-8	0.002763
5.075000E-8	0.003106
5.080000E-8	0.003322
5.085000E-8	0.003563
5.090000E-8	0.003697
5.095000E-8	0.003831
5.100000E-8	0.003738
5.105000E-8	0.003684
5.110000E-8	0.003522
5.115000E-8	0.003281
5.120000E-8	0.002931
5.125000E-8	0.002784
5.130000E-8	0.002437
5.135000E-8	0.002241
5.140000E-8	0.001866
5.145000E-8	0.001728
5.150000E-8	0.001559
5.155000E-8	0.001497
5.160000E-8	0.001328
5.165000E-8	0.001328
5.170000E-8	0.001397
5.175000E-8	0.001525
5.180000E-8	0.001856
5.185000E-8	0.002116
5.190000E-8	0.002406
5.195000E-8	0.002691
5.200000E-8	0.002988
5.205000E-8	0.003453
5.210000E-8	0.003566
5.215000E-8	0.003788
5.220000E-8	0.003875
5.225000E-8	0.003878
5.230000E-8	0.003800
5.235000E-8	0.003681
5.240000E-8	0.003447
5.245000E-8	0.003331
5.250000E-8	0.002906
5.255000E-8	0.002772
5.260000E-8	0.002331
5.265000E-8	0.002078
5.270000E-8	0.001819
5.275000E-8	0.001709
5.280000E-8	0.001484
5.285000E-8	0.001603
5.290000E-8	0.001559
5.295000E-8	0.001634
5.300000E-8	0.001906
5.305000E-8	0.002209
5.310000E-8	0.002428
5.315000E-8	0.002725
5.320000E-8	0.003006
5.325000E-8	0.003269
5.330000E-8	0.003509
5.335000E-8	0.003653
5.340000E-8	0.003734
5.345000E-8	0.003928
5.350000E-8	0.003891
5.355000E-8	0.003647
5.360000E-8	0.003663
5.365000E-8	0.003381
5.370000E-8	0.003066
5.375000E-8	0.002703
5.380000E-8	0.002322
5.385000E-8	0.002122
5.390000E-8	0.001784
5.395000E-8	0.001716
5.400000E-8	0.001469
5.405000E-8	0.001422
5.410000E-8	0.001388
5.415000E-8	0.001469
5.420000E-8	0.001497
5.425000E-8	0.001766
5.430000E-8	0.002050
5.435000E-8	0.002269
5.440000E-8	0.002622
5.445000E-8	0.002906
5.450000E-8	0.003091
5.455000E-8	0.003306
5.460000E-8	0.003553
5.465000E-8	0.003503
5.470000E-8	0.003478
5.475000E-8	0.003572
5.480000E-8	0.003381
5.485000E-8	0.003328
5.490000E-8	0.003253
5.495000E-8	0.003025
5.500000E-8	0.002722
5.505000E-8	0.002519
5.510000E-8	0.002431
5.515000E-8	0.002237
5.520000E-8	0.002003
5.525000E-8	0.001813
5.530000E-8	0.001675
5.535000E-8	0.001584
5.540000E-8	0.001641
5.545000E-8	0.001687
5.550000E-8	0.001881
5.555000E-8	0.002038
5.560000E-8	0.002288
5.565000E-8	0.002556
5.570000E-8	0.002734
5.575000E-8	0.002891
5.580000E-8	0.003181
5.585000E-8	0.003494
5.590000E-8	0.003403
5.595000E-8	0.003497
5.600000E-8	0.003484
5.605000E-8	0.003503
5.610000E-8	0.003328
5.615000E-8	0.003269
5.620000E-8	0.002928
5.625000E-8	0.002784
5.630000E-8	0.002606
5.635000E-8	0.002325
5.640000E-8	0.002081
5.645000E-8	0.001881
5.650000E-8	0.001691
5.655000E-8	0.001563
5.660000E-8	0.001453
5.665000E-8	0.001466
5.670000E-8	0.001563
5.675000E-8	0.001684
5.680000E-8	0.001841
5.685000E-8	0.002075
5.690000E-8	0.002394
5.695000E-8	0.002716
5.700000E-8	0.002847
5.705000E-8	0.003122
5.710000E-8	0.003216
5.715000E-8	0.003397
5.720000E-8	0.003553
5.725000E-8	0.003556
5.730000E-8	0.003447
5.735000E-8	0.003459
5.740000E-8	0.003369
5.745000E-8	0.003181
5.750000E-8	0.002941
5.755000E-8	0.002803
5.760000E-8	0.002550
5.765000E-8	0.002406
5.770000E-8	0.002172
5.775000E-8	0.002050
5.780000E-8	0.001909
5.785000E-8	0.001928
5.790000E-8	0.001922
5.795000E-8	0.001937
5.800000E-8	0.002138
5.805000E-8	0.002228
5.810000E-8	0.002444
5.815000E-8	0.002666
5.820000E-8	0.002784
5.825000E-8	0.002988
5.830000E-8	0.003103
5.835000E-8	0.003281
5.840000E-8	0.003428
5.845000E-8	0.003428
5.850000E-8	0.003406
5.855000E-8	0.003281
5.860000E-8	0.003122
5.865000E-8	0.002969
5.870000E-8	0.002709
5.875000E-8	0.002578
5.880000E-8	0.002284
5.885000E-8	0.002188
5.890000E-8	0.001931
5.895000E-8	0.001878
5.900000E-8	0.001738
5.905000E-8	0.001731
5.910000E-8	0.001716
5.915000E-8	0.001763
5.920000E-8	0.001728
5.925000E-8	0.001856
5.930000E-8	0.001875
5.935000E-8	0.002150
5.940000E-8	0.002347
5.945000E-8	0.002638
5.950000E-8	0.002806
5.955000E-8	0.003069
5.960000E-8	0.003194
5.965000E-8	0.003350
5.970000E-8	0.003359
5.975000E-8	0.003347
5.980000E-8	0.003384
5.985000E-8	0.003338
5.990000E-8	0.003156
5.995000E-8	0.003091
6.000000E-8	0.002891
6.005000E-8	0.002744
6.010000E-8	0.002450
6.015000E-8	0.002244
6.020000E-8	0.002022
6.025000E-8	0.001891
6.030000E-8	0.001669
6.035000E-8	0.001647
6.040000E-8	0.001581
6.045000E-8	0.001716
6.050000E-8	0.001756
6.055000E-8	0.001941
6.060000E-8	0.002234
6.065000E-8	0.002384
6.070000E-8	0.002638
6.075000E-8	0.002888
6.080000E-8	0.003075
6.085000E-8	0.003378
6.090000E-8	0.003509
6.095000E-8	0.003591
6.100000E-8	0.003619
6.105000E-8	0.003600
6.110000E-8	0.003522
6.115000E-8	0.003341
6.120000E-8	0.003166
6.125000E-8	0.003047
6.130000E-8	0.002766
6.135000E-8	0.002563
6.140000E-8	0.002247
6.145000E-8	0.001978
6.150000E-8	0.001944
6.155000E-8	0.001816
6.160000E-8	0.001825
6.165000E-8	0.001684
6.170000E-8	0.001697
6.175000E-8	0.001828
6.180000E-8	0.001900
6.185000E-8	0.002069
6.190000E-8	0.002122
6.195000E-8	0.002481
6.200000E-8	0.002544
6.205000E-8	0.002803
6.210000E-8	0.002903
6.215000E-8	0.003050
6.220000E-8	0.003172
6.225000E-8	0.003306
6.230000E-8	0.003394
6.235000E-8	0.003284
6.240000E-8	0.003106
6.245000E-8	0.002850
6.250000E-8	0.002506
6.255000E-8	0.002406
6.260000E-8	0.002091
6.265000E-8	0.001966
6.270000E-8	0.001800
6.275000E-8	0.001734
6.280000E-8	0.001694
6.285000E-8	0.001775
6.290000E-8	0.001713
6.295000E-8	0.001875
6.300000E-8	0.001934
6.305000E-8	0.002109
6.310000E-8	0.002200
6.315000E-8	0.002306
6.320000E-8	0.002488
6.325000E-8	0.002800
6.330000E-8	0.002950
6.335000E-8	0.003141
6.340000E-8	0.003319
6.345000E-8	0.003428
6.350000E-8	0.003353
6.355000E-8	0.003341
6.360000E-8	0.003347
6.365000E-8	0.003244
6.370000E-8	0.003084
6.375000E-8	0.002953
6.380000E-8	0.002803
6.385000E-8	0.002728
6.390000E-8	0.002434
6.395000E-8	0.002484
6.400000E-8	0.002353
6.405000E-8	0.002397
6.410000E-8	0.002319
6.415000E-8	0.002284
6.420000E-8	0.002244
6.425000E-8	0.002359
6.430000E-8	0.002359
6.435000E-8	0.002469
6.440000E-8	0.002475
6.445000E-8	0.002678
6.450000E-8	0.002828
6.455000E-8	0.002988
6.460000E-8	0.002972
6.465000E-8	0.003063
6.470000E-8	0.003203
6.475000E-8	0.003297
6.480000E-8	0.003263
6.485000E-8	0.003222
6.490000E-8	0.003128
6.495000E-8	0.003081
6.500000E-8	0.002813
6.505000E-8	0.002619
6.510000E-8	0.002359
6.515000E-8	0.002134
6.520000E-8	0.001819
6.525000E-8	0.001766
6.530000E-8	0.001563
6.535000E-8	0.001653
6.540000E-8	0.001653
6.545000E-8	0.001769
6.550000E-8	0.001875
6.555000E-8	0.002075
6.560000E-8	0.002147
6.565000E-8	0.002434
6.570000E-8	0.002534
6.575000E-8	0.002847
6.580000E-8	0.002909
6.585000E-8	0.003122
6.590000E-8	0.003213
6.595000E-8	0.003381
6.600000E-8	0.003225
6.605000E-8	0.003225
6.610000E-8	0.003200
6.615000E-8	0.003256
6.620000E-8	0.003025
6.625000E-8	0.002891
6.630000E-8	0.002681
6.635000E-8	0.002563
6.640000E-8	0.002322
6.645000E-8	0.002263
6.650000E-8	0.002119
6.655000E-8	0.002044
6.660000E-8	0.001972
6.665000E-8	0.001947
6.670000E-8	0.001906
6.675000E-8	0.002059
6.680000E-8	0.002141
6.685000E-8	0.002353
6.690000E-8	0.002478
6.695000E-8	0.002653
6.700000E-8	0.002797
6.705000E-8	0.003053
6.710000E-8	0.003172
6.715000E-8	0.003234
6.720000E-8	0.003363
6.725000E-8	0.003422
6.730000E-8	0.003369
6.735000E-8	0.003391
6.740000E-8	0.003247
6.745000E-8	0.003181
6.750000E-8	0.003053
6.755000E-8	0.002900
6.760000E-8	0.002703
6.765000E-8	0.002606
6.770000E-8	0.002356
6.775000E-8	0.002325
6.780000E-8	0.002141
6.785000E-8	0.002012
6.790000E-8	0.001966
6.795000E-8	0.002078
6.800000E-8	0.002125
6.805000E-8	0.002325
6.810000E-8	0.002263
6.815000E-8	0.002441
6.820000E-8	0.002506
6.825000E-8	0.002725
6.830000E-8	0.002784
6.835000E-8	0.002959
6.840000E-8	0.003025
6.845000E-8	0.003150
6.850000E-8	0.003075
6.855000E-8	0.003231
6.860000E-8	0.003188
6.865000E-8	0.003225
6.870000E-8	0.002997
6.875000E-8	0.002834
6.880000E-8	0.002703
6.885000E-8	0.002538
6.890000E-8	0.002322
6.895000E-8	0.002225
6.900000E-8	0.002109
6.905000E-8	0.002025
6.910000E-8	0.001950
6.915000E-8	0.001891
6.920000E-8	0.001925
6.925000E-8	0.001934
6.930000E-8	0.002034
6.935000E-8	0.002178
6.940000E-8	0.002359
6.945000E-8	0.002375
6.950000E-8	0.002497
6.955000E-8	0.002709
6.960000E-8	0.002747
6.965000E-8	0.002903
6.970000E-8	0.002888
6.975000E-8	0.002959
6.980000E-8	0.002941
6.985000E-8	0.002750
6.990000E-8	0.002722
6.995000E-8	0.002800
7.000000E-8	0.002575
7.005000E-8	0.002506
7.010000E-8	0.002297
7.015000E-8	0.002263
7.020000E-8	0.002141
7.025000E-8	0.002053
7.030000E-8	0.001950
7.035000E-8	0.002003
7.040000E-8	0.002000
7.045000E-8	0.001963
7.050000E-8	0.001959
7.055000E-8	0.002041
7.060000E-8	0.002116
7.065000E-8	0.002297
7.070000E-8	0.002372
7.075000E-8	0.002600
7.080000E-8	0.002803
7.085000E-8	0.002959
7.090000E-8	0.003022
7.095000E-8	0.003175
7.100000E-8	0.003256
7.105000E-8	0.003331
7.110000E-8	0.003300
7.115000E-8	0.003234
7.120000E-8	0.003084
7.125000E-8	0.002997
7.130000E-8	0.002700
7.135000E-8	0.002575
7.140000E-8	0.002275
7.145000E-8	0.002209
7.150000E-8	0.001984
7.155000E-8	0.001909
7.160000E-8	0.001753
7.165000E-8	0.001831
7.170000E-8	0.001897
7.175000E-8	0.001859
7.180000E-8	0.002041
7.185000E-8	0.002284
7.190000E-8	0.002319
7.195000E-8	0.002578
7.200000E-8	0.002706
7.205000E-8	0.002844
7.210000E-8	0.002963
7.215000E-8	0.003128
7.220000E-8	0.003103
7.225000E-8	0.003253
7.230000E-8	0.003175
7.235000E-8	0.003159
7.240000E-8	0.003141
7.245000E-8	0.002931
7.250000E-8	0.002866
7.255000E-8	0.002850
7.260000E-8	0.002681
7.265000E-8	0.002650
7.270000E-8	0.002453
7.275000E-8	0.002534
7.280000E-8	0.002450
7.285000E-8	0.002275
7.290000E-8	0.002219
7.295000E-8	0.002225
7.300000E-8	0.002228
7.305000E-8	0.002303
7.310000E-8	0.002325
7.315000E-8	0.002450
7.320000E-8	0.002503
7.325000E-8	0.002844
7.330000E-8	0.003022
7.335000E-8	0.002997
7.340000E-8	0.003009
7.345000E-8	0.003309
7.350000E-8	0.003300
7.355000E-8	0.003313
7.360000E-8	0.003219
7.365000E-8	0.003228
7.370000E-8	0.003144
7.375000E-8	0.003081
7.380000E-8	0.002897
7.385000E-8	0.002625
7.390000E-8	0.002413
7.395000E-8	0.002406
7.400000E-8	0.002213
7.405000E-8	0.002059
7.410000E-8	0.001897
7.415000E-8	0.001975
7.420000E-8	0.001919
7.425000E-8	0.002003
7.430000E-8	0.001991
7.435000E-8	0.002125
7.440000E-8	0.002156
7.445000E-8	0.002416
7.450000E-8	0.002541
7.455000E-8	0.002769
7.460000E-8	0.002866
7.465000E-8	0.003019
7.470000E-8	0.003203
7.475000E-8	0.003159
7.480000E-8	0.003144
7.485000E-8	0.003219
7.490000E-8	0.003087
7.495000E-8	0.003066
7.500000E-8	0.002950
7.505000E-8	0.002925
7.510000E-8	0.002647
7.515000E-8	0.002756
7.520000E-8	0.002647
7.525000E-8	0.002616
7.530000E-8	0.002463
7.535000E-8	0.002325
7.540000E-8	0.002250
7.545000E-8	0.002259
7.550000E-8	0.002178
7.555000E-8	0.002288
7.560000E-8	0.002309
7.565000E-8	0.002400
7.570000E-8	0.002475
7.575000E-8	0.002638
7.580000E-8	0.002950
7.585000E-8	0.003138
7.590000E-8	0.003269
7.595000E-8	0.003422
7.600000E-8	0.003531
7.605000E-8	0.003600
7.610000E-8	0.003456
7.615000E-8	0.003331
7.620000E-8	0.003031
7.625000E-8	0.002875
7.630000E-8	0.002713
7.635000E-8	0.002516
7.640000E-8	0.002350
7.645000E-8	0.002216
7.650000E-8	0.002178
7.655000E-8	0.002144
7.660000E-8	0.002087
7.665000E-8	0.002263
7.670000E-8	0.002228
7.675000E-8	0.002428
7.680000E-8	0.002437
7.685000E-8	0.002522
7.690000E-8	0.002541
7.695000E-8	0.002519
7.700000E-8	0.002503
7.705000E-8	0.002653
7.710000E-8	0.002691
7.715000E-8	0.002647
7.720000E-8	0.002731
7.725000E-8	0.002656
7.730000E-8	0.002666
7.735000E-8	0.002656
7.740000E-8	0.002709
7.745000E-8	0.002703
7.750000E-8	0.002697
7.755000E-8	0.002600
7.760000E-8	0.002444
7.765000E-8	0.002450
7.770000E-8	0.002309
7.775000E-8	0.002209
7.780000E-8	0.002078
7.785000E-8	0.002009
7.790000E-8	0.002103
7.795000E-8	0.002109
7.800000E-8	0.002016
7.805000E-8	0.002141
7.810000E-8	0.002181
7.815000E-8	0.002359
7.820000E-8	0.002503
7.825000E-8	0.002666
7.830000E-8	0.002653
7.835000E-8	0.002841
7.840000E-8	0.002991
7.845000E-8	0.003113
7.850000E-8	0.003162
7.855000E-8	0.003203
7.860000E-8	0.003069
7.865000E-8	0.003025
7.870000E-8	0.002947
7.875000E-8	0.002881
7.880000E-8	0.002725
7.885000E-8	0.002666
7.890000E-8	0.002566
7.895000E-8	0.002428
7.900000E-8	0.002341
7.905000E-8	0.002272
7.910000E-8	0.002253
7.915000E-8	0.002225
7.920000E-8	0.002272
7.925000E-8	0.002269
7.930000E-8	0.002263
7.935000E-8	0.002334
7.940000E-8	0.002322
7.945000E-8	0.002531
7.950000E-8	0.002578
7.955000E-8	0.002653
7.960000E-8	0.002737
7.965000E-8	0.002806
7.970000E-8	0.002831
7.975000E-8	0.002963
7.980000E-8	0.002916
7.985000E-8	0.002853
7.990000E-8	0.002794
7.995000E-8	0.002766
8.000000E-8	0.002719
8.005000E-8	0.002609
8.010000E-8	0.002384
8.015000E-8	0.002353
8.020000E-8	0.002306
8.025000E-8	0.002203
8.030000E-8	0.002103
8.035000E-8	0.002044
8.040000E-8	0.002100
8.045000E-8	0.001984
8.050000E-8	0.001950
8.055000E-8	0.001994
8.060000E-8	0.001972
8.065000E-8	0.002094
8.070000E-8	0.002178
8.075000E-8	0.002413
8.080000E-8	0.002538
8.085000E-8	0.002725
8.090000E-8	0.002900
8.095000E-8	0.003128
8.100000E-8	0.003081
8.105000E-8	0.003184
8.110000E-8	0.003044
8.115000E-8	0.003019
8.120000E-8	0.002859
8.125000E-8	0.002856
8.130000E-8	0.002544
8.135000E-8	0.002516
8.140000E-8	0.002294
8.145000E-8	0.002022
8.150000E-8	0.001984
8.155000E-8	0.001931
8.160000E-8	0.001891
8.165000E-8	0.001937
8.170000E-8	0.001994
8.175000E-8	0.002075
8.180000E-8	0.002128
8.185000E-8	0.002231
8.190000E-8	0.002237
8.195000E-8	0.002300
8.200000E-8	0.002356
8.205000E-8	0.002453
8.210000E-8	0.002437
8.215000E-8	0.002469
8.220000E-8	0.002506
8.225000E-8	0.002628
8.230000E-8	0.002609
8.235000E-8	0.002713
8.240000E-8	0.002813
8.245000E-8	0.002828
8.250000E-8	0.002697
8.255000E-8	0.002609
8.260000E-8	0.002522
8.265000E-8	0.002359
8.270000E-8	0.002278
8.275000E-8	0.002150
8.280000E-8	0.002044
8.285000E-8	0.001934
8.290000E-8	0.001888
8.295000E-8	0.002000
8.300000E-8	0.002053
8.305000E-8	0.002144
8.310000E-8	0.002263
8.315000E-8	0.002559
8.320000E-8	0.002691
8.325000E-8	0.002978
8.330000E-8	0.003066
8.335000E-8	0.003162
8.340000E-8	0.003169
8.345000E-8	0.003184
8.350000E-8	0.003100
8.355000E-8	0.003169
8.360000E-8	0.003066
8.365000E-8	0.003109
8.370000E-8	0.002969
8.375000E-8	0.002884
8.380000E-8	0.002825
8.385000E-8	0.002666
8.390000E-8	0.002591
8.395000E-8	0.002553
8.400000E-8	0.002372
8.405000E-8	0.002391
8.410000E-8	0.002241
8.415000E-8	0.002253
8.420000E-8	0.002200
8.425000E-8	0.002200
8.430000E-8	0.002306
8.435000E-8	0.002266
8.440000E-8	0.002219
8.445000E-8	0.002403
8.450000E-8	0.002409
8.455000E-8	0.002578
8.460000E-8	0.002653
8.465000E-8	0.002703
8.470000E-8	0.002638
8.475000E-8	0.002725
8.480000E-8	0.002725
8.485000E-8	0.002709
8.490000E-8	0.002616
8.495000E-8	0.002638
8.500000E-8	0.002603
8.505000E-8	0.002744
8.510000E-8	0.002678
8.515000E-8	0.002797
8.520000E-8	0.002775
8.525000E-8	0.002688
8.530000E-8	0.002516
8.535000E-8	0.002494
8.540000E-8	0.002397
8.545000E-8	0.002366
8.550000E-8	0.002325
8.555000E-8	0.002297
8.560000E-8	0.002213
8.565000E-8	0.002313
8.570000E-8	0.002275
8.575000E-8	0.002294
8.580000E-8	0.002294
8.585000E-8	0.002459
8.590000E-8	0.002544
8.595000E-8	0.002578
8.600000E-8	0.002634
8.605000E-8	0.002722
8.610000E-8	0.002734
8.615000E-8	0.002697
8.620000E-8	0.002694
8.625000E-8	0.002672
8.630000E-8	0.002547
8.635000E-8	0.002591
8.640000E-8	0.002550
8.645000E-8	0.002556
8.650000E-8	0.002425
8.655000E-8	0.002491
8.660000E-8	0.002369
8.665000E-8	0.002425
8.670000E-8	0.002303
8.675000E-8	0.002297
8.680000E-8	0.002369
8.685000E-8	0.002388
8.690000E-8	0.002422
8.695000E-8	0.002556
8.700000E-8	0.002703
8.705000E-8	0.002888
8.710000E-8	0.002913
8.715000E-8	0.002978
8.720000E-8	0.003075
8.725000E-8	0.002978
8.730000E-8	0.002931
8.735000E-8	0.002931
8.740000E-8	0.002769
8.745000E-8	0.002828
8.750000E-8	0.002581
8.755000E-8	0.002631
8.760000E-8	0.002469
8.765000E-8	0.002341
8.770000E-8	0.002294
8.775000E-8	0.002250
8.780000E-8	0.002191
8.785000E-8	0.002303
8.790000E-8	0.002241
8.795000E-8	0.002356
8.800000E-8	0.002403
8.805000E-8	0.002509
8.810000E-8	0.002481
8.815000E-8	0.002584
8.820000E-8	0.002725
8.825000E-8	0.002753
8.830000E-8	0.002713
8.835000E-8	0.002678
8.840000E-8	0.002597
8.845000E-8	0.002600
8.850000E-8	0.002609
8.855000E-8	0.002650
8.860000E-8	0.002597
8.865000E-8	0.002622
8.870000E-8	0.002538
8.875000E-8	0.002713
8.880000E-8	0.002713
8.885000E-8	0.002719
8.890000E-8	0.002728
8.895000E-8	0.002662
8.900000E-8	0.002597
8.905000E-8	0.002581
8.910000E-8	0.002644
8.915000E-8	0.002538
8.920000E-8	0.002522
8.925000E-8	0.002581
8.930000E-8	0.002563
8.935000E-8	0.002741
8.940000E-8	0.002691
8.945000E-8	0.002684
8.950000E-8	0.002694
8.955000E-8	0.002847
8.960000E-8	0.002941
8.965000E-8	0.003075
8.970000E-8	0.003022
8.975000E-8	0.003150
8.980000E-8	0.003184
8.985000E-8	0.003209
8.990000E-8	0.003081
8.995000E-8	0.002988
9.000000E-8	0.002925
9.005000E-8	0.002872
9.010000E-8	0.002694
9.015000E-8	0.002603
9.020000E-8	0.002509
9.025000E-8	0.002491
9.030000E-8	0.002284
9.035000E-8	0.002266
9.040000E-8	0.002231
9.045000E-8	0.002206
9.050000E-8	0.002184
9.055000E-8	0.002153
9.060000E-8	0.002278
9.065000E-8	0.002456
9.070000E-8	0.002428
9.075000E-8	0.002587
9.080000E-8	0.002716
9.085000E-8	0.002856
9.090000E-8	0.002859
9.095000E-8	0.002975
9.100000E-8	0.002875
9.105000E-8	0.002766
9.110000E-8	0.002853
9.115000E-8	0.002931
9.120000E-8	0.002894
9.125000E-8	0.002672
9.130000E-8	0.002553
9.135000E-8	0.002603
9.140000E-8	0.002484
9.145000E-8	0.002544
9.150000E-8	0.002503
9.155000E-8	0.002503
9.160000E-8	0.002409
9.165000E-8	0.002453
9.170000E-8	0.002453
9.175000E-8	0.002509
9.180000E-8	0.002484
9.185000E-8	0.002484
9.190000E-8	0.002534
9.195000E-8	0.002594
9.200000E-8	0.002566
9.205000E-8	0.002791
9.210000E-8	0.002919
9.215000E-8	0.002891
9.220000E-8	0.002988
9.225000E-8	0.003059
9.230000E-8	0.003038
9.235000E-8	0.002938
9.240000E-8	0.002906
9.245000E-8	0.002953
9.250000E-8	0.002869
9.255000E-8	0.002859
9.260000E-8	0.002816
9.265000E-8	0.002688
9.270000E-8	0.002475
9.275000E-8	0.002503
9.280000E-8	0.002403
9.285000E-8	0.002472
9.290000E-8	0.002413
9.295000E-8	0.002366
9.300000E-8	0.002391
9.305000E-8	0.002313
9.310000E-8	0.002256
9.315000E-8	0.002394
9.320000E-8	0.002428
9.325000E-8	0.002394
9.330000E-8	0.002347
9.335000E-8	0.002459
9.340000E-8	0.002388
9.345000E-8	0.002406
9.350000E-8	0.002431
9.355000E-8	0.002553
9.360000E-8	0.002550
9.365000E-8	0.002659
9.370000E-8	0.002594
9.375000E-8	0.002659
9.380000E-8	0.002600
9.385000E-8	0.002700
9.390000E-8	0.002541
9.395000E-8	0.002378
9.400000E-8	0.002134
9.405000E-8	0.002047
9.410000E-8	0.001969
9.415000E-8	0.001984
9.420000E-8	0.001819
9.425000E-8	0.001800
9.430000E-8	0.001891
9.435000E-8	0.002022
9.440000E-8	0.002100
9.445000E-8	0.002344
9.450000E-8	0.002400
9.455000E-8	0.002538
9.460000E-8	0.002653
9.465000E-8	0.002797
9.470000E-8	0.002872
9.475000E-8	0.002928
9.480000E-8	0.002850
9.485000E-8	0.002822
9.490000E-8	0.002722
9.495000E-8	0.002731
9.500000E-8	0.002600
9.505000E-8	0.002497
9.510000E-8	0.002494
9.515000E-8	0.002356
9.520000E-8	0.002375
9.525000E-8	0.002431
9.530000E-8	0.002288
9.535000E-8	0.002306
9.540000E-8	0.002284
9.545000E-8	0.002447
9.550000E-8	0.002488
9.555000E-8	0.002559
9.560000E-8	0.002638
9.565000E-8	0.002756
9.570000E-8	0.002831
9.575000E-8	0.002869
9.580000E-8	0.002806
9.585000E-8	0.002919
9.590000E-8	0.002853
9.595000E-8	0.002813
9.600000E-8	0.002753
9.605000E-8	0.002769
9.610000E-8	0.002675
9.615000E-8	0.002725
9.620000E-8	0.002672
9.625000E-8	0.002753
9.630000E-8	0.002809
9.635000E-8	0.002744
9.640000E-8	0.002691
9.645000E-8	0.002737
9.650000E-8	0.002741
9.655000E-8	0.002653
9.660000E-8	0.002500
9.665000E-8	0.002509
9.670000E-8	0.002494
9.675000E-8	0.002441
9.680000E-8	0.002381
9.685000E-8	0.002403
9.690000E-8	0.002406
9.695000E-8	0.002359
9.700000E-8	0.002375
9.705000E-8	0.002491
9.710000E-8	0.002522
9.715000E-8	0.002556
9.720000E-8	0.002631
9.725000E-8	0.002631
9.730000E-8	0.002578
9.735000E-8	0.002666
9.740000E-8	0.002569
9.745000E-8	0.002597
9.750000E-8	0.002606
9.755000E-8	0.002453
9.760000E-8	0.002347
9.765000E-8	0.002434
9.770000E-8	0.002369
9.775000E-8	0.002472
9.780000E-8	0.002350
9.785000E-8	0.002372
9.790000E-8	0.002191
9.795000E-8	0.002191
9.800000E-8	0.002206
9.805000E-8	0.002244
9.810000E-8	0.002281
9.815000E-8	0.002416
9.820000E-8	0.002506
9.825000E-8	0.002641
9.830000E-8	0.002709
9.835000E-8	0.002859
9.840000E-8	0.002863
9.845000E-8	0.002875
9.850000E-8	0.002744
9.855000E-8	0.002641
9.860000E-8	0.002625
9.865000E-8	0.002563
9.870000E-8	0.002584
9.875000E-8	0.002553
9.880000E-8	0.002534
9.885000E-8	0.002591
9.890000E-8	0.002444
9.895000E-8	0.002509
9.900000E-8	0.002572
9.905000E-8	0.002556
9.910000E-8	0.002419
9.915000E-8	0.002469
9.920000E-8	0.002406
9.925000E-8	0.002469
9.930000E-8	0.002437
9.935000E-8	0.002353
9.940000E-8	0.002325
9.945000E-8	0.002397
9.950000E-8	0.002434
9.955000E-8	0.002400
9.960000E-8	0.002466
9.965000E-8	0.002469
9.970000E-8	0.002531
9.975000E-8	0.002587
9.980000E-8	0.002569
9.985000E-8	0.002641
9.990000E-8	0.002666
9.995000E-8	0.002644
