LabVIEW Measurement	
Writer_Version	2
Reader_Version	2
Separator	Tab
Decimal_Separator	.
Multi_Headings	No
X_Columns	Multi
Time_Pref	Relative
Operator	TG lab
Date	2015/03/06
Time	18:48:52.981517791748046875
***End_of_Header***	
	
Channels	1	
Samples	2000	
Date	1903/12/31	
Time	19:00:00	
X_Dimension	Time	
X0	0.0000000000000000E+0	
Delta_X	5.000000E-11	
***End_of_Header***		
X_Value	Untitled	Comment
0.000000	0.001894
5.000000E-11	0.002038
1.000000E-10	0.002116
1.500000E-10	0.002119
2.000000E-10	0.002156
2.500000E-10	0.002222
3.000000E-10	0.002281
3.500000E-10	0.002359
4.000000E-10	0.002219
4.500000E-10	0.002237
5.000000E-10	0.002241
5.500000E-10	0.002122
6.000000E-10	0.002006
6.500000E-10	0.002047
7.000000E-10	0.001956
7.500000E-10	0.001928
8.000000E-10	0.001859
8.500000E-10	0.001937
9.000000E-10	0.001881
9.500000E-10	0.002081
1.000000E-9	0.002097
1.050000E-9	0.002241
1.100000E-9	0.002338
1.150000E-9	0.002456
1.200000E-9	0.002441
1.250000E-9	0.002447
1.300000E-9	0.002522
1.350000E-9	0.002509
1.400000E-9	0.002437
1.450000E-9	0.002478
1.500000E-9	0.002450
1.550000E-9	0.002437
1.600000E-9	0.002481
1.650000E-9	0.002519
1.700000E-9	0.002384
1.750000E-9	0.002534
1.800000E-9	0.002584
1.850000E-9	0.002591
1.900000E-9	0.002481
1.950000E-9	0.002481
2.000000E-9	0.002456
2.050000E-9	0.002512
2.100000E-9	0.002478
2.150000E-9	0.002584
2.200000E-9	0.002584
2.250000E-9	0.002688
2.300000E-9	0.002638
2.350000E-9	0.002750
2.400000E-9	0.002672
2.450000E-9	0.002716
2.500000E-9	0.002688
2.550000E-9	0.002713
2.600000E-9	0.002759
2.650000E-9	0.002813
2.700000E-9	0.002763
2.750000E-9	0.002788
2.800000E-9	0.002753
2.850000E-9	0.002847
2.900000E-9	0.002766
2.950000E-9	0.002759
3.000000E-9	0.002781
3.050000E-9	0.002778
3.100000E-9	0.002678
3.150000E-9	0.002741
3.200000E-9	0.002650
3.250000E-9	0.002747
3.300000E-9	0.002688
3.350000E-9	0.002788
3.400000E-9	0.002866
3.450000E-9	0.002806
3.500000E-9	0.002841
3.550000E-9	0.003028
3.600000E-9	0.003084
3.650000E-9	0.003147
3.700000E-9	0.003162
3.750000E-9	0.003213
3.800000E-9	0.003106
3.850000E-9	0.003228
3.900000E-9	0.003194
3.950000E-9	0.003313
4.000000E-9	0.003344
4.050000E-9	0.003472
4.100000E-9	0.003516
4.150000E-9	0.003788
4.200000E-9	0.004009
4.250000E-9	0.004378
4.300000E-9	0.004669
4.350000E-9	0.005031
4.400000E-9	0.005291
4.450000E-9	0.005831
4.500000E-9	0.006194
4.550000E-9	0.006759
4.600000E-9	0.007181
4.650000E-9	0.007825
4.700000E-9	0.008375
4.750000E-9	0.009225
4.800000E-9	0.009966
4.850000E-9	0.011012
4.900000E-9	0.012034
4.950000E-9	0.013409
5.000000E-9	0.014700
5.050000E-9	0.016262
5.100000E-9	0.017925
5.150000E-9	0.019616
5.200000E-9	0.021194
5.250000E-9	0.022966
5.300000E-9	0.024519
5.350000E-9	0.025959
5.400000E-9	0.027138
5.450000E-9	0.028247
5.500000E-9	0.029056
5.550000E-9	0.029759
5.600000E-9	0.030109
5.650000E-9	0.030241
5.700000E-9	0.030166
5.750000E-9	0.029875
5.800000E-9	0.029206
5.850000E-9	0.028344
5.900000E-9	0.027059
5.950000E-9	0.025578
6.000000E-9	0.024044
6.050000E-9	0.022450
6.100000E-9	0.020894
6.150000E-9	0.019475
6.200000E-9	0.018234
6.250000E-9	0.017325
6.300000E-9	0.016609
6.350000E-9	0.016525
6.400000E-9	0.016506
6.450000E-9	0.016997
6.500000E-9	0.017569
6.550000E-9	0.018247
6.600000E-9	0.018944
6.650000E-9	0.019638
6.700000E-9	0.020200
6.750000E-9	0.020734
6.800000E-9	0.020900
6.850000E-9	0.021031
6.900000E-9	0.020963
6.950000E-9	0.020738
7.000000E-9	0.020213
7.050000E-9	0.019603
7.100000E-9	0.018697
7.150000E-9	0.017766
7.200000E-9	0.016688
7.250000E-9	0.015666
7.300000E-9	0.014566
7.350000E-9	0.013656
7.400000E-9	0.012625
7.450000E-9	0.011809
7.500000E-9	0.011256
7.550000E-9	0.010856
7.600000E-9	0.010537
7.650000E-9	0.010691
7.700000E-9	0.010831
7.750000E-9	0.011325
7.800000E-9	0.011950
7.850000E-9	0.012575
7.900000E-9	0.013278
7.950000E-9	0.014156
8.000000E-9	0.014884
8.050000E-9	0.015434
8.100000E-9	0.015847
8.150000E-9	0.016128
8.200000E-9	0.015912
8.250000E-9	0.015781
8.300000E-9	0.015238
8.350000E-9	0.014600
8.400000E-9	0.013663
8.450000E-9	0.012663
8.500000E-9	0.011575
8.550000E-9	0.010531
8.600000E-9	0.009478
8.650000E-9	0.008675
8.700000E-9	0.007766
8.750000E-9	0.007175
8.800000E-9	0.006653
8.850000E-9	0.006534
8.900000E-9	0.006419
8.950000E-9	0.006681
9.000000E-9	0.007150
9.050000E-9	0.007691
9.100000E-9	0.008431
9.150000E-9	0.009397
9.200000E-9	0.010138
9.250000E-9	0.010922
9.300000E-9	0.011422
9.350000E-9	0.012006
9.400000E-9	0.012294
9.450000E-9	0.012356
9.500000E-9	0.012247
9.550000E-9	0.011847
9.600000E-9	0.011269
9.650000E-9	0.010522
9.700000E-9	0.009569
9.750000E-9	0.008694
9.800000E-9	0.007703
9.850000E-9	0.006741
9.900000E-9	0.005716
9.950000E-9	0.005094
1.000000E-8	0.004422
1.005000E-8	0.004100
1.010000E-8	0.003931
1.015000E-8	0.003981
1.020000E-8	0.004272
1.025000E-8	0.004894
1.030000E-8	0.005484
1.035000E-8	0.006359
1.040000E-8	0.007075
1.045000E-8	0.007969
1.050000E-8	0.008766
1.055000E-8	0.009441
1.060000E-8	0.010009
1.065000E-8	0.010419
1.070000E-8	0.010550
1.075000E-8	0.010359
1.080000E-8	0.010050
1.085000E-8	0.009616
1.090000E-8	0.008809
1.095000E-8	0.007888
1.100000E-8	0.006966
1.105000E-8	0.006075
1.110000E-8	0.005000
1.115000E-8	0.004256
1.120000E-8	0.003397
1.125000E-8	0.002881
1.130000E-8	0.002478
1.135000E-8	0.002359
1.140000E-8	0.002497
1.145000E-8	0.002884
1.150000E-8	0.003353
1.155000E-8	0.004122
1.160000E-8	0.004888
1.165000E-8	0.005656
1.170000E-8	0.006338
1.175000E-8	0.007103
1.180000E-8	0.007784
1.185000E-8	0.008347
1.190000E-8	0.008559
1.195000E-8	0.008781
1.200000E-8	0.008628
1.205000E-8	0.008297
1.210000E-8	0.007775
1.215000E-8	0.007241
1.220000E-8	0.006491
1.225000E-8	0.005716
1.230000E-8	0.004744
1.235000E-8	0.003888
1.240000E-8	0.003087
1.245000E-8	0.002381
1.250000E-8	0.001719
1.255000E-8	0.001341
1.260000E-8	0.001163
1.265000E-8	0.001294
1.270000E-8	0.001475
1.275000E-8	0.002084
1.280000E-8	0.002719
1.285000E-8	0.003625
1.290000E-8	0.004469
1.295000E-8	0.005384
1.300000E-8	0.006163
1.305000E-8	0.006944
1.310000E-8	0.007459
1.315000E-8	0.007934
1.320000E-8	0.008091
1.325000E-8	0.007972
1.330000E-8	0.007653
1.335000E-8	0.007225
1.340000E-8	0.006459
1.345000E-8	0.005766
1.350000E-8	0.004931
1.355000E-8	0.004078
1.360000E-8	0.003153
1.365000E-8	0.002434
1.370000E-8	0.001841
1.375000E-8	0.001422
1.380000E-8	0.001134
1.385000E-8	0.001122
1.390000E-8	0.001106
1.395000E-8	0.001569
1.400000E-8	0.002012
1.405000E-8	0.002609
1.410000E-8	0.003325
1.415000E-8	0.004025
1.420000E-8	0.004706
1.425000E-8	0.005544
1.430000E-8	0.006053
1.435000E-8	0.006453
1.440000E-8	0.006797
1.445000E-8	0.006944
1.450000E-8	0.006778
1.455000E-8	0.006475
1.460000E-8	0.006006
1.465000E-8	0.005428
1.470000E-8	0.004781
1.475000E-8	0.004025
1.480000E-8	0.003244
1.485000E-8	0.002463
1.490000E-8	0.001644
1.495000E-8	0.001097
1.500000E-8	0.000594
1.505000E-8	0.000381
1.510000E-8	0.000119
1.515000E-8	0.000287
1.520000E-8	0.000419
1.525000E-8	0.000859
1.530000E-8	0.001413
1.535000E-8	0.002213
1.540000E-8	0.002903
1.545000E-8	0.003797
1.550000E-8	0.004613
1.555000E-8	0.005425
1.560000E-8	0.005875
1.565000E-8	0.006253
1.570000E-8	0.006453
1.575000E-8	0.006419
1.580000E-8	0.006134
1.585000E-8	0.005819
1.590000E-8	0.005153
1.595000E-8	0.004531
1.600000E-8	0.003772
1.605000E-8	0.003006
1.610000E-8	0.002141
1.615000E-8	0.001494
1.620000E-8	0.000938
1.625000E-8	0.000612
1.630000E-8	0.000259
1.635000E-8	0.000284
1.640000E-8	0.000331
1.645000E-8	0.000753
1.650000E-8	0.001100
1.655000E-8	0.001722
1.660000E-8	0.002200
1.665000E-8	0.002984
1.670000E-8	0.003784
1.675000E-8	0.004541
1.680000E-8	0.005047
1.685000E-8	0.005728
1.690000E-8	0.006003
1.695000E-8	0.006253
1.700000E-8	0.006216
1.705000E-8	0.006106
1.710000E-8	0.005694
1.715000E-8	0.005206
1.720000E-8	0.004497
1.725000E-8	0.003769
1.730000E-8	0.002934
1.735000E-8	0.002228
1.740000E-8	0.001388
1.745000E-8	0.000759
1.750000E-8	0.000384
1.755000E-8	-6.875000E-5
1.760000E-8	-0.000222
1.765000E-8	-0.000169
1.770000E-8	-0.000163
1.775000E-8	0.000237
1.780000E-8	0.000756
1.785000E-8	0.001491
1.790000E-8	0.002194
1.795000E-8	0.003081
1.800000E-8	0.003691
1.805000E-8	0.004313
1.810000E-8	0.004819
1.815000E-8	0.005291
1.820000E-8	0.005469
1.825000E-8	0.005584
1.830000E-8	0.005259
1.835000E-8	0.004891
1.840000E-8	0.004294
1.845000E-8	0.003750
1.850000E-8	0.003022
1.855000E-8	0.002250
1.860000E-8	0.001578
1.865000E-8	0.000916
1.870000E-8	0.000359
1.875000E-8	-7.187500E-5
1.880000E-8	-0.000325
1.885000E-8	-0.000412
1.890000E-8	-0.000294
1.895000E-8	-7.812500E-5
1.900000E-8	0.000138
1.905000E-8	0.000737
1.910000E-8	0.001325
1.915000E-8	0.002113
1.920000E-8	0.002747
1.925000E-8	0.003587
1.930000E-8	0.004200
1.935000E-8	0.004800
1.940000E-8	0.005247
1.945000E-8	0.005516
1.950000E-8	0.005613
1.955000E-8	0.005584
1.960000E-8	0.005138
1.965000E-8	0.004588
1.970000E-8	0.003981
1.975000E-8	0.003281
1.980000E-8	0.002372
1.985000E-8	0.001716
1.990000E-8	0.000928
1.995000E-8	0.000369
2.000000E-8	-0.000131
2.005000E-8	-0.000369
2.010000E-8	-0.000537
2.015000E-8	-0.000244
2.020000E-8	-9.062500E-5
2.025000E-8	0.000419
2.030000E-8	0.000953
2.035000E-8	0.001500
2.040000E-8	0.002034
2.045000E-8	0.002713
2.050000E-8	0.003278
2.055000E-8	0.003897
2.060000E-8	0.004353
2.065000E-8	0.004713
2.070000E-8	0.004916
2.075000E-8	0.004962
2.080000E-8	0.004847
2.085000E-8	0.004581
2.090000E-8	0.004112
2.095000E-8	0.003566
2.100000E-8	0.002913
2.105000E-8	0.002338
2.110000E-8	0.001522
2.115000E-8	0.000894
2.120000E-8	0.000241
2.125000E-8	-1.562500E-5
2.130000E-8	-0.000328
2.135000E-8	-0.000428
2.140000E-8	-0.000247
2.145000E-8	0.000000
2.150000E-8	0.000266
2.155000E-8	0.000772
2.160000E-8	0.001472
2.165000E-8	0.002044
2.170000E-8	0.002716
2.175000E-8	0.003416
2.180000E-8	0.003997
2.185000E-8	0.004522
2.190000E-8	0.004759
2.195000E-8	0.004988
2.200000E-8	0.004931
2.205000E-8	0.004916
2.210000E-8	0.004600
2.215000E-8	0.004131
2.220000E-8	0.003531
2.225000E-8	0.002922
2.230000E-8	0.002256
2.235000E-8	0.001575
2.240000E-8	0.000969
2.245000E-8	0.000459
2.250000E-8	7.812500E-5
2.255000E-8	-0.000281
2.260000E-8	-0.000434
2.265000E-8	-0.000363
2.270000E-8	-6.250000E-5
2.275000E-8	0.000306
2.280000E-8	0.000763
2.285000E-8	0.001244
2.290000E-8	0.001791
2.295000E-8	0.002453
2.300000E-8	0.003028
2.305000E-8	0.003547
2.310000E-8	0.003875
2.315000E-8	0.004331
2.320000E-8	0.004409
2.325000E-8	0.004494
2.330000E-8	0.004338
2.335000E-8	0.004209
2.340000E-8	0.003825
2.345000E-8	0.003300
2.350000E-8	0.002719
2.355000E-8	0.002141
2.360000E-8	0.001472
2.365000E-8	0.000972
2.370000E-8	0.000356
2.375000E-8	4.687500E-5
2.380000E-8	-0.000194
2.385000E-8	-0.000250
2.390000E-8	-0.000269
2.395000E-8	-0.000131
2.400000E-8	0.000156
2.405000E-8	0.000647
2.410000E-8	0.001078
2.415000E-8	0.001681
2.420000E-8	0.002294
2.425000E-8	0.002859
2.430000E-8	0.003338
2.435000E-8	0.003769
2.440000E-8	0.004050
2.445000E-8	0.004262
2.450000E-8	0.004303
2.455000E-8	0.004272
2.460000E-8	0.004019
2.465000E-8	0.003794
2.470000E-8	0.003303
2.475000E-8	0.002928
2.480000E-8	0.002328
2.485000E-8	0.001722
2.490000E-8	0.001116
2.495000E-8	0.000744
2.500000E-8	0.000222
2.505000E-8	2.812500E-5
2.510000E-8	-0.000125
2.515000E-8	-9.062500E-5
2.520000E-8	5.625000E-5
2.525000E-8	0.000275
2.530000E-8	0.000719
2.535000E-8	0.001213
2.540000E-8	0.001809
2.545000E-8	0.002447
2.550000E-8	0.002875
2.555000E-8	0.003381
2.560000E-8	0.003797
2.565000E-8	0.004225
2.570000E-8	0.004347
2.575000E-8	0.004534
2.580000E-8	0.004409
2.585000E-8	0.004128
2.590000E-8	0.003800
2.595000E-8	0.003453
2.600000E-8	0.002853
2.605000E-8	0.002209
2.610000E-8	0.001550
2.615000E-8	0.001031
2.620000E-8	0.000563
2.625000E-8	0.000184
2.630000E-8	-0.000178
2.635000E-8	-0.000175
2.640000E-8	-0.000256
2.645000E-8	-7.187500E-5
2.650000E-8	0.000328
2.655000E-8	0.000769
2.660000E-8	0.001244
2.665000E-8	0.001863
2.670000E-8	0.002447
2.675000E-8	0.003106
2.680000E-8	0.003500
2.685000E-8	0.003972
2.690000E-8	0.004181
2.695000E-8	0.004347
2.700000E-8	0.004403
2.705000E-8	0.004406
2.710000E-8	0.004209
2.715000E-8	0.003962
2.720000E-8	0.003459
2.725000E-8	0.002903
2.730000E-8	0.002322
2.735000E-8	0.001803
2.740000E-8	0.001187
2.745000E-8	0.000753
2.750000E-8	0.000441
2.755000E-8	0.000241
2.760000E-8	-2.812500E-5
2.765000E-8	5.937500E-5
2.770000E-8	0.000231
2.775000E-8	0.000563
2.780000E-8	0.000959
2.785000E-8	0.001334
2.790000E-8	0.001859
2.795000E-8	0.002384
2.800000E-8	0.002800
2.805000E-8	0.003356
2.810000E-8	0.003772
2.815000E-8	0.004100
2.820000E-8	0.004281
2.825000E-8	0.004419
2.830000E-8	0.004484
2.835000E-8	0.004253
2.840000E-8	0.003906
2.845000E-8	0.003569
2.850000E-8	0.003041
2.855000E-8	0.002713
2.860000E-8	0.002097
2.865000E-8	0.001569
2.870000E-8	0.001006
2.875000E-8	0.000650
2.880000E-8	0.000213
2.885000E-8	5.937500E-5
2.890000E-8	-1.250000E-5
2.895000E-8	0.000172
2.900000E-8	0.000394
2.905000E-8	0.000816
2.910000E-8	0.001041
2.915000E-8	0.001691
2.920000E-8	0.002138
2.925000E-8	0.002775
2.930000E-8	0.003272
2.935000E-8	0.003697
2.940000E-8	0.004078
2.945000E-8	0.004309
2.950000E-8	0.004366
2.955000E-8	0.004322
2.960000E-8	0.004119
2.965000E-8	0.003697
2.970000E-8	0.003288
2.975000E-8	0.002781
2.980000E-8	0.002278
2.985000E-8	0.001913
2.990000E-8	0.001369
2.995000E-8	0.000863
3.000000E-8	0.000409
3.005000E-8	4.687500E-5
3.010000E-8	-9.375000E-5
3.015000E-8	-5.937500E-5
3.020000E-8	-5.625000E-5
3.025000E-8	0.000259
3.030000E-8	0.000528
3.035000E-8	0.000963
3.040000E-8	0.001494
3.045000E-8	0.002016
3.050000E-8	0.002528
3.055000E-8	0.003156
3.060000E-8	0.003500
3.065000E-8	0.003834
3.070000E-8	0.003997
3.075000E-8	0.004150
3.080000E-8	0.003991
3.085000E-8	0.003847
3.090000E-8	0.003619
3.095000E-8	0.003291
3.100000E-8	0.002884
3.105000E-8	0.002503
3.110000E-8	0.002063
3.115000E-8	0.001663
3.120000E-8	0.001250
3.125000E-8	0.000897
3.130000E-8	0.000688
3.135000E-8	0.000463
3.140000E-8	0.000316
3.145000E-8	0.000431
3.150000E-8	0.000647
3.155000E-8	0.000934
3.160000E-8	0.001166
3.165000E-8	0.001656
3.170000E-8	0.002053
3.175000E-8	0.002666
3.180000E-8	0.003078
3.185000E-8	0.003556
3.190000E-8	0.003744
3.195000E-8	0.004009
3.200000E-8	0.004097
3.205000E-8	0.004094
3.210000E-8	0.003994
3.215000E-8	0.003747
3.220000E-8	0.003297
3.225000E-8	0.002909
3.230000E-8	0.002441
3.235000E-8	0.001953
3.240000E-8	0.001409
3.245000E-8	0.001012
3.250000E-8	0.000534
3.255000E-8	0.000313
3.260000E-8	0.000134
3.265000E-8	9.687500E-5
3.270000E-8	0.000122
3.275000E-8	0.000272
3.280000E-8	0.000563
3.285000E-8	0.000978
3.290000E-8	0.001391
3.295000E-8	0.001916
3.300000E-8	0.002281
3.305000E-8	0.002662
3.310000E-8	0.003019
3.315000E-8	0.003506
3.320000E-8	0.003653
3.325000E-8	0.003841
3.330000E-8	0.003681
3.335000E-8	0.003616
3.340000E-8	0.003409
3.345000E-8	0.003225
3.350000E-8	0.002919
3.355000E-8	0.002500
3.360000E-8	0.002022
3.365000E-8	0.001619
3.370000E-8	0.001119
3.375000E-8	0.000747
3.380000E-8	0.000397
3.385000E-8	0.000341
3.390000E-8	0.000234
3.395000E-8	0.000328
3.400000E-8	0.000306
3.405000E-8	0.000584
3.410000E-8	0.000894
3.415000E-8	0.001397
3.420000E-8	0.001706
3.425000E-8	0.002194
3.430000E-8	0.002594
3.435000E-8	0.003162
3.440000E-8	0.003512
3.445000E-8	0.003863
3.450000E-8	0.004044
3.455000E-8	0.004169
3.460000E-8	0.003969
3.465000E-8	0.003738
3.470000E-8	0.003431
3.475000E-8	0.003169
3.480000E-8	0.002766
3.485000E-8	0.002328
3.490000E-8	0.001809
3.495000E-8	0.001391
3.500000E-8	0.000956
3.505000E-8	0.000778
3.510000E-8	0.000491
3.515000E-8	0.000422
3.520000E-8	0.000469
3.525000E-8	0.000569
3.530000E-8	0.000747
3.535000E-8	0.000988
3.540000E-8	0.001209
3.545000E-8	0.001703
3.550000E-8	0.002147
3.555000E-8	0.002594
3.560000E-8	0.002966
3.565000E-8	0.003366
3.570000E-8	0.003594
3.575000E-8	0.003803
3.580000E-8	0.003775
3.585000E-8	0.003744
3.590000E-8	0.003572
3.595000E-8	0.003356
3.600000E-8	0.002916
3.605000E-8	0.002616
3.610000E-8	0.002166
3.615000E-8	0.001891
3.620000E-8	0.001541
3.625000E-8	0.001209
3.630000E-8	0.000819
3.635000E-8	0.000728
3.640000E-8	0.000641
3.645000E-8	0.000556
3.650000E-8	0.000634
3.655000E-8	0.000781
3.660000E-8	0.000997
3.665000E-8	0.001400
3.670000E-8	0.001722
3.675000E-8	0.002181
3.680000E-8	0.002556
3.685000E-8	0.002941
3.690000E-8	0.003191
3.695000E-8	0.003506
3.700000E-8	0.003519
3.705000E-8	0.003647
3.710000E-8	0.003447
3.715000E-8	0.003372
3.720000E-8	0.003056
3.725000E-8	0.002794
3.730000E-8	0.002244
3.735000E-8	0.001934
3.740000E-8	0.001581
3.745000E-8	0.001313
3.750000E-8	0.000938
3.755000E-8	0.000872
3.760000E-8	0.000603
3.765000E-8	0.000616
3.770000E-8	0.000697
3.775000E-8	0.000956
3.780000E-8	0.001066
3.785000E-8	0.001441
3.790000E-8	0.001563
3.795000E-8	0.001991
3.800000E-8	0.002322
3.805000E-8	0.002744
3.810000E-8	0.003022
3.815000E-8	0.003422
3.820000E-8	0.003497
3.825000E-8	0.003609
3.830000E-8	0.003691
3.835000E-8	0.003772
3.840000E-8	0.003528
3.845000E-8	0.003331
3.850000E-8	0.002934
3.855000E-8	0.002572
3.860000E-8	0.002128
3.865000E-8	0.001844
3.870000E-8	0.001425
3.875000E-8	0.001128
3.880000E-8	0.000881
3.885000E-8	0.000744
3.890000E-8	0.000709
3.895000E-8	0.000856
3.900000E-8	0.000863
3.905000E-8	0.001131
3.910000E-8	0.001328
3.915000E-8	0.001728
3.920000E-8	0.002106
3.925000E-8	0.002459
3.930000E-8	0.002775
3.935000E-8	0.003172
3.940000E-8	0.003350
3.945000E-8	0.003491
3.950000E-8	0.003553
3.955000E-8	0.003644
3.960000E-8	0.003447
3.965000E-8	0.003331
3.970000E-8	0.002963
3.975000E-8	0.002800
3.980000E-8	0.002338
3.985000E-8	0.001931
3.990000E-8	0.001538
3.995000E-8	0.001331
4.000000E-8	0.000944
4.005000E-8	0.000750
4.010000E-8	0.000469
4.015000E-8	0.000463
4.020000E-8	0.000350
4.025000E-8	0.000566
4.030000E-8	0.000769
4.035000E-8	0.001053
4.040000E-8	0.001372
4.045000E-8	0.001894
4.050000E-8	0.002203
4.055000E-8	0.002581
4.060000E-8	0.002959
4.065000E-8	0.003334
4.070000E-8	0.003459
4.075000E-8	0.003641
4.080000E-8	0.003516
4.085000E-8	0.003603
4.090000E-8	0.003466
4.095000E-8	0.003244
4.100000E-8	0.002869
4.105000E-8	0.002609
4.110000E-8	0.002237
4.115000E-8	0.002031
4.120000E-8	0.001656
4.125000E-8	0.001397
4.130000E-8	0.001088
4.135000E-8	0.001019
4.140000E-8	0.000813
4.145000E-8	0.000772
4.150000E-8	0.000806
4.155000E-8	0.000963
4.160000E-8	0.001069
4.165000E-8	0.001478
4.170000E-8	0.001663
4.175000E-8	0.002009
4.180000E-8	0.002266
4.185000E-8	0.002603
4.190000E-8	0.002903
4.195000E-8	0.003134
4.200000E-8	0.003181
4.205000E-8	0.003281
4.210000E-8	0.003213
4.215000E-8	0.003188
4.220000E-8	0.003012
4.225000E-8	0.002838
4.230000E-8	0.002450
4.235000E-8	0.002109
4.240000E-8	0.001891
4.245000E-8	0.001491
4.250000E-8	0.001166
4.255000E-8	0.001097
4.260000E-8	0.000853
4.265000E-8	0.000841
4.270000E-8	0.000672
4.275000E-8	0.000856
4.280000E-8	0.000913
4.285000E-8	0.001284
4.290000E-8	0.001497
4.295000E-8	0.001853
4.300000E-8	0.002022
4.305000E-8	0.002322
4.310000E-8	0.002753
4.315000E-8	0.003034
4.320000E-8	0.003053
4.325000E-8	0.003219
4.330000E-8	0.003184
4.335000E-8	0.003303
4.340000E-8	0.003122
4.345000E-8	0.003016
4.350000E-8	0.002838
4.355000E-8	0.002553
4.360000E-8	0.002159
4.365000E-8	0.001941
4.370000E-8	0.001591
4.375000E-8	0.001444
4.380000E-8	0.001153
4.385000E-8	0.001059
4.390000E-8	0.000878
4.395000E-8	0.000925
4.400000E-8	0.000947
4.405000E-8	0.001109
4.410000E-8	0.001159
4.415000E-8	0.001469
4.420000E-8	0.001653
4.425000E-8	0.002063
4.430000E-8	0.002347
4.435000E-8	0.002600
4.440000E-8	0.002822
4.445000E-8	0.003116
4.450000E-8	0.003122
4.455000E-8	0.003284
4.460000E-8	0.003334
4.465000E-8	0.003325
4.470000E-8	0.003219
4.475000E-8	0.003019
4.480000E-8	0.002763
4.485000E-8	0.002534
4.490000E-8	0.002172
4.495000E-8	0.001878
4.500000E-8	0.001559
4.505000E-8	0.001275
4.510000E-8	0.000931
4.515000E-8	0.000819
4.520000E-8	0.000625
4.525000E-8	0.000734
4.530000E-8	0.000744
4.535000E-8	0.001028
4.540000E-8	0.001238
4.545000E-8	0.001472
4.550000E-8	0.001694
4.555000E-8	0.002087
4.560000E-8	0.002391
4.565000E-8	0.002706
4.570000E-8	0.002791
4.575000E-8	0.003063
4.580000E-8	0.003141
4.585000E-8	0.003147
4.590000E-8	0.003075
4.595000E-8	0.003109
4.600000E-8	0.002944
4.605000E-8	0.002638
4.610000E-8	0.002466
4.615000E-8	0.002087
4.620000E-8	0.001819
4.625000E-8	0.001716
4.630000E-8	0.001441
4.635000E-8	0.001319
4.640000E-8	0.001156
4.645000E-8	0.001006
4.650000E-8	0.001059
4.655000E-8	0.001112
4.660000E-8	0.001116
4.665000E-8	0.001300
4.670000E-8	0.001481
4.675000E-8	0.001903
4.680000E-8	0.002178
4.685000E-8	0.002491
4.690000E-8	0.002728
4.695000E-8	0.002978
4.700000E-8	0.003144
4.705000E-8	0.003228
4.710000E-8	0.003147
4.715000E-8	0.003228
4.720000E-8	0.003034
4.725000E-8	0.002869
4.730000E-8	0.002600
4.735000E-8	0.002547
4.740000E-8	0.002253
4.745000E-8	0.002022
4.750000E-8	0.001700
4.755000E-8	0.001378
4.760000E-8	0.001138
4.765000E-8	0.001019
4.770000E-8	0.000859
4.775000E-8	0.001003
4.780000E-8	0.000900
4.785000E-8	0.001166
4.790000E-8	0.001247
4.795000E-8	0.001503
4.800000E-8	0.001725
4.805000E-8	0.002081
4.810000E-8	0.002253
4.815000E-8	0.002578
4.820000E-8	0.002825
4.825000E-8	0.002916
4.830000E-8	0.002997
4.835000E-8	0.003034
4.840000E-8	0.003009
4.845000E-8	0.003022
4.850000E-8	0.002841
4.855000E-8	0.002741
4.860000E-8	0.002491
4.865000E-8	0.002338
4.870000E-8	0.001922
4.875000E-8	0.001806
4.880000E-8	0.001450
4.885000E-8	0.001353
4.890000E-8	0.001131
4.895000E-8	0.001106
4.900000E-8	0.001038
4.905000E-8	0.001234
4.910000E-8	0.001431
4.915000E-8	0.001663
4.920000E-8	0.001888
4.925000E-8	0.002341
4.930000E-8	0.002581
4.935000E-8	0.002878
4.940000E-8	0.003119
4.945000E-8	0.003484
4.950000E-8	0.003503
4.955000E-8	0.003594
4.960000E-8	0.003441
4.965000E-8	0.003344
4.970000E-8	0.003206
4.975000E-8	0.002906
4.980000E-8	0.002516
4.985000E-8	0.002266
4.990000E-8	0.001969
4.995000E-8	0.001722
5.000000E-8	0.001378
5.005000E-8	0.001253
5.010000E-8	0.001166
5.015000E-8	0.001163
5.020000E-8	0.001025
5.025000E-8	0.001131
5.030000E-8	0.001050
5.035000E-8	0.001272
5.040000E-8	0.001359
5.045000E-8	0.001488
5.050000E-8	0.001538
5.055000E-8	0.001884
5.060000E-8	0.002044
5.065000E-8	0.002266
5.070000E-8	0.002516
5.075000E-8	0.002719
5.080000E-8	0.002703
5.085000E-8	0.002872
5.090000E-8	0.002931
5.095000E-8	0.002844
5.100000E-8	0.002631
5.105000E-8	0.002472
5.110000E-8	0.002138
5.115000E-8	0.001978
5.120000E-8	0.001638
5.125000E-8	0.001388
5.130000E-8	0.001144
5.135000E-8	0.001181
5.140000E-8	0.000928
5.145000E-8	0.001019
5.150000E-8	0.001025
5.155000E-8	0.001181
5.160000E-8	0.001294
5.165000E-8	0.001672
5.170000E-8	0.001825
5.175000E-8	0.002022
5.180000E-8	0.002272
5.185000E-8	0.002631
5.190000E-8	0.002681
5.195000E-8	0.002828
5.200000E-8	0.003053
5.205000E-8	0.003128
5.210000E-8	0.003050
5.215000E-8	0.003019
5.220000E-8	0.002856
5.225000E-8	0.002603
5.230000E-8	0.002306
5.235000E-8	0.002150
5.240000E-8	0.001931
5.245000E-8	0.001734
5.250000E-8	0.001544
5.255000E-8	0.001422
5.260000E-8	0.001322
5.265000E-8	0.001291
5.270000E-8	0.001306
5.275000E-8	0.001284
5.280000E-8	0.001141
5.285000E-8	0.001306
5.290000E-8	0.001322
5.295000E-8	0.001428
5.300000E-8	0.001516
5.305000E-8	0.001825
5.310000E-8	0.002078
5.315000E-8	0.002341
5.320000E-8	0.002519
5.325000E-8	0.002728
5.330000E-8	0.002791
5.335000E-8	0.002903
5.340000E-8	0.002850
5.345000E-8	0.002737
5.350000E-8	0.002503
5.355000E-8	0.002297
5.360000E-8	0.001978
5.365000E-8	0.001828
5.370000E-8	0.001600
5.375000E-8	0.001441
5.380000E-8	0.001209
5.385000E-8	0.001128
5.390000E-8	0.001016
5.395000E-8	0.000988
5.400000E-8	0.000925
5.405000E-8	0.000988
5.410000E-8	0.001187
5.415000E-8	0.001366
5.420000E-8	0.001466
5.425000E-8	0.001759
5.430000E-8	0.001919
5.435000E-8	0.002269
5.440000E-8	0.002547
5.445000E-8	0.002691
5.450000E-8	0.002797
5.455000E-8	0.002950
5.460000E-8	0.002953
5.465000E-8	0.002813
5.470000E-8	0.002591
5.475000E-8	0.002563
5.480000E-8	0.002325
5.485000E-8	0.002147
5.490000E-8	0.001931
5.495000E-8	0.001672
5.500000E-8	0.001344
5.505000E-8	0.001213
5.510000E-8	0.001063
5.515000E-8	0.001047
5.520000E-8	0.000944
5.525000E-8	0.001028
5.530000E-8	0.000991
5.535000E-8	0.001112
5.540000E-8	0.001256
5.545000E-8	0.001453
5.550000E-8	0.001653
5.555000E-8	0.002028
5.560000E-8	0.002297
5.565000E-8	0.002484
5.570000E-8	0.002822
5.575000E-8	0.003025
5.580000E-8	0.002984
5.585000E-8	0.003091
5.590000E-8	0.003100
5.595000E-8	0.003038
5.600000E-8	0.002844
5.605000E-8	0.002688
5.610000E-8	0.002434
5.615000E-8	0.002247
5.620000E-8	0.002050
5.625000E-8	0.001756
5.630000E-8	0.001541
5.635000E-8	0.001294
5.640000E-8	0.001200
5.645000E-8	0.001194
5.650000E-8	0.001181
5.655000E-8	0.001156
5.660000E-8	0.001056
5.665000E-8	0.001250
5.670000E-8	0.001372
5.675000E-8	0.001656
5.680000E-8	0.001919
5.685000E-8	0.002134
5.690000E-8	0.002222
5.695000E-8	0.002581
5.700000E-8	0.002688
5.705000E-8	0.002916
5.710000E-8	0.002991
5.715000E-8	0.003028
5.720000E-8	0.002866
5.725000E-8	0.002941
5.730000E-8	0.002734
5.735000E-8	0.002525
5.740000E-8	0.002334
5.745000E-8	0.002091
5.750000E-8	0.001856
5.755000E-8	0.001728
5.760000E-8	0.001506
5.765000E-8	0.001431
5.770000E-8	0.001288
5.775000E-8	0.001369
5.780000E-8	0.001391
5.785000E-8	0.001553
5.790000E-8	0.001600
5.795000E-8	0.001803
5.800000E-8	0.001872
5.805000E-8	0.002100
5.810000E-8	0.002209
5.815000E-8	0.002472
5.820000E-8	0.002531
5.825000E-8	0.002744
5.830000E-8	0.002750
5.835000E-8	0.002838
5.840000E-8	0.002838
5.845000E-8	0.002794
5.850000E-8	0.002700
5.855000E-8	0.002541
5.860000E-8	0.002331
5.865000E-8	0.002216
5.870000E-8	0.002063
5.875000E-8	0.001922
5.880000E-8	0.001775
5.885000E-8	0.001600
5.890000E-8	0.001450
5.895000E-8	0.001428
5.900000E-8	0.001288
5.905000E-8	0.001325
5.910000E-8	0.001394
5.915000E-8	0.001450
5.920000E-8	0.001541
5.925000E-8	0.001803
5.930000E-8	0.001953
5.935000E-8	0.002213
5.940000E-8	0.002363
5.945000E-8	0.002587
5.950000E-8	0.002816
5.955000E-8	0.002931
5.960000E-8	0.002913
5.965000E-8	0.003009
5.970000E-8	0.002797
5.975000E-8	0.002769
5.980000E-8	0.002563
5.985000E-8	0.002419
5.990000E-8	0.002228
5.995000E-8	0.002094
6.000000E-8	0.001828
6.005000E-8	0.001713
6.010000E-8	0.001606
6.015000E-8	0.001503
6.020000E-8	0.001325
6.025000E-8	0.001256
6.030000E-8	0.001213
6.035000E-8	0.001362
6.040000E-8	0.001400
6.045000E-8	0.001534
6.050000E-8	0.001694
6.055000E-8	0.001863
6.060000E-8	0.002084
6.065000E-8	0.002344
6.070000E-8	0.002497
6.075000E-8	0.002709
6.080000E-8	0.002884
6.085000E-8	0.002972
6.090000E-8	0.002931
6.095000E-8	0.002956
6.100000E-8	0.002725
6.105000E-8	0.002650
6.110000E-8	0.002341
6.115000E-8	0.002050
6.120000E-8	0.001750
6.125000E-8	0.001666
6.130000E-8	0.001350
6.135000E-8	0.001294
6.140000E-8	0.001163
6.145000E-8	0.001103
6.150000E-8	0.001219
6.155000E-8	0.001400
6.160000E-8	0.001403
6.165000E-8	0.001572
6.170000E-8	0.001625
6.175000E-8	0.001816
6.180000E-8	0.001950
6.185000E-8	0.002156
6.190000E-8	0.002306
6.195000E-8	0.002400
6.200000E-8	0.002431
6.205000E-8	0.002675
6.210000E-8	0.002700
6.215000E-8	0.002719
6.220000E-8	0.002547
6.225000E-8	0.002519
6.230000E-8	0.002363
6.235000E-8	0.002291
6.240000E-8	0.002159
6.245000E-8	0.001863
6.250000E-8	0.001766
6.255000E-8	0.001578
6.260000E-8	0.001341
6.265000E-8	0.001328
6.270000E-8	0.001309
6.275000E-8	0.001384
6.280000E-8	0.001384
6.285000E-8	0.001478
6.290000E-8	0.001547
6.295000E-8	0.001709
6.300000E-8	0.001763
6.305000E-8	0.002031
6.310000E-8	0.002087
6.315000E-8	0.002250
6.320000E-8	0.002366
6.325000E-8	0.002547
6.330000E-8	0.002569
6.335000E-8	0.002622
6.340000E-8	0.002634
6.345000E-8	0.002650
6.350000E-8	0.002472
6.355000E-8	0.002556
6.360000E-8	0.002413
6.365000E-8	0.002272
6.370000E-8	0.002028
6.375000E-8	0.001941
6.380000E-8	0.001663
6.385000E-8	0.001603
6.390000E-8	0.001459
6.395000E-8	0.001394
6.400000E-8	0.001309
6.405000E-8	0.001325
6.410000E-8	0.001309
6.415000E-8	0.001394
6.420000E-8	0.001434
6.425000E-8	0.001544
6.430000E-8	0.001553
6.435000E-8	0.001881
6.440000E-8	0.001981
6.445000E-8	0.002347
6.450000E-8	0.002416
6.455000E-8	0.002650
6.460000E-8	0.002759
6.465000E-8	0.002841
6.470000E-8	0.002878
6.475000E-8	0.002772
6.480000E-8	0.002609
6.485000E-8	0.002394
6.490000E-8	0.002091
6.495000E-8	0.001813
6.500000E-8	0.001563
6.505000E-8	0.001488
6.510000E-8	0.001350
6.515000E-8	0.001353
6.520000E-8	0.001253
6.525000E-8	0.001291
6.530000E-8	0.001313
6.535000E-8	0.001459
6.540000E-8	0.001619
6.545000E-8	0.001891
6.550000E-8	0.002038
6.555000E-8	0.002181
6.560000E-8	0.002297
6.565000E-8	0.002369
6.570000E-8	0.002491
6.575000E-8	0.002672
6.580000E-8	0.002613
6.585000E-8	0.002791
6.590000E-8	0.002731
6.595000E-8	0.002653
6.600000E-8	0.002631
6.605000E-8	0.002453
6.610000E-8	0.002381
6.615000E-8	0.002347
6.620000E-8	0.002066
6.625000E-8	0.001925
6.630000E-8	0.001738
6.635000E-8	0.001650
6.640000E-8	0.001406
6.645000E-8	0.001437
6.650000E-8	0.001288
6.655000E-8	0.001353
6.660000E-8	0.001388
6.665000E-8	0.001481
6.670000E-8	0.001575
6.675000E-8	0.001778
6.680000E-8	0.001875
6.685000E-8	0.002075
6.690000E-8	0.002234
6.695000E-8	0.002466
6.700000E-8	0.002456
6.705000E-8	0.002587
6.710000E-8	0.002494
6.715000E-8	0.002531
6.720000E-8	0.002478
6.725000E-8	0.002494
6.730000E-8	0.002331
6.735000E-8	0.002284
6.740000E-8	0.002266
6.745000E-8	0.002141
6.750000E-8	0.002022
6.755000E-8	0.001950
6.760000E-8	0.001831
6.765000E-8	0.001703
6.770000E-8	0.001669
6.775000E-8	0.001625
6.780000E-8	0.001550
6.785000E-8	0.001584
6.790000E-8	0.001606
6.795000E-8	0.001772
6.800000E-8	0.001872
6.805000E-8	0.001847
6.810000E-8	0.001931
6.815000E-8	0.002191
6.820000E-8	0.002269
6.825000E-8	0.002450
6.830000E-8	0.002494
6.835000E-8	0.002666
6.840000E-8	0.002609
6.845000E-8	0.002606
6.850000E-8	0.002628
6.855000E-8	0.002491
6.860000E-8	0.002416
6.865000E-8	0.002266
6.870000E-8	0.001937
6.875000E-8	0.001866
6.880000E-8	0.001697
6.885000E-8	0.001622
6.890000E-8	0.001488
6.895000E-8	0.001534
6.900000E-8	0.001447
6.905000E-8	0.001541
6.910000E-8	0.001650
6.915000E-8	0.001778
6.920000E-8	0.001866
6.925000E-8	0.001988
6.930000E-8	0.002125
6.935000E-8	0.002359
6.940000E-8	0.002366
6.945000E-8	0.002603
6.950000E-8	0.002525
6.955000E-8	0.002616
6.960000E-8	0.002578
6.965000E-8	0.002594
6.970000E-8	0.002594
6.975000E-8	0.002619
6.980000E-8	0.002494
6.985000E-8	0.002575
6.990000E-8	0.002338
6.995000E-8	0.002222
7.000000E-8	0.002031
7.005000E-8	0.001869
7.010000E-8	0.001772
7.015000E-8	0.001691
7.020000E-8	0.001441
7.025000E-8	0.001416
7.030000E-8	0.001366
7.035000E-8	0.001431
7.040000E-8	0.001469
7.045000E-8	0.001575
7.050000E-8	0.001709
7.055000E-8	0.001903
7.060000E-8	0.001963
7.065000E-8	0.002166
7.070000E-8	0.002344
7.075000E-8	0.002437
7.080000E-8	0.002450
7.085000E-8	0.002478
7.090000E-8	0.002437
7.095000E-8	0.002456
7.100000E-8	0.002325
7.105000E-8	0.002406
7.110000E-8	0.002294
7.115000E-8	0.002225
7.120000E-8	0.002156
7.125000E-8	0.002025
7.130000E-8	0.002016
7.135000E-8	0.001969
7.140000E-8	0.001834
7.145000E-8	0.001713
7.150000E-8	0.001666
7.155000E-8	0.001641
7.160000E-8	0.001575
7.165000E-8	0.001609
7.170000E-8	0.001713
7.175000E-8	0.001809
7.180000E-8	0.001919
7.185000E-8	0.002066
7.190000E-8	0.002147
7.195000E-8	0.002269
7.200000E-8	0.002259
7.205000E-8	0.002353
7.210000E-8	0.002403
7.215000E-8	0.002578
7.220000E-8	0.002450
7.225000E-8	0.002453
7.230000E-8	0.002406
7.235000E-8	0.002406
7.240000E-8	0.002306
7.245000E-8	0.002288
7.250000E-8	0.002041
7.255000E-8	0.002006
7.260000E-8	0.001809
7.265000E-8	0.001725
7.270000E-8	0.001653
7.275000E-8	0.001663
7.280000E-8	0.001578
7.285000E-8	0.001678
7.290000E-8	0.001669
7.295000E-8	0.001741
7.300000E-8	0.001825
7.305000E-8	0.001850
7.310000E-8	0.001906
7.315000E-8	0.002059
7.320000E-8	0.002131
7.325000E-8	0.002269
7.330000E-8	0.002391
7.335000E-8	0.002481
7.340000E-8	0.002388
7.345000E-8	0.002309
7.350000E-8	0.002244
7.355000E-8	0.002181
7.360000E-8	0.002106
7.365000E-8	0.001953
7.370000E-8	0.001916
7.375000E-8	0.001937
7.380000E-8	0.001850
7.385000E-8	0.001925
7.390000E-8	0.001844
7.395000E-8	0.001844
7.400000E-8	0.001800
7.405000E-8	0.001803
7.410000E-8	0.001791
7.415000E-8	0.001822
7.420000E-8	0.001706
7.425000E-8	0.001794
7.430000E-8	0.001800
7.435000E-8	0.001897
7.440000E-8	0.001956
7.445000E-8	0.002144
7.450000E-8	0.002300
7.455000E-8	0.002450
7.460000E-8	0.002587
7.465000E-8	0.002756
7.470000E-8	0.002772
7.475000E-8	0.002847
7.480000E-8	0.002747
7.485000E-8	0.002778
7.490000E-8	0.002466
7.495000E-8	0.002466
7.500000E-8	0.002103
7.505000E-8	0.002053
7.510000E-8	0.001934
7.515000E-8	0.001725
7.520000E-8	0.001687
7.525000E-8	0.001628
7.530000E-8	0.001522
7.535000E-8	0.001622
7.540000E-8	0.001575
7.545000E-8	0.001669
7.550000E-8	0.001644
7.555000E-8	0.001828
7.560000E-8	0.001894
7.565000E-8	0.002047
7.570000E-8	0.002231
7.575000E-8	0.002334
7.580000E-8	0.002397
7.585000E-8	0.002478
7.590000E-8	0.002413
7.595000E-8	0.002472
7.600000E-8	0.002331
7.605000E-8	0.002272
7.610000E-8	0.002091
7.615000E-8	0.002128
7.620000E-8	0.002072
7.625000E-8	0.002091
7.630000E-8	0.001997
7.635000E-8	0.001909
7.640000E-8	0.001919
7.645000E-8	0.001925
7.650000E-8	0.001822
7.655000E-8	0.001916
7.660000E-8	0.001797
7.665000E-8	0.001816
7.670000E-8	0.001750
7.675000E-8	0.001891
7.680000E-8	0.001853
7.685000E-8	0.001972
7.690000E-8	0.002122
7.695000E-8	0.002263
7.700000E-8	0.002294
7.705000E-8	0.002409
7.710000E-8	0.002331
7.715000E-8	0.002472
7.720000E-8	0.002422
7.725000E-8	0.002456
7.730000E-8	0.002356
7.735000E-8	0.002488
7.740000E-8	0.002431
7.745000E-8	0.002422
7.750000E-8	0.002263
7.755000E-8	0.002334
7.760000E-8	0.002316
7.765000E-8	0.002209
7.770000E-8	0.002269
7.775000E-8	0.002197
7.780000E-8	0.002162
7.785000E-8	0.002087
7.790000E-8	0.002050
7.795000E-8	0.002025
7.800000E-8	0.001813
7.805000E-8	0.001878
7.810000E-8	0.001834
7.815000E-8	0.001897
7.820000E-8	0.001906
7.825000E-8	0.002097
7.830000E-8	0.002069
7.835000E-8	0.002253
7.840000E-8	0.002341
7.845000E-8	0.002381
7.850000E-8	0.002309
7.855000E-8	0.002353
7.860000E-8	0.002356
7.865000E-8	0.002231
7.870000E-8	0.002222
7.875000E-8	0.002106
7.880000E-8	0.002034
7.885000E-8	0.001941
7.890000E-8	0.001853
7.895000E-8	0.001669
7.900000E-8	0.001641
7.905000E-8	0.001691
7.910000E-8	0.001584
7.915000E-8	0.001641
7.920000E-8	0.001675
7.925000E-8	0.001747
7.930000E-8	0.001691
7.935000E-8	0.001988
7.940000E-8	0.002031
7.945000E-8	0.002184
7.950000E-8	0.002247
7.955000E-8	0.002350
7.960000E-8	0.002181
7.965000E-8	0.002338
7.970000E-8	0.002269
7.975000E-8	0.002209
7.980000E-8	0.002134
7.985000E-8	0.002103
7.990000E-8	0.001966
7.995000E-8	0.001891
8.000000E-8	0.001884
8.005000E-8	0.001863
8.010000E-8	0.001725
8.015000E-8	0.001806
8.020000E-8	0.001691
8.025000E-8	0.001778
8.030000E-8	0.001694
8.035000E-8	0.001731
8.040000E-8	0.001759
8.045000E-8	0.001863
8.050000E-8	0.001944
8.055000E-8	0.002044
8.060000E-8	0.002209
8.065000E-8	0.002409
8.070000E-8	0.002525
8.075000E-8	0.002541
8.080000E-8	0.002741
8.085000E-8	0.002925
8.090000E-8	0.002881
8.095000E-8	0.002897
8.100000E-8	0.002753
8.105000E-8	0.002794
8.110000E-8	0.002659
8.115000E-8	0.002616
8.120000E-8	0.002334
8.125000E-8	0.002291
8.130000E-8	0.002087
8.135000E-8	0.001981
8.140000E-8	0.001875
8.145000E-8	0.001816
8.150000E-8	0.001731
8.155000E-8	0.001866
8.160000E-8	0.001841
8.165000E-8	0.001856
8.170000E-8	0.001934
8.175000E-8	0.002153
8.180000E-8	0.002153
8.185000E-8	0.002144
8.190000E-8	0.002256
8.195000E-8	0.002441
8.200000E-8	0.002325
8.205000E-8	0.002375
8.210000E-8	0.002381
8.215000E-8	0.002459
8.220000E-8	0.002434
8.225000E-8	0.002391
8.230000E-8	0.002319
8.235000E-8	0.002275
8.240000E-8	0.002125
8.245000E-8	0.001975
8.250000E-8	0.001844
8.255000E-8	0.001872
8.260000E-8	0.001756
8.265000E-8	0.001669
8.270000E-8	0.001659
8.275000E-8	0.001628
8.280000E-8	0.001566
8.285000E-8	0.001697
8.290000E-8	0.001831
8.295000E-8	0.001909
8.300000E-8	0.001866
8.305000E-8	0.002091
8.310000E-8	0.002209
8.315000E-8	0.002303
8.320000E-8	0.002356
8.325000E-8	0.002409
8.330000E-8	0.002353
8.335000E-8	0.002397
8.340000E-8	0.002281
8.345000E-8	0.002178
8.350000E-8	0.002162
8.355000E-8	0.002241
8.360000E-8	0.002191
8.365000E-8	0.002203
8.370000E-8	0.002094
8.375000E-8	0.002006
8.380000E-8	0.001934
8.385000E-8	0.001931
8.390000E-8	0.001788
8.395000E-8	0.001706
8.400000E-8	0.001578
8.405000E-8	0.001647
8.410000E-8	0.001525
8.415000E-8	0.001559
8.420000E-8	0.001634
8.425000E-8	0.001769
8.430000E-8	0.001744
8.435000E-8	0.001928
8.440000E-8	0.001850
8.445000E-8	0.002103
8.450000E-8	0.002197
8.455000E-8	0.002197
8.460000E-8	0.002184
8.465000E-8	0.002325
8.470000E-8	0.002369
8.475000E-8	0.002344
8.480000E-8	0.002256
8.485000E-8	0.002131
8.490000E-8	0.001950
8.495000E-8	0.001822
8.500000E-8	0.001703
8.505000E-8	0.001575
8.510000E-8	0.001338
8.515000E-8	0.001334
8.520000E-8	0.001297
8.525000E-8	0.001406
8.530000E-8	0.001372
8.535000E-8	0.001463
8.540000E-8	0.001606
8.545000E-8	0.001750
8.550000E-8	0.001728
8.555000E-8	0.001841
8.560000E-8	0.001819
8.565000E-8	0.001925
8.570000E-8	0.001897
8.575000E-8	0.002044
8.580000E-8	0.002116
8.585000E-8	0.002241
8.590000E-8	0.002213
8.595000E-8	0.002297
8.600000E-8	0.002253
8.605000E-8	0.002316
8.610000E-8	0.002150
8.615000E-8	0.002222
8.620000E-8	0.002203
8.625000E-8	0.002200
8.630000E-8	0.002041
8.635000E-8	0.001866
8.640000E-8	0.001853
8.645000E-8	0.001769
8.650000E-8	0.001700
8.655000E-8	0.001559
8.660000E-8	0.001619
8.665000E-8	0.001581
8.670000E-8	0.001534
8.675000E-8	0.001650
8.680000E-8	0.001694
8.685000E-8	0.001853
8.690000E-8	0.001884
8.695000E-8	0.002103
8.700000E-8	0.002109
8.705000E-8	0.002284
8.710000E-8	0.002281
8.715000E-8	0.002369
8.720000E-8	0.002275
8.725000E-8	0.002288
8.730000E-8	0.002272
8.735000E-8	0.002225
8.740000E-8	0.002084
8.745000E-8	0.002106
8.750000E-8	0.002050
8.755000E-8	0.002084
8.760000E-8	0.002019
8.765000E-8	0.002047
8.770000E-8	0.001994
8.775000E-8	0.001963
8.780000E-8	0.001828
8.785000E-8	0.001838
8.790000E-8	0.001822
8.795000E-8	0.001841
8.800000E-8	0.001706
8.805000E-8	0.001788
8.810000E-8	0.001691
8.815000E-8	0.001919
8.820000E-8	0.002066
8.825000E-8	0.002197
8.830000E-8	0.002253
8.835000E-8	0.002300
8.840000E-8	0.002359
8.845000E-8	0.002488
8.850000E-8	0.002397
8.855000E-8	0.002334
8.860000E-8	0.002172
8.865000E-8	0.002162
8.870000E-8	0.002028
8.875000E-8	0.002050
8.880000E-8	0.001988
8.885000E-8	0.002053
8.890000E-8	0.001794
8.895000E-8	0.001888
8.900000E-8	0.001838
8.905000E-8	0.002006
8.910000E-8	0.001913
8.915000E-8	0.001969
8.920000E-8	0.001941
8.925000E-8	0.002034
8.930000E-8	0.002128
8.935000E-8	0.002159
8.940000E-8	0.002166
8.945000E-8	0.002297
8.950000E-8	0.002247
8.955000E-8	0.002419
8.960000E-8	0.002425
8.965000E-8	0.002563
8.970000E-8	0.002528
8.975000E-8	0.002456
8.980000E-8	0.002241
8.985000E-8	0.002256
8.990000E-8	0.002134
8.995000E-8	0.002034
9.000000E-8	0.001847
9.005000E-8	0.001841
9.010000E-8	0.001684
9.015000E-8	0.001619
9.020000E-8	0.001428
9.025000E-8	0.001516
9.030000E-8	0.001456
9.035000E-8	0.001484
9.040000E-8	0.001559
9.045000E-8	0.001719
9.050000E-8	0.001691
9.055000E-8	0.001856
9.060000E-8	0.001925
9.065000E-8	0.001984
9.070000E-8	0.001834
9.075000E-8	0.001981
9.080000E-8	0.001884
9.085000E-8	0.002044
9.090000E-8	0.002003
9.095000E-8	0.002166
9.100000E-8	0.002053
9.105000E-8	0.002138
9.110000E-8	0.002225
9.115000E-8	0.002234
9.120000E-8	0.002191
9.125000E-8	0.002194
9.130000E-8	0.002138
9.135000E-8	0.002109
9.140000E-8	0.002003
9.145000E-8	0.001934
9.150000E-8	0.001900
9.155000E-8	0.001825
9.160000E-8	0.001822
9.165000E-8	0.001913
9.170000E-8	0.001884
9.175000E-8	0.002006
9.180000E-8	0.001966
9.185000E-8	0.002159
9.190000E-8	0.002175
9.195000E-8	0.002334
9.200000E-8	0.002369
9.205000E-8	0.002494
9.210000E-8	0.002544
9.215000E-8	0.002653
9.220000E-8	0.002512
9.225000E-8	0.002572
9.230000E-8	0.002506
9.235000E-8	0.002453
9.240000E-8	0.002119
9.245000E-8	0.002059
9.250000E-8	0.001850
9.255000E-8	0.001728
9.260000E-8	0.001522
9.265000E-8	0.001641
9.270000E-8	0.001531
9.275000E-8	0.001606
9.280000E-8	0.001597
9.285000E-8	0.001691
9.290000E-8	0.001816
9.295000E-8	0.001841
9.300000E-8	0.001847
9.305000E-8	0.002050
9.310000E-8	0.002053
9.315000E-8	0.002081
9.320000E-8	0.001981
9.325000E-8	0.002084
9.330000E-8	0.002056
9.335000E-8	0.002128
9.340000E-8	0.002059
9.345000E-8	0.002128
9.350000E-8	0.001981
9.355000E-8	0.002113
9.360000E-8	0.001956
9.365000E-8	0.002034
9.370000E-8	0.001888
9.375000E-8	0.001878
9.380000E-8	0.001753
9.385000E-8	0.001728
9.390000E-8	0.001687
9.395000E-8	0.001675
9.400000E-8	0.001625
9.405000E-8	0.001694
9.410000E-8	0.001759
9.415000E-8	0.001872
9.420000E-8	0.001731
9.425000E-8	0.001869
9.430000E-8	0.001872
9.435000E-8	0.001953
9.440000E-8	0.001988
9.445000E-8	0.002178
9.450000E-8	0.002091
9.455000E-8	0.002175
9.460000E-8	0.002169
9.465000E-8	0.002325
9.470000E-8	0.002303
9.475000E-8	0.002434
9.480000E-8	0.002303
9.485000E-8	0.002322
9.490000E-8	0.002169
9.495000E-8	0.002181
9.500000E-8	0.002147
9.505000E-8	0.002028
9.510000E-8	0.001825
9.515000E-8	0.001813
9.520000E-8	0.001653
9.525000E-8	0.001663
9.530000E-8	0.001700
9.535000E-8	0.001700
9.540000E-8	0.001656
9.545000E-8	0.001759
9.550000E-8	0.001772
9.555000E-8	0.001966
9.560000E-8	0.002016
9.565000E-8	0.002056
9.570000E-8	0.002006
9.575000E-8	0.001975
9.580000E-8	0.001997
9.585000E-8	0.002087
9.590000E-8	0.002166
9.595000E-8	0.002216
9.600000E-8	0.002191
9.605000E-8	0.002222
9.610000E-8	0.002244
9.615000E-8	0.002288
9.620000E-8	0.002122
9.625000E-8	0.002128
9.630000E-8	0.002147
9.635000E-8	0.002044
9.640000E-8	0.001981
9.645000E-8	0.001813
9.650000E-8	0.001741
9.655000E-8	0.001638
9.660000E-8	0.001522
9.665000E-8	0.001591
9.670000E-8	0.001553
9.675000E-8	0.001741
9.680000E-8	0.001738
9.685000E-8	0.001937
9.690000E-8	0.001944
9.695000E-8	0.002047
9.700000E-8	0.002094
9.705000E-8	0.002284
9.710000E-8	0.002325
9.715000E-8	0.002491
9.720000E-8	0.002338
9.725000E-8	0.002356
9.730000E-8	0.002313
9.735000E-8	0.002234
9.740000E-8	0.002094
9.745000E-8	0.002031
9.750000E-8	0.001734
9.755000E-8	0.001681
9.760000E-8	0.001597
9.765000E-8	0.001575
9.770000E-8	0.001516
9.775000E-8	0.001513
9.780000E-8	0.001413
9.785000E-8	0.001509
9.790000E-8	0.001513
9.795000E-8	0.001559
9.800000E-8	0.001709
9.805000E-8	0.001794
9.810000E-8	0.001828
9.815000E-8	0.001984
9.820000E-8	0.001947
9.825000E-8	0.002038
9.830000E-8	0.002134
9.835000E-8	0.002284
9.840000E-8	0.002278
9.845000E-8	0.002403
9.850000E-8	0.002344
9.855000E-8	0.002381
9.860000E-8	0.002291
9.865000E-8	0.002303
9.870000E-8	0.002181
9.875000E-8	0.002166
9.880000E-8	0.002012
9.885000E-8	0.001963
9.890000E-8	0.001944
9.895000E-8	0.001928
9.900000E-8	0.001859
9.905000E-8	0.001997
9.910000E-8	0.001947
9.915000E-8	0.001963
9.920000E-8	0.001944
9.925000E-8	0.001978
9.930000E-8	0.002100
9.935000E-8	0.002106
9.940000E-8	0.002047
9.945000E-8	0.002178
9.950000E-8	0.002125
9.955000E-8	0.002197
9.960000E-8	0.002078
9.965000E-8	0.002153
9.970000E-8	0.002222
9.975000E-8	0.002228
9.980000E-8	0.002147
9.985000E-8	0.002131
9.990000E-8	0.002041
9.995000E-8	0.002050
