LabVIEW Measurement	
Writer_Version	2
Reader_Version	2
Separator	Tab
Decimal_Separator	.
Multi_Headings	No
X_Columns	Multi
Time_Pref	Relative
Operator	TG lab
Date	2015/03/06
Time	19:04:16.7313532829284667969
***End_of_Header***	
	
Channels	1	
Samples	2000	
Date	1903/12/31	
Time	19:00:00	
X_Dimension	Time	
X0	0.0000000000000000E+0	
Delta_X	5.000000E-11	
***End_of_Header***		
X_Value	Untitled	Comment
0.000000	0.001419
5.000000E-11	0.001447
1.000000E-10	0.001416
1.500000E-10	0.001416
2.000000E-10	0.001441
2.500000E-10	0.001497
3.000000E-10	0.001419
3.500000E-10	0.001437
4.000000E-10	0.001422
4.500000E-10	0.001428
5.000000E-10	0.001488
5.500000E-10	0.001569
6.000000E-10	0.001581
6.500000E-10	0.001541
7.000000E-10	0.001581
7.500000E-10	0.001697
8.000000E-10	0.001709
8.500000E-10	0.001828
9.000000E-10	0.001844
9.500000E-10	0.001769
1.000000E-9	0.001719
1.050000E-9	0.001806
1.100000E-9	0.001791
1.150000E-9	0.001741
1.200000E-9	0.001747
1.250000E-9	0.001763
1.300000E-9	0.001669
1.350000E-9	0.001678
1.400000E-9	0.001584
1.450000E-9	0.001744
1.500000E-9	0.001759
1.550000E-9	0.001844
1.600000E-9	0.001766
1.650000E-9	0.001841
1.700000E-9	0.001741
1.750000E-9	0.001759
1.800000E-9	0.001822
1.850000E-9	0.001750
1.900000E-9	0.001719
1.950000E-9	0.001872
2.000000E-9	0.001809
2.050000E-9	0.001944
2.100000E-9	0.001919
2.150000E-9	0.001941
2.200000E-9	0.001891
2.250000E-9	0.001988
2.300000E-9	0.001881
2.350000E-9	0.001928
2.400000E-9	0.001916
2.450000E-9	0.001956
2.500000E-9	0.001909
2.550000E-9	0.001853
2.600000E-9	0.001825
2.650000E-9	0.001775
2.700000E-9	0.001803
2.750000E-9	0.001853
2.800000E-9	0.001859
2.850000E-9	0.001913
2.900000E-9	0.001916
2.950000E-9	0.001941
3.000000E-9	0.001991
3.050000E-9	0.001966
3.100000E-9	0.001900
3.150000E-9	0.002041
3.200000E-9	0.002103
3.250000E-9	0.002141
3.300000E-9	0.002131
3.350000E-9	0.002250
3.400000E-9	0.002159
3.450000E-9	0.002147
3.500000E-9	0.002159
3.550000E-9	0.002194
3.600000E-9	0.002275
3.650000E-9	0.002184
3.700000E-9	0.002147
3.750000E-9	0.002206
3.800000E-9	0.002281
3.850000E-9	0.002484
3.900000E-9	0.002437
3.950000E-9	0.002541
4.000000E-9	0.002594
4.050000E-9	0.002731
4.100000E-9	0.002791
4.150000E-9	0.003003
4.200000E-9	0.003147
4.250000E-9	0.003394
4.300000E-9	0.003622
4.350000E-9	0.004022
4.400000E-9	0.004378
4.450000E-9	0.004778
4.500000E-9	0.005153
4.550000E-9	0.005847
4.600000E-9	0.006428
4.650000E-9	0.007059
4.700000E-9	0.007753
4.750000E-9	0.008616
4.800000E-9	0.009547
4.850000E-9	0.010569
4.900000E-9	0.011706
4.950000E-9	0.012856
5.000000E-9	0.013994
5.050000E-9	0.015000
5.100000E-9	0.015963
5.150000E-9	0.016703
5.200000E-9	0.017306
5.250000E-9	0.017641
5.300000E-9	0.017878
5.350000E-9	0.017763
5.400000E-9	0.017441
5.450000E-9	0.017172
5.500000E-9	0.016781
5.550000E-9	0.016463
5.600000E-9	0.016222
5.650000E-9	0.016031
5.700000E-9	0.015769
5.750000E-9	0.015766
5.800000E-9	0.015444
5.850000E-9	0.015109
5.900000E-9	0.014525
5.950000E-9	0.013888
6.000000E-9	0.013063
6.050000E-9	0.012225
6.100000E-9	0.011478
6.150000E-9	0.010663
6.200000E-9	0.009941
6.250000E-9	0.009384
6.300000E-9	0.009056
6.350000E-9	0.008856
6.400000E-9	0.008803
6.450000E-9	0.008919
6.500000E-9	0.009119
6.550000E-9	0.009378
6.600000E-9	0.009697
6.650000E-9	0.009981
6.700000E-9	0.010316
6.750000E-9	0.010600
6.800000E-9	0.010788
6.850000E-9	0.010878
6.900000E-9	0.010734
6.950000E-9	0.010728
7.000000E-9	0.010531
7.050000E-9	0.010272
7.100000E-9	0.009934
7.150000E-9	0.009472
7.200000E-9	0.008981
7.250000E-9	0.008516
7.300000E-9	0.008003
7.350000E-9	0.007387
7.400000E-9	0.006853
7.450000E-9	0.006366
7.500000E-9	0.006053
7.550000E-9	0.005872
7.600000E-9	0.005725
7.650000E-9	0.005700
7.700000E-9	0.005872
7.750000E-9	0.006131
7.800000E-9	0.006381
7.850000E-9	0.006759
7.900000E-9	0.007109
7.950000E-9	0.007516
8.000000E-9	0.007903
8.050000E-9	0.008341
8.100000E-9	0.008606
8.150000E-9	0.008744
8.200000E-9	0.008741
8.250000E-9	0.008800
8.300000E-9	0.008509
8.350000E-9	0.008441
8.400000E-9	0.007925
8.450000E-9	0.007413
8.500000E-9	0.006847
8.550000E-9	0.006316
8.600000E-9	0.005662
8.650000E-9	0.005197
8.700000E-9	0.004722
8.750000E-9	0.004281
8.800000E-9	0.003994
8.850000E-9	0.003806
8.900000E-9	0.003725
8.950000E-9	0.003809
9.000000E-9	0.004013
9.050000E-9	0.004347
9.100000E-9	0.004563
9.150000E-9	0.005025
9.200000E-9	0.005456
9.250000E-9	0.005834
9.300000E-9	0.006078
9.350000E-9	0.006350
9.400000E-9	0.006528
9.450000E-9	0.006597
9.500000E-9	0.006619
9.550000E-9	0.006478
9.600000E-9	0.006200
9.650000E-9	0.005869
9.700000E-9	0.005400
9.750000E-9	0.005009
9.800000E-9	0.004419
9.850000E-9	0.003994
9.900000E-9	0.003406
9.950000E-9	0.002978
1.000000E-8	0.002631
1.005000E-8	0.002425
1.010000E-8	0.002216
1.015000E-8	0.002263
1.020000E-8	0.002459
1.025000E-8	0.002741
1.030000E-8	0.003006
1.035000E-8	0.003494
1.040000E-8	0.003941
1.045000E-8	0.004313
1.050000E-8	0.004697
1.055000E-8	0.005112
1.060000E-8	0.005503
1.065000E-8	0.005709
1.070000E-8	0.005822
1.075000E-8	0.005772
1.080000E-8	0.005606
1.085000E-8	0.005384
1.090000E-8	0.004944
1.095000E-8	0.004569
1.100000E-8	0.004059
1.105000E-8	0.003619
1.110000E-8	0.003041
1.115000E-8	0.002584
1.120000E-8	0.002188
1.125000E-8	0.001975
1.130000E-8	0.001816
1.135000E-8	0.001766
1.140000E-8	0.001775
1.145000E-8	0.001950
1.150000E-8	0.002109
1.155000E-8	0.002450
1.160000E-8	0.002838
1.165000E-8	0.003234
1.170000E-8	0.003641
1.175000E-8	0.003978
1.180000E-8	0.004334
1.185000E-8	0.004569
1.190000E-8	0.004734
1.195000E-8	0.004888
1.200000E-8	0.004819
1.205000E-8	0.004694
1.210000E-8	0.004478
1.215000E-8	0.004197
1.220000E-8	0.003772
1.225000E-8	0.003375
1.230000E-8	0.002881
1.235000E-8	0.002437
1.240000E-8	0.001803
1.245000E-8	0.001437
1.250000E-8	0.001122
1.255000E-8	0.000891
1.260000E-8	0.000875
1.265000E-8	0.000909
1.270000E-8	0.000984
1.275000E-8	0.001275
1.280000E-8	0.001581
1.285000E-8	0.001897
1.290000E-8	0.002309
1.295000E-8	0.002784
1.300000E-8	0.003228
1.305000E-8	0.003628
1.310000E-8	0.003847
1.315000E-8	0.004131
1.320000E-8	0.004303
1.325000E-8	0.004309
1.330000E-8	0.004256
1.335000E-8	0.004147
1.340000E-8	0.003956
1.345000E-8	0.003584
1.350000E-8	0.003294
1.355000E-8	0.002903
1.360000E-8	0.002506
1.365000E-8	0.002072
1.370000E-8	0.001672
1.375000E-8	0.001403
1.380000E-8	0.001141
1.385000E-8	0.000947
1.390000E-8	0.000991
1.395000E-8	0.001050
1.400000E-8	0.001284
1.405000E-8	0.001509
1.410000E-8	0.001894
1.415000E-8	0.002369
1.420000E-8	0.002647
1.425000E-8	0.002981
1.430000E-8	0.003359
1.435000E-8	0.003644
1.440000E-8	0.003844
1.445000E-8	0.004031
1.450000E-8	0.003969
1.455000E-8	0.003997
1.460000E-8	0.003738
1.465000E-8	0.003566
1.470000E-8	0.003150
1.475000E-8	0.002869
1.480000E-8	0.002331
1.485000E-8	0.001888
1.490000E-8	0.001416
1.495000E-8	0.001203
1.500000E-8	0.000881
1.505000E-8	0.000656
1.510000E-8	0.000600
1.515000E-8	0.000569
1.520000E-8	0.000559
1.525000E-8	0.000863
1.530000E-8	0.000972
1.535000E-8	0.001238
1.540000E-8	0.001538
1.545000E-8	0.001931
1.550000E-8	0.002209
1.555000E-8	0.002563
1.560000E-8	0.002863
1.565000E-8	0.003134
1.570000E-8	0.003191
1.575000E-8	0.003341
1.580000E-8	0.003325
1.585000E-8	0.003266
1.590000E-8	0.002969
1.595000E-8	0.002769
1.600000E-8	0.002459
1.605000E-8	0.002166
1.610000E-8	0.001700
1.615000E-8	0.001391
1.620000E-8	0.001075
1.625000E-8	0.000850
1.630000E-8	0.000634
1.635000E-8	0.000528
1.640000E-8	0.000556
1.645000E-8	0.000625
1.650000E-8	0.000784
1.655000E-8	0.001034
1.660000E-8	0.001319
1.665000E-8	0.001800
1.670000E-8	0.002134
1.675000E-8	0.002556
1.680000E-8	0.002866
1.685000E-8	0.003138
1.690000E-8	0.003244
1.695000E-8	0.003509
1.700000E-8	0.003613
1.705000E-8	0.003525
1.710000E-8	0.003359
1.715000E-8	0.003197
1.720000E-8	0.002763
1.725000E-8	0.002450
1.730000E-8	0.002056
1.735000E-8	0.001744
1.740000E-8	0.001378
1.745000E-8	0.001088
1.750000E-8	0.000691
1.755000E-8	0.000344
1.760000E-8	0.000156
1.765000E-8	0.000181
1.770000E-8	0.000131
1.775000E-8	0.000263
1.780000E-8	0.000416
1.785000E-8	0.000684
1.790000E-8	0.001069
1.795000E-8	0.001506
1.800000E-8	0.001866
1.805000E-8	0.002209
1.810000E-8	0.002628
1.815000E-8	0.002997
1.820000E-8	0.003116
1.825000E-8	0.003216
1.830000E-8	0.003091
1.835000E-8	0.003119
1.840000E-8	0.002850
1.845000E-8	0.002628
1.850000E-8	0.002188
1.855000E-8	0.001891
1.860000E-8	0.001472
1.865000E-8	0.001219
1.870000E-8	0.000900
1.875000E-8	0.000619
1.880000E-8	0.000459
1.885000E-8	0.000256
1.890000E-8	0.000303
1.895000E-8	0.000334
1.900000E-8	0.000491
1.905000E-8	0.000766
1.910000E-8	0.001050
1.915000E-8	0.001397
1.920000E-8	0.001656
1.925000E-8	0.002069
1.930000E-8	0.002488
1.935000E-8	0.002747
1.940000E-8	0.003072
1.945000E-8	0.003150
1.950000E-8	0.003191
1.955000E-8	0.003266
1.960000E-8	0.003159
1.965000E-8	0.003078
1.970000E-8	0.002791
1.975000E-8	0.002659
1.980000E-8	0.002259
1.985000E-8	0.002000
1.990000E-8	0.001481
1.995000E-8	0.001309
2.000000E-8	0.000991
2.005000E-8	0.000841
2.010000E-8	0.000659
2.015000E-8	0.000572
2.020000E-8	0.000466
2.025000E-8	0.000591
2.030000E-8	0.000734
2.035000E-8	0.000975
2.040000E-8	0.001191
2.045000E-8	0.001522
2.050000E-8	0.001694
2.055000E-8	0.002041
2.060000E-8	0.002316
2.065000E-8	0.002478
2.070000E-8	0.002609
2.075000E-8	0.002822
2.080000E-8	0.002828
2.085000E-8	0.002838
2.090000E-8	0.002650
2.095000E-8	0.002469
2.100000E-8	0.002153
2.105000E-8	0.001844
2.110000E-8	0.001488
2.115000E-8	0.001216
2.120000E-8	0.000928
2.125000E-8	0.000653
2.130000E-8	0.000328
2.135000E-8	0.000250
2.140000E-8	9.062500E-5
2.145000E-8	0.000138
2.150000E-8	0.000144
2.155000E-8	0.000488
2.160000E-8	0.000653
2.165000E-8	0.000953
2.170000E-8	0.001272
2.175000E-8	0.001656
2.180000E-8	0.001991
2.185000E-8	0.002203
2.190000E-8	0.002491
2.195000E-8	0.002756
2.200000E-8	0.002859
2.205000E-8	0.002844
2.210000E-8	0.002875
2.215000E-8	0.002669
2.220000E-8	0.002516
2.225000E-8	0.002316
2.230000E-8	0.001966
2.235000E-8	0.001628
2.240000E-8	0.001344
2.245000E-8	0.001056
2.250000E-8	0.000688
2.255000E-8	0.000491
2.260000E-8	0.000384
2.265000E-8	0.000397
2.270000E-8	0.000403
2.275000E-8	0.000494
2.280000E-8	0.000588
2.285000E-8	0.000922
2.290000E-8	0.001112
2.295000E-8	0.001444
2.300000E-8	0.001725
2.305000E-8	0.001959
2.310000E-8	0.002159
2.315000E-8	0.002488
2.320000E-8	0.002600
2.325000E-8	0.002700
2.330000E-8	0.002709
2.335000E-8	0.002603
2.340000E-8	0.002397
2.345000E-8	0.002322
2.350000E-8	0.002028
2.355000E-8	0.001888
2.360000E-8	0.001659
2.365000E-8	0.001428
2.370000E-8	0.001181
2.375000E-8	0.000950
2.380000E-8	0.000781
2.385000E-8	0.000713
2.390000E-8	0.000647
2.395000E-8	0.000697
2.400000E-8	0.000666
2.405000E-8	0.000828
2.410000E-8	0.000997
2.415000E-8	0.001150
2.420000E-8	0.001344
2.425000E-8	0.001697
2.430000E-8	0.001834
2.435000E-8	0.002091
2.440000E-8	0.002178
2.445000E-8	0.002419
2.450000E-8	0.002497
2.455000E-8	0.002531
2.460000E-8	0.002466
2.465000E-8	0.002416
2.470000E-8	0.002213
2.475000E-8	0.002072
2.480000E-8	0.001869
2.485000E-8	0.001534
2.490000E-8	0.001259
2.495000E-8	0.000953
2.500000E-8	0.000747
2.505000E-8	0.000572
2.510000E-8	0.000459
2.515000E-8	0.000444
2.520000E-8	0.000459
2.525000E-8	0.000453
2.530000E-8	0.000494
2.535000E-8	0.000772
2.540000E-8	0.000963
2.545000E-8	0.001219
2.550000E-8	0.001556
2.555000E-8	0.001847
2.560000E-8	0.002063
2.565000E-8	0.002291
2.570000E-8	0.002422
2.575000E-8	0.002472
2.580000E-8	0.002509
2.585000E-8	0.002478
2.590000E-8	0.002447
2.595000E-8	0.002313
2.600000E-8	0.002122
2.605000E-8	0.001966
2.610000E-8	0.001672
2.615000E-8	0.001413
2.620000E-8	0.001209
2.625000E-8	0.000994
2.630000E-8	0.000741
2.635000E-8	0.000528
2.640000E-8	0.000431
2.645000E-8	0.000269
2.650000E-8	0.000250
2.655000E-8	0.000394
2.660000E-8	0.000606
2.665000E-8	0.000737
2.670000E-8	0.001047
2.675000E-8	0.001313
2.680000E-8	0.001572
2.685000E-8	0.001969
2.690000E-8	0.002094
2.695000E-8	0.002359
2.700000E-8	0.002453
2.705000E-8	0.002587
2.710000E-8	0.002578
2.715000E-8	0.002528
2.720000E-8	0.002322
2.725000E-8	0.002103
2.730000E-8	0.001844
2.735000E-8	0.001666
2.740000E-8	0.001313
2.745000E-8	0.001166
2.750000E-8	0.000881
2.755000E-8	0.000781
2.760000E-8	0.000594
2.765000E-8	0.000641
2.770000E-8	0.000644
2.775000E-8	0.000616
2.780000E-8	0.000672
2.785000E-8	0.000841
2.790000E-8	0.000953
2.795000E-8	0.001216
2.800000E-8	0.001403
2.805000E-8	0.001738
2.810000E-8	0.002019
2.815000E-8	0.002303
2.820000E-8	0.002397
2.825000E-8	0.002528
2.830000E-8	0.002656
2.835000E-8	0.002713
2.840000E-8	0.002666
2.845000E-8	0.002491
2.850000E-8	0.002200
2.855000E-8	0.002006
2.860000E-8	0.001684
2.865000E-8	0.001466
2.870000E-8	0.001178
2.875000E-8	0.001028
2.880000E-8	0.000816
2.885000E-8	0.000700
2.890000E-8	0.000600
2.895000E-8	0.000644
2.900000E-8	0.000656
2.905000E-8	0.000806
2.910000E-8	0.000906
2.915000E-8	0.001134
2.920000E-8	0.001297
2.925000E-8	0.001450
2.930000E-8	0.001756
2.935000E-8	0.001900
2.940000E-8	0.002175
2.945000E-8	0.002388
2.950000E-8	0.002459
2.955000E-8	0.002584
2.960000E-8	0.002572
2.965000E-8	0.002584
2.970000E-8	0.002441
2.975000E-8	0.002288
2.980000E-8	0.002056
2.985000E-8	0.001813
2.990000E-8	0.001469
2.995000E-8	0.001134
3.000000E-8	0.000897
3.005000E-8	0.000747
3.010000E-8	0.000544
3.015000E-8	0.000506
3.020000E-8	0.000425
3.025000E-8	0.000484
3.030000E-8	0.000550
3.035000E-8	0.000737
3.040000E-8	0.000850
3.045000E-8	0.001144
3.050000E-8	0.001275
3.055000E-8	0.001547
3.060000E-8	0.001694
3.065000E-8	0.001941
3.070000E-8	0.002097
3.075000E-8	0.002284
3.080000E-8	0.002419
3.085000E-8	0.002469
3.090000E-8	0.002409
3.095000E-8	0.002431
3.100000E-8	0.002250
3.105000E-8	0.002197
3.110000E-8	0.001919
3.115000E-8	0.001672
3.120000E-8	0.001372
3.125000E-8	0.001100
3.130000E-8	0.000944
3.135000E-8	0.000806
3.140000E-8	0.000650
3.145000E-8	0.000628
3.150000E-8	0.000556
3.155000E-8	0.000663
3.160000E-8	0.000728
3.165000E-8	0.001019
3.170000E-8	0.001147
3.175000E-8	0.001478
3.180000E-8	0.001728
3.185000E-8	0.001916
3.190000E-8	0.002000
3.195000E-8	0.002172
3.200000E-8	0.002328
3.205000E-8	0.002437
3.210000E-8	0.002359
3.215000E-8	0.002272
3.220000E-8	0.002237
3.225000E-8	0.002172
3.230000E-8	0.002075
3.235000E-8	0.001888
3.240000E-8	0.001666
3.245000E-8	0.001406
3.250000E-8	0.001078
3.255000E-8	0.001003
3.260000E-8	0.000884
3.265000E-8	0.000813
3.270000E-8	0.000619
3.275000E-8	0.000553
3.280000E-8	0.000666
3.285000E-8	0.000831
3.290000E-8	0.000850
3.295000E-8	0.001147
3.300000E-8	0.001278
3.305000E-8	0.001597
3.310000E-8	0.001703
3.315000E-8	0.001934
3.320000E-8	0.002063
3.325000E-8	0.002156
3.330000E-8	0.002159
3.335000E-8	0.002253
3.340000E-8	0.002147
3.345000E-8	0.002091
3.350000E-8	0.001978
3.355000E-8	0.001753
3.360000E-8	0.001600
3.365000E-8	0.001447
3.370000E-8	0.001231
3.375000E-8	0.001178
3.380000E-8	0.001050
3.385000E-8	0.001009
3.390000E-8	0.000878
3.395000E-8	0.000803
3.400000E-8	0.000809
3.405000E-8	0.000875
3.410000E-8	0.000850
3.415000E-8	0.000978
3.420000E-8	0.001122
3.425000E-8	0.001366
3.430000E-8	0.001556
3.435000E-8	0.001713
3.440000E-8	0.001838
3.445000E-8	0.002081
3.450000E-8	0.002156
3.455000E-8	0.002197
3.460000E-8	0.002231
3.465000E-8	0.002328
3.470000E-8	0.002116
3.475000E-8	0.002084
3.480000E-8	0.001897
3.485000E-8	0.001750
3.490000E-8	0.001550
3.495000E-8	0.001388
3.500000E-8	0.001128
3.505000E-8	0.001038
3.510000E-8	0.000881
3.515000E-8	0.000834
3.520000E-8	0.000725
3.525000E-8	0.000619
3.530000E-8	0.000550
3.535000E-8	0.000672
3.540000E-8	0.000719
3.545000E-8	0.000828
3.550000E-8	0.000994
3.555000E-8	0.001187
3.560000E-8	0.001488
3.565000E-8	0.001722
3.570000E-8	0.001972
3.575000E-8	0.002087
3.580000E-8	0.002125
3.585000E-8	0.002219
3.590000E-8	0.002256
3.595000E-8	0.002266
3.600000E-8	0.002138
3.605000E-8	0.002053
3.610000E-8	0.001984
3.615000E-8	0.001769
3.620000E-8	0.001600
3.625000E-8	0.001441
3.630000E-8	0.001225
3.635000E-8	0.000963
3.640000E-8	0.000759
3.645000E-8	0.000653
3.650000E-8	0.000478
3.655000E-8	0.000466
3.660000E-8	0.000372
3.665000E-8	0.000572
3.670000E-8	0.000722
3.675000E-8	0.000953
3.680000E-8	0.001172
3.685000E-8	0.001475
3.690000E-8	0.001716
3.695000E-8	0.001897
3.700000E-8	0.002109
3.705000E-8	0.002166
3.710000E-8	0.002241
3.715000E-8	0.002313
3.720000E-8	0.002200
3.725000E-8	0.002087
3.730000E-8	0.001878
3.735000E-8	0.001794
3.740000E-8	0.001437
3.745000E-8	0.001309
3.750000E-8	0.001072
3.755000E-8	0.000906
3.760000E-8	0.000838
3.765000E-8	0.000691
3.770000E-8	0.000694
3.775000E-8	0.000728
3.780000E-8	0.000769
3.785000E-8	0.000838
3.790000E-8	0.000875
3.795000E-8	0.000994
3.800000E-8	0.001247
3.805000E-8	0.001563
3.810000E-8	0.001672
3.815000E-8	0.001988
3.820000E-8	0.002081
3.825000E-8	0.002172
3.830000E-8	0.002244
3.835000E-8	0.002294
3.840000E-8	0.002378
3.845000E-8	0.002444
3.850000E-8	0.002184
3.855000E-8	0.002144
3.860000E-8	0.002066
3.865000E-8	0.001891
3.870000E-8	0.001659
3.875000E-8	0.001647
3.880000E-8	0.001406
3.885000E-8	0.001234
3.890000E-8	0.000972
3.895000E-8	0.000981
3.900000E-8	0.000922
3.905000E-8	0.000909
3.910000E-8	0.000775
3.915000E-8	0.000819
3.920000E-8	0.000941
3.925000E-8	0.001144
3.930000E-8	0.001275
3.935000E-8	0.001409
3.940000E-8	0.001638
3.945000E-8	0.001816
3.950000E-8	0.001894
3.955000E-8	0.002078
3.960000E-8	0.002081
3.965000E-8	0.002116
3.970000E-8	0.002122
3.975000E-8	0.002059
3.980000E-8	0.001841
3.985000E-8	0.001644
3.990000E-8	0.001437
3.995000E-8	0.001269
4.000000E-8	0.000984
4.005000E-8	0.000809
4.010000E-8	0.000659
4.015000E-8	0.000534
4.020000E-8	0.000494
4.025000E-8	0.000616
4.030000E-8	0.000622
4.035000E-8	0.000784
4.040000E-8	0.000888
4.045000E-8	0.001138
4.050000E-8	0.001291
4.055000E-8	0.001538
4.060000E-8	0.001603
4.065000E-8	0.001869
4.070000E-8	0.002025
4.075000E-8	0.002253
4.080000E-8	0.002256
4.085000E-8	0.002316
4.090000E-8	0.002303
4.095000E-8	0.002403
4.100000E-8	0.002353
4.105000E-8	0.002288
4.110000E-8	0.002172
4.115000E-8	0.002034
4.120000E-8	0.001934
4.125000E-8	0.001672
4.130000E-8	0.001569
4.135000E-8	0.001422
4.140000E-8	0.001253
4.145000E-8	0.001147
4.150000E-8	0.001056
4.155000E-8	0.000991
4.160000E-8	0.000916
4.165000E-8	0.001028
4.170000E-8	0.001047
4.175000E-8	0.001272
4.180000E-8	0.001372
4.185000E-8	0.001719
4.190000E-8	0.001856
4.195000E-8	0.002034
4.200000E-8	0.002144
4.205000E-8	0.002244
4.210000E-8	0.002128
4.215000E-8	0.002209
4.220000E-8	0.002109
4.225000E-8	0.002075
4.230000E-8	0.001822
4.235000E-8	0.001784
4.240000E-8	0.001575
4.245000E-8	0.001431
4.250000E-8	0.001300
4.255000E-8	0.001219
4.260000E-8	0.001066
4.265000E-8	0.000931
4.270000E-8	0.000791
4.275000E-8	0.000772
4.280000E-8	0.000719
4.285000E-8	0.000619
4.290000E-8	0.000666
4.295000E-8	0.000834
4.300000E-8	0.000878
4.305000E-8	0.001063
4.310000E-8	0.001225
4.315000E-8	0.001381
4.320000E-8	0.001563
4.325000E-8	0.001663
4.330000E-8	0.001794
4.335000E-8	0.001966
4.340000E-8	0.002006
4.345000E-8	0.002150
4.350000E-8	0.002063
4.355000E-8	0.002094
4.360000E-8	0.002084
4.365000E-8	0.002028
4.370000E-8	0.001794
4.375000E-8	0.001687
4.380000E-8	0.001488
4.385000E-8	0.001350
4.390000E-8	0.001191
4.395000E-8	0.001112
4.400000E-8	0.001019
4.405000E-8	0.000981
4.410000E-8	0.000834
4.415000E-8	0.000856
4.420000E-8	0.000941
4.425000E-8	0.001106
4.430000E-8	0.001175
4.435000E-8	0.001272
4.440000E-8	0.001422
4.445000E-8	0.001600
4.450000E-8	0.001794
4.455000E-8	0.001888
4.460000E-8	0.001784
4.465000E-8	0.001925
4.470000E-8	0.001859
4.475000E-8	0.001822
4.480000E-8	0.001788
4.485000E-8	0.001672
4.490000E-8	0.001697
4.495000E-8	0.001478
4.500000E-8	0.001378
4.505000E-8	0.001366
4.510000E-8	0.001131
4.515000E-8	0.001084
4.520000E-8	0.000941
4.525000E-8	0.000813
4.530000E-8	0.000666
4.535000E-8	0.000588
4.540000E-8	0.000634
4.545000E-8	0.000747
4.550000E-8	0.000872
4.555000E-8	0.001016
4.560000E-8	0.001019
4.565000E-8	0.001197
4.570000E-8	0.001397
4.575000E-8	0.001528
4.580000E-8	0.001584
4.585000E-8	0.001797
4.590000E-8	0.001822
4.595000E-8	0.001872
4.600000E-8	0.001819
4.605000E-8	0.001828
4.610000E-8	0.001616
4.615000E-8	0.001622
4.620000E-8	0.001388
4.625000E-8	0.001475
4.630000E-8	0.001288
4.635000E-8	0.001247
4.640000E-8	0.001197
4.645000E-8	0.001128
4.650000E-8	0.001116
4.655000E-8	0.001209
4.660000E-8	0.001197
4.665000E-8	0.001241
4.670000E-8	0.001322
4.675000E-8	0.001444
4.680000E-8	0.001434
4.685000E-8	0.001406
4.690000E-8	0.001394
4.695000E-8	0.001544
4.700000E-8	0.001675
4.705000E-8	0.001747
4.710000E-8	0.001719
4.715000E-8	0.001816
4.720000E-8	0.001913
4.725000E-8	0.001925
4.730000E-8	0.001991
4.735000E-8	0.001966
4.740000E-8	0.001800
4.745000E-8	0.001756
4.750000E-8	0.001584
4.755000E-8	0.001466
4.760000E-8	0.001278
4.765000E-8	0.001187
4.770000E-8	0.001016
4.775000E-8	0.000866
4.780000E-8	0.000722
4.785000E-8	0.000737
4.790000E-8	0.000716
4.795000E-8	0.000819
4.800000E-8	0.000841
4.805000E-8	0.000884
4.810000E-8	0.001012
4.815000E-8	0.001147
4.820000E-8	0.001278
4.825000E-8	0.001366
4.830000E-8	0.001400
4.835000E-8	0.001456
4.840000E-8	0.001441
4.845000E-8	0.001581
4.850000E-8	0.001556
4.855000E-8	0.001634
4.860000E-8	0.001594
4.865000E-8	0.001659
4.870000E-8	0.001581
4.875000E-8	0.001531
4.880000E-8	0.001456
4.885000E-8	0.001431
4.890000E-8	0.001281
4.895000E-8	0.001197
4.900000E-8	0.001091
4.905000E-8	0.001228
4.910000E-8	0.001225
4.915000E-8	0.001284
4.920000E-8	0.001250
4.925000E-8	0.001441
4.930000E-8	0.001456
4.935000E-8	0.001522
4.940000E-8	0.001669
4.945000E-8	0.001725
4.950000E-8	0.001722
4.955000E-8	0.001841
4.960000E-8	0.001850
4.965000E-8	0.001975
4.970000E-8	0.001972
4.975000E-8	0.001966
4.980000E-8	0.001966
4.985000E-8	0.001959
4.990000E-8	0.001794
4.995000E-8	0.001769
5.000000E-8	0.001631
5.005000E-8	0.001484
5.010000E-8	0.001247
5.015000E-8	0.001181
5.020000E-8	0.001094
5.025000E-8	0.001150
5.030000E-8	0.000850
5.035000E-8	0.000866
5.040000E-8	0.000856
5.045000E-8	0.000897
5.050000E-8	0.000928
5.055000E-8	0.000966
5.060000E-8	0.001194
5.065000E-8	0.001384
5.070000E-8	0.001513
5.075000E-8	0.001647
5.080000E-8	0.001619
5.085000E-8	0.001788
5.090000E-8	0.001725
5.095000E-8	0.001853
5.100000E-8	0.001853
5.105000E-8	0.001934
5.110000E-8	0.001963
5.115000E-8	0.001922
5.120000E-8	0.001794
5.125000E-8	0.001656
5.130000E-8	0.001513
5.135000E-8	0.001325
5.140000E-8	0.001247
5.145000E-8	0.001119
5.150000E-8	0.000919
5.155000E-8	0.000925
5.160000E-8	0.000747
5.165000E-8	0.000734
5.170000E-8	0.000784
5.175000E-8	0.000834
5.180000E-8	0.000953
5.185000E-8	0.001069
5.190000E-8	0.001225
5.195000E-8	0.001369
5.200000E-8	0.001556
5.205000E-8	0.001778
5.210000E-8	0.001781
5.215000E-8	0.001956
5.220000E-8	0.001981
5.225000E-8	0.002047
5.230000E-8	0.001956
5.235000E-8	0.001966
5.240000E-8	0.001853
5.245000E-8	0.001784
5.250000E-8	0.001694
5.255000E-8	0.001547
5.260000E-8	0.001384
5.265000E-8	0.001278
5.270000E-8	0.001072
5.275000E-8	0.001078
5.280000E-8	0.000956
5.285000E-8	0.000969
5.290000E-8	0.000953
5.295000E-8	0.000978
5.300000E-8	0.001103
5.305000E-8	0.001119
5.310000E-8	0.001063
5.315000E-8	0.001222
5.320000E-8	0.001288
5.325000E-8	0.001538
5.330000E-8	0.001591
5.335000E-8	0.001650
5.340000E-8	0.001684
5.345000E-8	0.001803
5.350000E-8	0.001828
5.355000E-8	0.001816
5.360000E-8	0.001772
5.365000E-8	0.001666
5.370000E-8	0.001763
5.375000E-8	0.001709
5.380000E-8	0.001603
5.385000E-8	0.001384
5.390000E-8	0.001278
5.395000E-8	0.001319
5.400000E-8	0.001159
5.405000E-8	0.001081
5.410000E-8	0.001106
5.415000E-8	0.001187
5.420000E-8	0.001278
5.425000E-8	0.001359
5.430000E-8	0.001456
5.435000E-8	0.001538
5.440000E-8	0.001622
5.445000E-8	0.001763
5.450000E-8	0.001719
5.455000E-8	0.001791
5.460000E-8	0.001803
5.465000E-8	0.001931
5.470000E-8	0.001884
5.475000E-8	0.001847
5.480000E-8	0.001816
5.485000E-8	0.001769
5.490000E-8	0.001709
5.495000E-8	0.001659
5.500000E-8	0.001591
5.505000E-8	0.001606
5.510000E-8	0.001413
5.515000E-8	0.001338
5.520000E-8	0.001234
5.525000E-8	0.001191
5.530000E-8	0.001122
5.535000E-8	0.001144
5.540000E-8	0.001075
5.545000E-8	0.001066
5.550000E-8	0.000941
5.555000E-8	0.000991
5.560000E-8	0.001028
5.565000E-8	0.001147
5.570000E-8	0.001100
5.575000E-8	0.001228
5.580000E-8	0.001219
5.585000E-8	0.001397
5.590000E-8	0.001588
5.595000E-8	0.001678
5.600000E-8	0.001619
5.605000E-8	0.001781
5.610000E-8	0.001847
5.615000E-8	0.001903
5.620000E-8	0.001797
5.625000E-8	0.001778
5.630000E-8	0.001647
5.635000E-8	0.001516
5.640000E-8	0.001300
5.645000E-8	0.001213
5.650000E-8	0.001094
5.655000E-8	0.001009
5.660000E-8	0.001041
5.665000E-8	0.001006
5.670000E-8	0.000938
5.675000E-8	0.000972
5.680000E-8	0.000988
5.685000E-8	0.001119
5.690000E-8	0.001091
5.695000E-8	0.001222
5.700000E-8	0.001319
5.705000E-8	0.001428
5.710000E-8	0.001453
5.715000E-8	0.001556
5.720000E-8	0.001556
5.725000E-8	0.001634
5.730000E-8	0.001722
5.735000E-8	0.001803
5.740000E-8	0.001769
5.745000E-8	0.001816
5.750000E-8	0.001687
5.755000E-8	0.001616
5.760000E-8	0.001450
5.765000E-8	0.001256
5.770000E-8	0.001150
5.775000E-8	0.001131
5.780000E-8	0.001203
5.785000E-8	0.001266
5.790000E-8	0.001163
5.795000E-8	0.001238
5.800000E-8	0.001269
5.805000E-8	0.001344
5.810000E-8	0.001416
5.815000E-8	0.001453
5.820000E-8	0.001569
5.825000E-8	0.001541
5.830000E-8	0.001569
5.835000E-8	0.001675
5.840000E-8	0.001703
5.845000E-8	0.001775
5.850000E-8	0.001778
5.855000E-8	0.001716
5.860000E-8	0.001722
5.865000E-8	0.001678
5.870000E-8	0.001594
5.875000E-8	0.001519
5.880000E-8	0.001413
5.885000E-8	0.001428
5.890000E-8	0.001244
5.895000E-8	0.001144
5.900000E-8	0.001066
5.905000E-8	0.001069
5.910000E-8	0.000884
5.915000E-8	0.000988
5.920000E-8	0.001028
5.925000E-8	0.000984
5.930000E-8	0.000900
5.935000E-8	0.001047
5.940000E-8	0.001066
5.945000E-8	0.001128
5.950000E-8	0.001169
5.955000E-8	0.001369
5.960000E-8	0.001384
5.965000E-8	0.001503
5.970000E-8	0.001516
5.975000E-8	0.001609
5.980000E-8	0.001656
5.985000E-8	0.001750
5.990000E-8	0.001747
5.995000E-8	0.001644
6.000000E-8	0.001572
6.005000E-8	0.001547
6.010000E-8	0.001447
6.015000E-8	0.001409
6.020000E-8	0.001319
6.025000E-8	0.001297
6.030000E-8	0.001128
6.035000E-8	0.001253
6.040000E-8	0.001091
6.045000E-8	0.001094
6.050000E-8	0.001128
6.055000E-8	0.001181
6.060000E-8	0.001297
6.065000E-8	0.001450
6.070000E-8	0.001619
6.075000E-8	0.001691
6.080000E-8	0.001769
6.085000E-8	0.001913
6.090000E-8	0.001909
6.095000E-8	0.001850
6.100000E-8	0.001809
6.105000E-8	0.001791
6.110000E-8	0.001663
6.115000E-8	0.001531
6.120000E-8	0.001494
6.125000E-8	0.001425
6.130000E-8	0.001259
6.135000E-8	0.001300
6.140000E-8	0.001228
6.145000E-8	0.001278
6.150000E-8	0.001241
6.155000E-8	0.001266
6.160000E-8	0.001166
6.165000E-8	0.001200
6.170000E-8	0.001066
6.175000E-8	0.001112
6.180000E-8	0.001075
6.185000E-8	0.001134
6.190000E-8	0.001075
6.195000E-8	0.001309
6.200000E-8	0.001244
6.205000E-8	0.001378
6.210000E-8	0.001416
6.215000E-8	0.001553
6.220000E-8	0.001609
6.225000E-8	0.001700
6.230000E-8	0.001694
6.235000E-8	0.001663
6.240000E-8	0.001672
6.245000E-8	0.001678
6.250000E-8	0.001594
6.255000E-8	0.001484
6.260000E-8	0.001488
6.265000E-8	0.001444
6.270000E-8	0.001388
6.275000E-8	0.001384
6.280000E-8	0.001394
6.285000E-8	0.001422
6.290000E-8	0.001378
6.295000E-8	0.001469
6.300000E-8	0.001484
6.305000E-8	0.001516
6.310000E-8	0.001566
6.315000E-8	0.001597
6.320000E-8	0.001594
6.325000E-8	0.001681
6.330000E-8	0.001700
6.335000E-8	0.001828
6.340000E-8	0.001778
6.345000E-8	0.001791
6.350000E-8	0.001741
6.355000E-8	0.001725
6.360000E-8	0.001706
6.365000E-8	0.001797
6.370000E-8	0.001675
6.375000E-8	0.001606
6.380000E-8	0.001528
6.385000E-8	0.001653
6.390000E-8	0.001431
6.395000E-8	0.001366
6.400000E-8	0.001269
6.405000E-8	0.001181
6.410000E-8	0.001069
6.415000E-8	0.001038
6.420000E-8	0.000916
6.425000E-8	0.000922
6.430000E-8	0.001053
6.435000E-8	0.001253
6.440000E-8	0.001219
6.445000E-8	0.001362
6.450000E-8	0.001369
6.455000E-8	0.001513
6.460000E-8	0.001559
6.465000E-8	0.001678
6.470000E-8	0.001769
6.475000E-8	0.001806
6.480000E-8	0.001853
6.485000E-8	0.001856
6.490000E-8	0.001881
6.495000E-8	0.001856
6.500000E-8	0.001731
6.505000E-8	0.001581
6.510000E-8	0.001406
6.515000E-8	0.001294
6.520000E-8	0.001228
6.525000E-8	0.001072
6.530000E-8	0.001012
6.535000E-8	0.000934
6.540000E-8	0.000859
6.545000E-8	0.000906
6.550000E-8	0.000797
6.555000E-8	0.000813
6.560000E-8	0.000806
6.565000E-8	0.000925
6.570000E-8	0.001003
6.575000E-8	0.001184
6.580000E-8	0.001328
6.585000E-8	0.001419
6.590000E-8	0.001656
6.595000E-8	0.001738
6.600000E-8	0.001644
6.605000E-8	0.001772
6.610000E-8	0.001778
6.615000E-8	0.001694
6.620000E-8	0.001538
6.625000E-8	0.001472
6.630000E-8	0.001325
6.635000E-8	0.001294
6.640000E-8	0.001291
6.645000E-8	0.001284
6.650000E-8	0.001112
6.655000E-8	0.001184
6.660000E-8	0.001138
6.665000E-8	0.001228
6.670000E-8	0.001228
6.675000E-8	0.001222
6.680000E-8	0.001244
6.685000E-8	0.001372
6.690000E-8	0.001434
6.695000E-8	0.001478
6.700000E-8	0.001506
6.705000E-8	0.001600
6.710000E-8	0.001663
6.715000E-8	0.001694
6.720000E-8	0.001794
6.725000E-8	0.001738
6.730000E-8	0.001722
6.735000E-8	0.001706
6.740000E-8	0.001600
6.745000E-8	0.001656
6.750000E-8	0.001591
6.755000E-8	0.001497
6.760000E-8	0.001319
6.765000E-8	0.001263
6.770000E-8	0.001141
6.775000E-8	0.001047
6.780000E-8	0.000903
6.785000E-8	0.000884
6.790000E-8	0.000919
6.795000E-8	0.000966
6.800000E-8	0.001006
6.805000E-8	0.001097
6.810000E-8	0.001278
6.815000E-8	0.001347
6.820000E-8	0.001463
6.825000E-8	0.001578
6.830000E-8	0.001644
6.835000E-8	0.001687
6.840000E-8	0.001697
6.845000E-8	0.001738
6.850000E-8	0.001656
6.855000E-8	0.001769
6.860000E-8	0.001838
6.865000E-8	0.001816
6.870000E-8	0.001816
6.875000E-8	0.001781
6.880000E-8	0.001659
6.885000E-8	0.001663
6.890000E-8	0.001619
6.895000E-8	0.001663
6.900000E-8	0.001684
6.905000E-8	0.001697
6.910000E-8	0.001622
6.915000E-8	0.001672
6.920000E-8	0.001631
6.925000E-8	0.001578
6.930000E-8	0.001553
6.935000E-8	0.001550
6.940000E-8	0.001634
6.945000E-8	0.001722
6.950000E-8	0.001653
6.955000E-8	0.001644
6.960000E-8	0.001569
6.965000E-8	0.001647
6.970000E-8	0.001569
6.975000E-8	0.001641
6.980000E-8	0.001609
6.985000E-8	0.001694
6.990000E-8	0.001656
6.995000E-8	0.001706
7.000000E-8	0.001628
7.005000E-8	0.001538
7.010000E-8	0.001456
7.015000E-8	0.001344
7.020000E-8	0.001278
7.025000E-8	0.001328
7.030000E-8	0.001222
7.035000E-8	0.001263
7.040000E-8	0.001266
7.045000E-8	0.001322
7.050000E-8	0.001241
7.055000E-8	0.001359
7.060000E-8	0.001328
7.065000E-8	0.001419
7.070000E-8	0.001338
7.075000E-8	0.001472
7.080000E-8	0.001428
7.085000E-8	0.001419
7.090000E-8	0.001459
7.095000E-8	0.001575
7.100000E-8	0.001584
7.105000E-8	0.001644
7.110000E-8	0.001628
7.115000E-8	0.001625
7.120000E-8	0.001578
7.125000E-8	0.001584
7.130000E-8	0.001494
7.135000E-8	0.001503
7.140000E-8	0.001359
7.145000E-8	0.001353
7.150000E-8	0.001231
7.155000E-8	0.001356
7.160000E-8	0.001325
7.165000E-8	0.001344
7.170000E-8	0.001359
7.175000E-8	0.001431
7.180000E-8	0.001356
7.185000E-8	0.001541
7.190000E-8	0.001506
7.195000E-8	0.001622
7.200000E-8	0.001612
7.205000E-8	0.001681
7.210000E-8	0.001738
7.215000E-8	0.001731
7.220000E-8	0.001716
7.225000E-8	0.001778
7.230000E-8	0.001647
7.235000E-8	0.001678
7.240000E-8	0.001647
7.245000E-8	0.001694
7.250000E-8	0.001588
7.255000E-8	0.001594
7.260000E-8	0.001553
7.265000E-8	0.001578
7.270000E-8	0.001650
7.275000E-8	0.001672
7.280000E-8	0.001459
7.285000E-8	0.001372
7.290000E-8	0.001256
7.295000E-8	0.001138
7.300000E-8	0.001069
7.305000E-8	0.001200
7.310000E-8	0.001059
7.315000E-8	0.001159
7.320000E-8	0.001225
7.325000E-8	0.001378
7.330000E-8	0.001541
7.335000E-8	0.001681
7.340000E-8	0.001663
7.345000E-8	0.001738
7.350000E-8	0.001725
7.355000E-8	0.001788
7.360000E-8	0.001750
7.365000E-8	0.001716
7.370000E-8	0.001656
7.375000E-8	0.001584
7.380000E-8	0.001344
7.385000E-8	0.001256
7.390000E-8	0.001150
7.395000E-8	0.001278
7.400000E-8	0.001134
7.405000E-8	0.001084
7.410000E-8	0.000975
7.415000E-8	0.001122
7.420000E-8	0.001103
7.425000E-8	0.001153
7.430000E-8	0.001147
7.435000E-8	0.001241
7.440000E-8	0.001284
7.445000E-8	0.001359
7.450000E-8	0.001394
7.455000E-8	0.001425
7.460000E-8	0.001509
7.465000E-8	0.001566
7.470000E-8	0.001466
7.475000E-8	0.001588
7.480000E-8	0.001525
7.485000E-8	0.001488
7.490000E-8	0.001513
7.495000E-8	0.001491
7.500000E-8	0.001575
7.505000E-8	0.001584
7.510000E-8	0.001494
7.515000E-8	0.001369
7.520000E-8	0.001263
7.525000E-8	0.001359
7.530000E-8	0.001331
7.535000E-8	0.001200
7.540000E-8	0.001203
7.545000E-8	0.001259
7.550000E-8	0.001228
7.555000E-8	0.001250
7.560000E-8	0.001206
7.565000E-8	0.001375
7.570000E-8	0.001400
7.575000E-8	0.001478
7.580000E-8	0.001503
7.585000E-8	0.001550
7.590000E-8	0.001588
7.595000E-8	0.001622
7.600000E-8	0.001531
7.605000E-8	0.001550
7.610000E-8	0.001481
7.615000E-8	0.001594
7.620000E-8	0.001475
7.625000E-8	0.001519
7.630000E-8	0.001431
7.635000E-8	0.001472
7.640000E-8	0.001397
7.645000E-8	0.001331
7.650000E-8	0.001222
7.655000E-8	0.001281
7.660000E-8	0.001325
7.665000E-8	0.001484
7.670000E-8	0.001403
7.675000E-8	0.001463
7.680000E-8	0.001566
7.685000E-8	0.001553
7.690000E-8	0.001394
7.695000E-8	0.001444
7.700000E-8	0.001434
7.705000E-8	0.001409
7.710000E-8	0.001409
7.715000E-8	0.001394
7.720000E-8	0.001428
7.725000E-8	0.001450
7.730000E-8	0.001503
7.735000E-8	0.001606
7.740000E-8	0.001588
7.745000E-8	0.001744
7.750000E-8	0.001588
7.755000E-8	0.001747
7.760000E-8	0.001650
7.765000E-8	0.001525
7.770000E-8	0.001378
7.775000E-8	0.001397
7.780000E-8	0.001225
7.785000E-8	0.001206
7.790000E-8	0.001175
7.795000E-8	0.001172
7.800000E-8	0.001147
7.805000E-8	0.001250
7.810000E-8	0.001319
7.815000E-8	0.001475
7.820000E-8	0.001406
7.825000E-8	0.001572
7.830000E-8	0.001678
7.835000E-8	0.001719
7.840000E-8	0.001609
7.845000E-8	0.001553
7.850000E-8	0.001509
7.855000E-8	0.001594
7.860000E-8	0.001444
7.865000E-8	0.001447
7.870000E-8	0.001444
7.875000E-8	0.001388
7.880000E-8	0.001394
7.885000E-8	0.001475
7.890000E-8	0.001450
7.895000E-8	0.001578
7.900000E-8	0.001578
7.905000E-8	0.001606
7.910000E-8	0.001597
7.915000E-8	0.001612
7.920000E-8	0.001513
7.925000E-8	0.001509
7.930000E-8	0.001400
7.935000E-8	0.001450
7.940000E-8	0.001338
7.945000E-8	0.001416
7.950000E-8	0.001437
7.955000E-8	0.001466
7.960000E-8	0.001403
7.965000E-8	0.001566
7.970000E-8	0.001519
7.975000E-8	0.001541
7.980000E-8	0.001409
7.985000E-8	0.001425
7.990000E-8	0.001359
7.995000E-8	0.001437
8.000000E-8	0.001384
8.005000E-8	0.001406
8.010000E-8	0.001444
8.015000E-8	0.001409
8.020000E-8	0.001400
8.025000E-8	0.001425
8.030000E-8	0.001250
8.035000E-8	0.001191
8.040000E-8	0.001109
8.045000E-8	0.001138
8.050000E-8	0.001166
8.055000E-8	0.001213
8.060000E-8	0.001150
8.065000E-8	0.001163
8.070000E-8	0.001216
8.075000E-8	0.001381
8.080000E-8	0.001394
8.085000E-8	0.001469
8.090000E-8	0.001522
8.095000E-8	0.001609
8.100000E-8	0.001609
8.105000E-8	0.001756
8.110000E-8	0.001744
8.115000E-8	0.001772
8.120000E-8	0.001666
8.125000E-8	0.001606
8.130000E-8	0.001494
8.135000E-8	0.001472
8.140000E-8	0.001416
8.145000E-8	0.001425
8.150000E-8	0.001328
8.155000E-8	0.001372
8.160000E-8	0.001347
8.165000E-8	0.001431
8.170000E-8	0.001419
8.175000E-8	0.001453
8.180000E-8	0.001472
8.185000E-8	0.001525
8.190000E-8	0.001447
8.195000E-8	0.001506
8.200000E-8	0.001647
8.205000E-8	0.001763
8.210000E-8	0.001644
8.215000E-8	0.001788
8.220000E-8	0.001850
8.225000E-8	0.001850
8.230000E-8	0.001650
8.235000E-8	0.001684
8.240000E-8	0.001716
8.245000E-8	0.001597
8.250000E-8	0.001513
8.255000E-8	0.001500
8.260000E-8	0.001428
8.265000E-8	0.001450
8.270000E-8	0.001362
8.275000E-8	0.001391
8.280000E-8	0.001425
8.285000E-8	0.001437
8.290000E-8	0.001428
8.295000E-8	0.001453
8.300000E-8	0.001394
8.305000E-8	0.001388
8.310000E-8	0.001331
8.315000E-8	0.001316
8.320000E-8	0.001209
8.325000E-8	0.001356
8.330000E-8	0.001272
8.335000E-8	0.001300
8.340000E-8	0.001281
8.345000E-8	0.001388
8.350000E-8	0.001322
8.355000E-8	0.001416
8.360000E-8	0.001478
8.365000E-8	0.001563
8.370000E-8	0.001494
8.375000E-8	0.001559
8.380000E-8	0.001534
8.385000E-8	0.001441
8.390000E-8	0.001362
8.395000E-8	0.001319
8.400000E-8	0.001134
8.405000E-8	0.001094
8.410000E-8	0.001009
8.415000E-8	0.001044
8.420000E-8	0.001069
8.425000E-8	0.001072
8.430000E-8	0.001016
8.435000E-8	0.001128
8.440000E-8	0.001194
8.445000E-8	0.001250
8.450000E-8	0.001325
8.455000E-8	0.001359
8.460000E-8	0.001416
8.465000E-8	0.001538
8.470000E-8	0.001622
8.475000E-8	0.001647
8.480000E-8	0.001625
8.485000E-8	0.001722
8.490000E-8	0.001666
8.495000E-8	0.001653
8.500000E-8	0.001584
8.505000E-8	0.001616
8.510000E-8	0.001478
8.515000E-8	0.001550
8.520000E-8	0.001506
8.525000E-8	0.001534
8.530000E-8	0.001372
8.535000E-8	0.001378
8.540000E-8	0.001331
8.545000E-8	0.001331
8.550000E-8	0.001316
8.555000E-8	0.001259
8.560000E-8	0.001184
8.565000E-8	0.001256
8.570000E-8	0.001228
8.575000E-8	0.001309
8.580000E-8	0.001453
8.585000E-8	0.001597
8.590000E-8	0.001684
8.595000E-8	0.001666
8.600000E-8	0.001628
8.605000E-8	0.001725
8.610000E-8	0.001684
8.615000E-8	0.001675
8.620000E-8	0.001625
8.625000E-8	0.001641
8.630000E-8	0.001503
8.635000E-8	0.001584
8.640000E-8	0.001588
8.645000E-8	0.001616
8.650000E-8	0.001559
8.655000E-8	0.001503
8.660000E-8	0.001406
8.665000E-8	0.001441
8.670000E-8	0.001297
8.675000E-8	0.001281
8.680000E-8	0.001266
8.685000E-8	0.001187
8.690000E-8	0.001025
8.695000E-8	0.001063
8.700000E-8	0.000997
8.705000E-8	0.001147
8.710000E-8	0.001356
8.715000E-8	0.001413
8.720000E-8	0.001481
8.725000E-8	0.001566
8.730000E-8	0.001700
8.735000E-8	0.001806
8.740000E-8	0.001734
8.745000E-8	0.001800
8.750000E-8	0.001647
8.755000E-8	0.001675
8.760000E-8	0.001569
8.765000E-8	0.001531
8.770000E-8	0.001456
8.775000E-8	0.001500
8.780000E-8	0.001494
8.785000E-8	0.001497
8.790000E-8	0.001434
8.795000E-8	0.001522
8.800000E-8	0.001569
8.805000E-8	0.001625
8.810000E-8	0.001669
8.815000E-8	0.001672
8.820000E-8	0.001641
8.825000E-8	0.001706
8.830000E-8	0.001547
8.835000E-8	0.001569
8.840000E-8	0.001506
8.845000E-8	0.001538
8.850000E-8	0.001491
8.855000E-8	0.001481
8.860000E-8	0.001506
8.865000E-8	0.001528
8.870000E-8	0.001606
8.875000E-8	0.001656
8.880000E-8	0.001681
8.885000E-8	0.001788
8.890000E-8	0.001756
8.895000E-8	0.001750
8.900000E-8	0.001694
8.905000E-8	0.001678
8.910000E-8	0.001550
8.915000E-8	0.001494
8.920000E-8	0.001309
8.925000E-8	0.001362
8.930000E-8	0.001213
8.935000E-8	0.001187
8.940000E-8	0.001194
8.945000E-8	0.001203
8.950000E-8	0.001263
8.955000E-8	0.001356
8.960000E-8	0.001378
8.965000E-8	0.001441
8.970000E-8	0.001628
8.975000E-8	0.001634
8.980000E-8	0.001591
8.985000E-8	0.001578
8.990000E-8	0.001522
8.995000E-8	0.001444
9.000000E-8	0.001466
9.005000E-8	0.001459
9.010000E-8	0.001378
9.015000E-8	0.001225
9.020000E-8	0.001241
9.025000E-8	0.001244
9.030000E-8	0.001225
9.035000E-8	0.001391
9.040000E-8	0.001406
9.045000E-8	0.001369
9.050000E-8	0.001359
9.055000E-8	0.001453
9.060000E-8	0.001519
9.065000E-8	0.001388
9.070000E-8	0.001344
9.075000E-8	0.001416
9.080000E-8	0.001416
9.085000E-8	0.001534
9.090000E-8	0.001463
9.095000E-8	0.001559
9.100000E-8	0.001472
9.105000E-8	0.001547
9.110000E-8	0.001431
9.115000E-8	0.001459
9.120000E-8	0.001469
9.125000E-8	0.001403
9.130000E-8	0.001381
9.135000E-8	0.001359
9.140000E-8	0.001338
9.145000E-8	0.001400
9.150000E-8	0.001409
9.155000E-8	0.001431
9.160000E-8	0.001466
9.165000E-8	0.001484
9.170000E-8	0.001406
9.175000E-8	0.001409
9.180000E-8	0.001397
9.185000E-8	0.001400
9.190000E-8	0.001300
9.195000E-8	0.001328
9.200000E-8	0.001416
9.205000E-8	0.001478
9.210000E-8	0.001413
9.215000E-8	0.001528
9.220000E-8	0.001594
9.225000E-8	0.001719
9.230000E-8	0.001750
9.235000E-8	0.001763
9.240000E-8	0.001628
9.245000E-8	0.001534
9.250000E-8	0.001397
9.255000E-8	0.001531
9.260000E-8	0.001478
9.265000E-8	0.001434
9.270000E-8	0.001388
9.275000E-8	0.001450
9.280000E-8	0.001362
9.285000E-8	0.001437
9.290000E-8	0.001406
9.295000E-8	0.001469
9.300000E-8	0.001313
9.305000E-8	0.001294
9.310000E-8	0.001266
9.315000E-8	0.001303
9.320000E-8	0.001247
9.325000E-8	0.001347
9.330000E-8	0.001313
9.335000E-8	0.001178
9.340000E-8	0.001278
9.345000E-8	0.001288
9.350000E-8	0.001325
9.355000E-8	0.001459
9.360000E-8	0.001431
9.365000E-8	0.001603
9.370000E-8	0.001581
9.375000E-8	0.001559
9.380000E-8	0.001422
9.385000E-8	0.001519
9.390000E-8	0.001391
9.395000E-8	0.001334
9.400000E-8	0.001141
9.405000E-8	0.001191
9.410000E-8	0.001153
9.415000E-8	0.001175
9.420000E-8	0.001075
9.425000E-8	0.001209
9.430000E-8	0.001241
9.435000E-8	0.001222
9.440000E-8	0.001147
9.445000E-8	0.001238
9.450000E-8	0.001278
9.455000E-8	0.001309
9.460000E-8	0.001225
9.465000E-8	0.001291
9.470000E-8	0.001263
9.475000E-8	0.001350
9.480000E-8	0.001303
9.485000E-8	0.001272
9.490000E-8	0.001234
9.495000E-8	0.001303
9.500000E-8	0.001372
9.505000E-8	0.001359
9.510000E-8	0.001375
9.515000E-8	0.001366
9.520000E-8	0.001319
9.525000E-8	0.001284
9.530000E-8	0.001088
9.535000E-8	0.001175
9.540000E-8	0.001109
9.545000E-8	0.001097
9.550000E-8	0.001122
9.555000E-8	0.001300
9.560000E-8	0.001281
9.565000E-8	0.001191
9.570000E-8	0.001116
9.575000E-8	0.001159
9.580000E-8	0.001319
9.585000E-8	0.001397
9.590000E-8	0.001413
9.595000E-8	0.001444
9.600000E-8	0.001441
9.605000E-8	0.001472
9.610000E-8	0.001419
9.615000E-8	0.001463
9.620000E-8	0.001563
9.625000E-8	0.001612
9.630000E-8	0.001625
9.635000E-8	0.001622
9.640000E-8	0.001638
9.645000E-8	0.001609
9.650000E-8	0.001513
9.655000E-8	0.001659
9.660000E-8	0.001559
9.665000E-8	0.001581
9.670000E-8	0.001475
9.675000E-8	0.001447
9.680000E-8	0.001388
9.685000E-8	0.001359
9.690000E-8	0.001303
9.695000E-8	0.001356
9.700000E-8	0.001459
9.705000E-8	0.001481
9.710000E-8	0.001506
9.715000E-8	0.001631
9.720000E-8	0.001700
9.725000E-8	0.001684
9.730000E-8	0.001706
9.735000E-8	0.001713
9.740000E-8	0.001691
9.745000E-8	0.001603
9.750000E-8	0.001581
9.755000E-8	0.001553
9.760000E-8	0.001500
9.765000E-8	0.001506
9.770000E-8	0.001506
9.775000E-8	0.001516
9.780000E-8	0.001450
9.785000E-8	0.001381
9.790000E-8	0.001450
9.795000E-8	0.001328
9.800000E-8	0.001272
9.805000E-8	0.001222
9.810000E-8	0.001256
9.815000E-8	0.001228
9.820000E-8	0.001184
9.825000E-8	0.001191
9.830000E-8	0.001163
9.835000E-8	0.001216
9.840000E-8	0.001284
9.845000E-8	0.001422
9.850000E-8	0.001459
9.855000E-8	0.001472
9.860000E-8	0.001372
9.865000E-8	0.001522
9.870000E-8	0.001450
9.875000E-8	0.001563
9.880000E-8	0.001591
9.885000E-8	0.001550
9.890000E-8	0.001472
9.895000E-8	0.001519
9.900000E-8	0.001481
9.905000E-8	0.001513
9.910000E-8	0.001481
9.915000E-8	0.001566
9.920000E-8	0.001488
9.925000E-8	0.001472
9.930000E-8	0.001359
9.935000E-8	0.001294
9.940000E-8	0.001216
9.945000E-8	0.001331
9.950000E-8	0.001256
9.955000E-8	0.001328
9.960000E-8	0.001331
9.965000E-8	0.001413
9.970000E-8	0.001391
9.975000E-8	0.001491
9.980000E-8	0.001381
9.985000E-8	0.001406
9.990000E-8	0.001362
9.995000E-8	0.001281
