LabVIEW Measurement	
Writer_Version	2
Reader_Version	2
Separator	Tab
Decimal_Separator	.
Multi_Headings	No
X_Columns	Multi
Time_Pref	Relative
Operator	TG lab
Date	2015/03/06
Time	19:41:15.4832587242126464844
***End_of_Header***	
	
Channels	1	
Samples	2000	
Date	2015/03/06	
Time	19:41:15.4832587242126464844	
X_Dimension	Time	
X0	0.0000000000000000E+0	
Delta_X	5.000000E-11	
***End_of_Header***		
X_Value	Untitled	Comment
0.000000	0.002766
5.000000E-11	0.002816
1.000000E-10	0.002719
1.500000E-10	0.002822
2.000000E-10	0.002753
2.500000E-10	0.002884
3.000000E-10	0.002713
3.500000E-10	0.002662
4.000000E-10	0.002572
4.500000E-10	0.002375
5.000000E-10	0.002159
5.500000E-10	0.002147
6.000000E-10	0.002175
6.500000E-10	0.002125
7.000000E-10	0.002128
7.500000E-10	0.002144
8.000000E-10	0.002028
8.500000E-10	0.002069
9.000000E-10	0.002197
9.500000E-10	0.002237
1.000000E-9	0.002206
1.050000E-9	0.002250
1.100000E-9	0.002134
1.150000E-9	0.002091
1.200000E-9	0.001956
1.250000E-9	0.001941
1.300000E-9	0.001816
1.350000E-9	0.001931
1.400000E-9	0.001900
1.450000E-9	0.001931
1.500000E-9	0.001950
1.550000E-9	0.001956
1.600000E-9	0.002063
1.650000E-9	0.002000
1.700000E-9	0.002041
1.750000E-9	0.002134
1.800000E-9	0.002150
1.850000E-9	0.002166
1.900000E-9	0.002203
1.950000E-9	0.002219
2.000000E-9	0.002131
2.050000E-9	0.002209
2.100000E-9	0.002166
2.150000E-9	0.002200
2.200000E-9	0.002122
2.250000E-9	0.002125
2.300000E-9	0.002047
2.350000E-9	0.002178
2.400000E-9	0.002053
2.450000E-9	0.001953
2.500000E-9	0.001844
2.550000E-9	0.001931
2.600000E-9	0.001744
2.650000E-9	0.001906
2.700000E-9	0.001878
2.750000E-9	0.001831
2.800000E-9	0.001822
2.850000E-9	0.001822
2.900000E-9	0.001784
2.950000E-9	0.001766
3.000000E-9	0.001638
3.050000E-9	0.001628
3.100000E-9	0.001616
3.150000E-9	0.001669
3.200000E-9	0.001619
3.250000E-9	0.001578
3.300000E-9	0.001556
3.350000E-9	0.001516
3.400000E-9	0.001488
3.450000E-9	0.001606
3.500000E-9	0.001600
3.550000E-9	0.001603
3.600000E-9	0.001603
3.650000E-9	0.001591
3.700000E-9	0.001513
3.750000E-9	0.001556
3.800000E-9	0.001522
3.850000E-9	0.001531
3.900000E-9	0.001416
3.950000E-9	0.001409
4.000000E-9	0.001341
4.050000E-9	0.001469
4.100000E-9	0.001528
4.150000E-9	0.001647
4.200000E-9	0.001713
4.250000E-9	0.001731
4.300000E-9	0.001622
4.350000E-9	0.001694
4.400000E-9	0.001691
4.450000E-9	0.001728
4.500000E-9	0.001600
4.550000E-9	0.001553
4.600000E-9	0.001441
4.650000E-9	0.001303
4.700000E-9	0.001069
4.750000E-9	0.000903
4.800000E-9	0.000500
4.850000E-9	-8.125000E-5
4.900000E-9	-0.000888
4.950000E-9	-0.001884
5.000000E-9	-0.003188
5.050000E-9	-0.004816
5.100000E-9	-0.006797
5.150000E-9	-0.009137
5.200000E-9	-0.011928
5.250000E-9	-0.014747
5.300000E-9	-0.017959
5.350000E-9	-0.020941
5.400000E-9	-0.023750
5.450000E-9	-0.026175
5.500000E-9	-0.028238
5.550000E-9	-0.029728
5.600000E-9	-0.030834
5.650000E-9	-0.031244
5.700000E-9	-0.031284
5.750000E-9	-0.030769
5.800000E-9	-0.029916
5.850000E-9	-0.028706
5.900000E-9	-0.027094
5.950000E-9	-0.025478
6.000000E-9	-0.023622
6.050000E-9	-0.021847
6.100000E-9	-0.020034
6.150000E-9	-0.018413
6.200000E-9	-0.017153
6.250000E-9	-0.016172
6.300000E-9	-0.015550
6.350000E-9	-0.015363
6.400000E-9	-0.015441
6.450000E-9	-0.015903
6.500000E-9	-0.016519
6.550000E-9	-0.017294
6.600000E-9	-0.018147
6.650000E-9	-0.018966
6.700000E-9	-0.019750
6.750000E-9	-0.020397
6.800000E-9	-0.020834
6.850000E-9	-0.020988
6.900000E-9	-0.021000
6.950000E-9	-0.020656
7.000000E-9	-0.020313
7.050000E-9	-0.019659
7.100000E-9	-0.018697
7.150000E-9	-0.017609
7.200000E-9	-0.016284
7.250000E-9	-0.014947
7.300000E-9	-0.013494
7.350000E-9	-0.012009
7.400000E-9	-0.010697
7.450000E-9	-0.009447
7.500000E-9	-0.008472
7.550000E-9	-0.007697
7.600000E-9	-0.007372
7.650000E-9	-0.007231
7.700000E-9	-0.007456
7.750000E-9	-0.008059
7.800000E-9	-0.008756
7.850000E-9	-0.009547
7.900000E-9	-0.010484
7.950000E-9	-0.011434
8.000000E-9	-0.012384
8.050000E-9	-0.013159
8.100000E-9	-0.013684
8.150000E-9	-0.013972
8.200000E-9	-0.013944
8.250000E-9	-0.013562
8.300000E-9	-0.013041
8.350000E-9	-0.012088
8.400000E-9	-0.010994
8.450000E-9	-0.009797
8.500000E-9	-0.008625
8.550000E-9	-0.007300
8.600000E-9	-0.006106
8.650000E-9	-0.004850
8.700000E-9	-0.003916
8.750000E-9	-0.003197
8.800000E-9	-0.002603
8.850000E-9	-0.002375
8.900000E-9	-0.002519
8.950000E-9	-0.002803
9.000000E-9	-0.003381
9.050000E-9	-0.004156
9.100000E-9	-0.005178
9.150000E-9	-0.006056
9.200000E-9	-0.007016
9.250000E-9	-0.007972
9.300000E-9	-0.008788
9.350000E-9	-0.009416
9.400000E-9	-0.009913
9.450000E-9	-0.010122
9.500000E-9	-0.010131
9.550000E-9	-0.009659
9.600000E-9	-0.008919
9.650000E-9	-0.007909
9.700000E-9	-0.006938
9.750000E-9	-0.005634
9.800000E-9	-0.004294
9.850000E-9	-0.003012
9.900000E-9	-0.001894
9.950000E-9	-0.000800
1.000000E-8	-2.187500E-5
1.005000E-8	0.000563
1.010000E-8	0.000763
1.015000E-8	0.000684
1.020000E-8	0.000344
1.025000E-8	-0.000272
1.030000E-8	-0.001072
1.035000E-8	-0.001947
1.040000E-8	-0.003006
1.045000E-8	-0.004009
1.050000E-8	-0.004934
1.055000E-8	-0.005797
1.060000E-8	-0.006650
1.065000E-8	-0.006994
1.070000E-8	-0.007322
1.075000E-8	-0.007313
1.080000E-8	-0.007150
1.085000E-8	-0.006556
1.090000E-8	-0.005744
1.095000E-8	-0.004781
1.100000E-8	-0.003672
1.105000E-8	-0.002381
1.110000E-8	-0.001222
1.115000E-8	-9.375000E-6
1.120000E-8	0.000919
1.125000E-8	0.001919
1.130000E-8	0.002369
1.135000E-8	0.002678
1.140000E-8	0.002609
1.145000E-8	0.002231
1.150000E-8	0.001559
1.155000E-8	0.000766
1.160000E-8	-0.000291
1.165000E-8	-0.001313
1.170000E-8	-0.002497
1.175000E-8	-0.003494
1.180000E-8	-0.004428
1.185000E-8	-0.005163
1.190000E-8	-0.005600
1.195000E-8	-0.005841
1.200000E-8	-0.005728
1.205000E-8	-0.005522
1.210000E-8	-0.005000
1.215000E-8	-0.004134
1.220000E-8	-0.003191
1.225000E-8	-0.002203
1.230000E-8	-0.001172
1.235000E-8	5.312500E-5
1.240000E-8	0.001019
1.245000E-8	0.001856
1.250000E-8	0.002522
1.255000E-8	0.003078
1.260000E-8	0.003253
1.265000E-8	0.003350
1.270000E-8	0.003022
1.275000E-8	0.002525
1.280000E-8	0.001744
1.285000E-8	0.000891
1.290000E-8	-0.000178
1.295000E-8	-0.001156
1.300000E-8	-0.002134
1.305000E-8	-0.002944
1.310000E-8	-0.003728
1.315000E-8	-0.004112
1.320000E-8	-0.004363
1.325000E-8	-0.004444
1.330000E-8	-0.004134
1.335000E-8	-0.003647
1.340000E-8	-0.002806
1.345000E-8	-0.001941
1.350000E-8	-0.000900
1.355000E-8	0.000209
1.360000E-8	0.001319
1.365000E-8	0.002341
1.370000E-8	0.003316
1.375000E-8	0.004094
1.380000E-8	0.004500
1.385000E-8	0.004859
1.390000E-8	0.004825
1.395000E-8	0.004591
1.400000E-8	0.003978
1.405000E-8	0.003309
1.410000E-8	0.002300
1.415000E-8	0.001281
1.420000E-8	0.000147
1.425000E-8	-0.000888
1.430000E-8	-0.001809
1.435000E-8	-0.002694
1.440000E-8	-0.003484
1.445000E-8	-0.003869
1.450000E-8	-0.004034
1.455000E-8	-0.003859
1.460000E-8	-0.003481
1.465000E-8	-0.002706
1.470000E-8	-0.001863
1.475000E-8	-0.000719
1.480000E-8	0.000300
1.485000E-8	0.001550
1.490000E-8	0.002656
1.495000E-8	0.003666
1.500000E-8	0.004353
1.505000E-8	0.004881
1.510000E-8	0.005106
1.515000E-8	0.005122
1.520000E-8	0.004863
1.525000E-8	0.004141
1.530000E-8	0.003434
1.535000E-8	0.002572
1.540000E-8	0.001469
1.545000E-8	0.000434
1.550000E-8	-0.000638
1.555000E-8	-0.001522
1.560000E-8	-0.002297
1.565000E-8	-0.002841
1.570000E-8	-0.003147
1.575000E-8	-0.003109
1.580000E-8	-0.002944
1.585000E-8	-0.002494
1.590000E-8	-0.001934
1.595000E-8	-0.001025
1.600000E-8	-6.875000E-5
1.605000E-8	0.001041
1.610000E-8	0.002050
1.615000E-8	0.003184
1.620000E-8	0.004019
1.625000E-8	0.004769
1.630000E-8	0.005366
1.635000E-8	0.005641
1.640000E-8	0.005619
1.645000E-8	0.005434
1.650000E-8	0.004984
1.655000E-8	0.004387
1.660000E-8	0.003453
1.665000E-8	0.002587
1.670000E-8	0.001659
1.675000E-8	0.000650
1.680000E-8	-0.000250
1.685000E-8	-0.000988
1.690000E-8	-0.001594
1.695000E-8	-0.002103
1.700000E-8	-0.002303
1.705000E-8	-0.002144
1.710000E-8	-0.001972
1.715000E-8	-0.001372
1.720000E-8	-0.000553
1.725000E-8	0.000341
1.730000E-8	0.001284
1.735000E-8	0.002375
1.740000E-8	0.003325
1.745000E-8	0.004328
1.750000E-8	0.004984
1.755000E-8	0.005534
1.760000E-8	0.005797
1.765000E-8	0.005706
1.770000E-8	0.005541
1.775000E-8	0.005028
1.780000E-8	0.004303
1.785000E-8	0.003628
1.790000E-8	0.002625
1.795000E-8	0.001716
1.800000E-8	0.000709
1.805000E-8	-0.000134
1.810000E-8	-0.000866
1.815000E-8	-0.001366
1.820000E-8	-0.001913
1.825000E-8	-0.001944
1.830000E-8	-0.001922
1.835000E-8	-0.001666
1.840000E-8	-0.001184
1.845000E-8	-0.000394
1.850000E-8	0.000400
1.855000E-8	0.001366
1.860000E-8	0.002359
1.865000E-8	0.003363
1.870000E-8	0.004131
1.875000E-8	0.004875
1.880000E-8	0.005263
1.885000E-8	0.005591
1.890000E-8	0.005662
1.895000E-8	0.005469
1.900000E-8	0.005038
1.905000E-8	0.004463
1.910000E-8	0.003750
1.915000E-8	0.002813
1.920000E-8	0.001872
1.925000E-8	0.000978
1.930000E-8	3.125000E-6
1.935000E-8	-0.000644
1.940000E-8	-0.001409
1.945000E-8	-0.001703
1.950000E-8	-0.001800
1.955000E-8	-0.001691
1.960000E-8	-0.001403
1.965000E-8	-0.000850
1.970000E-8	-0.000172
1.975000E-8	0.000713
1.980000E-8	0.001666
1.985000E-8	0.002531
1.990000E-8	0.003378
1.995000E-8	0.004331
2.000000E-8	0.004931
2.005000E-8	0.005294
2.010000E-8	0.005597
2.015000E-8	0.005797
2.020000E-8	0.005563
2.025000E-8	0.005178
2.030000E-8	0.004725
2.035000E-8	0.004125
2.040000E-8	0.003087
2.045000E-8	0.002303
2.050000E-8	0.001350
2.055000E-8	0.000616
2.060000E-8	-9.062500E-5
2.065000E-8	-0.000697
2.070000E-8	-0.001153
2.075000E-8	-0.001281
2.080000E-8	-0.001409
2.085000E-8	-0.001219
2.090000E-8	-0.000922
2.095000E-8	-0.000300
2.100000E-8	0.000388
2.105000E-8	0.001175
2.110000E-8	0.002044
2.115000E-8	0.002925
2.120000E-8	0.003744
2.125000E-8	0.004431
2.130000E-8	0.004900
2.135000E-8	0.005338
2.140000E-8	0.005484
2.145000E-8	0.005469
2.150000E-8	0.005044
2.155000E-8	0.004644
2.160000E-8	0.003900
2.165000E-8	0.003075
2.170000E-8	0.002103
2.175000E-8	0.001388
2.180000E-8	0.000544
2.185000E-8	-0.000163
2.190000E-8	-0.000772
2.195000E-8	-0.001088
2.200000E-8	-0.001300
2.205000E-8	-0.001144
2.210000E-8	-0.000878
2.215000E-8	-0.000466
2.220000E-8	0.000131
2.225000E-8	0.000728
2.230000E-8	0.001556
2.235000E-8	0.002444
2.240000E-8	0.003334
2.245000E-8	0.004044
2.250000E-8	0.004722
2.255000E-8	0.005153
2.260000E-8	0.005422
2.265000E-8	0.005609
2.270000E-8	0.005534
2.275000E-8	0.005363
2.280000E-8	0.004841
2.285000E-8	0.004122
2.290000E-8	0.003350
2.295000E-8	0.002556
2.300000E-8	0.001775
2.305000E-8	0.001009
2.310000E-8	0.000456
2.315000E-8	-4.375000E-5
2.320000E-8	-0.000541
2.325000E-8	-0.000719
2.330000E-8	-0.000672
2.335000E-8	-0.000469
2.340000E-8	-0.000269
2.345000E-8	0.000363
2.350000E-8	0.000916
2.355000E-8	0.001647
2.360000E-8	0.002512
2.365000E-8	0.003266
2.370000E-8	0.004006
2.375000E-8	0.004706
2.380000E-8	0.005234
2.385000E-8	0.005625
2.390000E-8	0.005653
2.395000E-8	0.005653
2.400000E-8	0.005291
2.405000E-8	0.004788
2.410000E-8	0.004141
2.415000E-8	0.003459
2.420000E-8	0.002547
2.425000E-8	0.001881
2.430000E-8	0.001069
2.435000E-8	0.000416
2.440000E-8	-0.000206
2.445000E-8	-0.000616
2.450000E-8	-0.000872
2.455000E-8	-0.000772
2.460000E-8	-0.000759
2.465000E-8	-0.000394
2.470000E-8	0.000181
2.475000E-8	0.001016
2.480000E-8	0.001669
2.485000E-8	0.002428
2.490000E-8	0.003188
2.495000E-8	0.004050
2.500000E-8	0.004741
2.505000E-8	0.005353
2.510000E-8	0.005575
2.515000E-8	0.005772
2.520000E-8	0.005656
2.525000E-8	0.005519
2.530000E-8	0.005094
2.535000E-8	0.004662
2.540000E-8	0.004013
2.545000E-8	0.003328
2.550000E-8	0.002531
2.555000E-8	0.001800
2.560000E-8	0.001028
2.565000E-8	0.000463
2.570000E-8	3.437500E-5
2.575000E-8	-0.000150
2.580000E-8	-0.000431
2.585000E-8	-0.000216
2.590000E-8	-6.875000E-5
2.595000E-8	0.000391
2.600000E-8	0.000825
2.605000E-8	0.001528
2.610000E-8	0.002228
2.615000E-8	0.002984
2.620000E-8	0.003663
2.625000E-8	0.004350
2.630000E-8	0.004828
2.635000E-8	0.005128
2.640000E-8	0.005188
2.645000E-8	0.005297
2.650000E-8	0.005103
2.655000E-8	0.004819
2.660000E-8	0.004281
2.665000E-8	0.003781
2.670000E-8	0.003138
2.675000E-8	0.002516
2.680000E-8	0.001666
2.685000E-8	0.001191
2.690000E-8	0.000534
2.695000E-8	0.000131
2.700000E-8	-0.000206
2.705000E-8	-0.000388
2.710000E-8	-0.000438
2.715000E-8	-0.000184
2.720000E-8	9.687500E-5
2.725000E-8	0.000666
2.730000E-8	0.001200
2.735000E-8	0.001991
2.740000E-8	0.002741
2.745000E-8	0.003566
2.750000E-8	0.004288
2.755000E-8	0.004759
2.760000E-8	0.005141
2.765000E-8	0.005409
2.770000E-8	0.005450
2.775000E-8	0.005203
2.780000E-8	0.004772
2.785000E-8	0.004275
2.790000E-8	0.003497
2.795000E-8	0.002919
2.800000E-8	0.002156
2.805000E-8	0.001400
2.810000E-8	0.000706
2.815000E-8	0.000250
2.820000E-8	-7.500000E-5
2.825000E-8	-0.000284
2.830000E-8	-0.000278
2.835000E-8	-0.000163
2.840000E-8	7.187500E-5
2.845000E-8	0.000594
2.850000E-8	0.001066
2.855000E-8	0.001831
2.860000E-8	0.002403
2.865000E-8	0.003034
2.870000E-8	0.003444
2.875000E-8	0.004131
2.880000E-8	0.004525
2.885000E-8	0.004866
2.890000E-8	0.005116
2.895000E-8	0.005097
2.900000E-8	0.004850
2.905000E-8	0.004678
2.910000E-8	0.004222
2.915000E-8	0.003734
2.920000E-8	0.003084
2.925000E-8	0.002453
2.930000E-8	0.001747
2.935000E-8	0.001153
2.940000E-8	0.000575
2.945000E-8	0.000200
2.950000E-8	-6.250000E-5
2.955000E-8	-0.000166
2.960000E-8	-0.000147
2.965000E-8	-6.250000E-5
2.970000E-8	0.000287
2.975000E-8	0.000809
2.980000E-8	0.001319
2.985000E-8	0.001984
2.990000E-8	0.002600
2.995000E-8	0.003325
3.000000E-8	0.003928
3.005000E-8	0.004500
3.010000E-8	0.004800
3.015000E-8	0.005084
3.020000E-8	0.005084
3.025000E-8	0.005084
3.030000E-8	0.004778
3.035000E-8	0.004341
3.040000E-8	0.003728
3.045000E-8	0.003259
3.050000E-8	0.002609
3.055000E-8	0.002000
3.060000E-8	0.001397
3.065000E-8	0.000913
3.070000E-8	0.000350
3.075000E-8	2.187500E-5
3.080000E-8	-0.000175
3.085000E-8	-0.000191
3.090000E-8	6.875000E-5
3.095000E-8	0.000394
3.100000E-8	0.000766
3.105000E-8	0.001316
3.110000E-8	0.001884
3.115000E-8	0.002575
3.120000E-8	0.003138
3.125000E-8	0.003800
3.130000E-8	0.004206
3.135000E-8	0.004609
3.140000E-8	0.004763
3.145000E-8	0.004903
3.150000E-8	0.004741
3.155000E-8	0.004513
3.160000E-8	0.004203
3.165000E-8	0.003709
3.170000E-8	0.003162
3.175000E-8	0.002700
3.180000E-8	0.002022
3.185000E-8	0.001581
3.190000E-8	0.000966
3.195000E-8	0.000622
3.200000E-8	0.000231
3.205000E-8	-4.375000E-5
3.210000E-8	-0.000131
3.215000E-8	3.750000E-5
3.220000E-8	0.000144
3.225000E-8	0.000569
3.230000E-8	0.001063
3.235000E-8	0.001559
3.240000E-8	0.002056
3.245000E-8	0.002800
3.250000E-8	0.003297
3.255000E-8	0.003975
3.260000E-8	0.004366
3.265000E-8	0.004669
3.270000E-8	0.004741
3.275000E-8	0.004753
3.280000E-8	0.004563
3.285000E-8	0.004356
3.290000E-8	0.003838
3.295000E-8	0.003334
3.300000E-8	0.002759
3.305000E-8	0.002228
3.310000E-8	0.001597
3.315000E-8	0.001063
3.320000E-8	0.000684
3.325000E-8	0.000366
3.330000E-8	0.000131
3.335000E-8	0.000144
3.340000E-8	0.000228
3.345000E-8	0.000606
3.350000E-8	0.000900
3.355000E-8	0.001434
3.360000E-8	0.001847
3.365000E-8	0.002419
3.370000E-8	0.002919
3.375000E-8	0.003503
3.380000E-8	0.004038
3.385000E-8	0.004447
3.390000E-8	0.004731
3.395000E-8	0.004734
3.400000E-8	0.004763
3.405000E-8	0.004669
3.410000E-8	0.004341
3.415000E-8	0.004078
3.420000E-8	0.003497
3.425000E-8	0.003034
3.430000E-8	0.002263
3.435000E-8	0.001738
3.440000E-8	0.001138
3.445000E-8	0.000772
3.450000E-8	0.000391
3.455000E-8	0.000163
3.460000E-8	0.000191
3.465000E-8	0.000169
3.470000E-8	0.000441
3.475000E-8	0.000881
3.480000E-8	0.001219
3.485000E-8	0.001991
3.490000E-8	0.002491
3.495000E-8	0.003128
3.500000E-8	0.003753
3.505000E-8	0.004300
3.510000E-8	0.004569
3.515000E-8	0.004819
3.520000E-8	0.004931
3.525000E-8	0.004872
3.530000E-8	0.004803
3.535000E-8	0.004459
3.540000E-8	0.004006
3.545000E-8	0.003587
3.550000E-8	0.002953
3.555000E-8	0.002363
3.560000E-8	0.001841
3.565000E-8	0.001269
3.570000E-8	0.000850
3.575000E-8	0.000675
3.580000E-8	0.000431
3.585000E-8	0.000556
3.590000E-8	0.000616
3.595000E-8	0.000894
3.600000E-8	0.001269
3.605000E-8	0.001684
3.610000E-8	0.002147
3.615000E-8	0.002644
3.620000E-8	0.002953
3.625000E-8	0.003509
3.630000E-8	0.003838
3.635000E-8	0.004106
3.640000E-8	0.004244
3.645000E-8	0.004456
3.650000E-8	0.004456
3.655000E-8	0.004397
3.660000E-8	0.004169
3.665000E-8	0.003791
3.670000E-8	0.003306
3.675000E-8	0.002891
3.680000E-8	0.002269
3.685000E-8	0.001725
3.690000E-8	0.001347
3.695000E-8	0.000941
3.700000E-8	0.000606
3.705000E-8	0.000438
3.710000E-8	0.000328
3.715000E-8	0.000463
3.720000E-8	0.000681
3.725000E-8	0.000991
3.730000E-8	0.001359
3.735000E-8	0.001738
3.740000E-8	0.002162
3.745000E-8	0.002759
3.750000E-8	0.003284
3.755000E-8	0.003606
3.760000E-8	0.004234
3.765000E-8	0.004509
3.770000E-8	0.004788
3.775000E-8	0.004969
3.780000E-8	0.004850
3.785000E-8	0.004619
3.790000E-8	0.004338
3.795000E-8	0.003919
3.800000E-8	0.003256
3.805000E-8	0.002819
3.810000E-8	0.002237
3.815000E-8	0.001756
3.820000E-8	0.001275
3.825000E-8	0.001144
3.830000E-8	0.000856
3.835000E-8	0.000766
3.840000E-8	0.000891
3.845000E-8	0.001128
3.850000E-8	0.001281
3.855000E-8	0.001628
3.860000E-8	0.002184
3.865000E-8	0.002713
3.870000E-8	0.003103
3.875000E-8	0.003613
3.880000E-8	0.003978
3.885000E-8	0.004356
3.890000E-8	0.004347
3.895000E-8	0.004475
3.900000E-8	0.004444
3.905000E-8	0.004319
3.910000E-8	0.003969
3.915000E-8	0.003806
3.920000E-8	0.003419
3.925000E-8	0.002994
3.930000E-8	0.002475
3.935000E-8	0.001884
3.940000E-8	0.001437
3.945000E-8	0.001175
3.950000E-8	0.000775
3.955000E-8	0.000572
3.960000E-8	0.000450
3.965000E-8	0.000506
3.970000E-8	0.000597
3.975000E-8	0.001000
3.980000E-8	0.001391
3.985000E-8	0.001903
3.990000E-8	0.002266
3.995000E-8	0.002763
4.000000E-8	0.003150
4.005000E-8	0.003700
4.010000E-8	0.003966
4.015000E-8	0.004216
4.020000E-8	0.004272
4.025000E-8	0.004406
4.030000E-8	0.004409
4.035000E-8	0.004122
4.040000E-8	0.003819
4.045000E-8	0.003434
4.050000E-8	0.002956
4.055000E-8	0.002534
4.060000E-8	0.001975
4.065000E-8	0.001538
4.070000E-8	0.001197
4.075000E-8	0.000853
4.080000E-8	0.000559
4.085000E-8	0.000612
4.090000E-8	0.000534
4.095000E-8	0.000809
4.100000E-8	0.001119
4.105000E-8	0.001603
4.110000E-8	0.001963
4.115000E-8	0.002506
4.120000E-8	0.002834
4.125000E-8	0.003372
4.130000E-8	0.003716
4.135000E-8	0.004056
4.140000E-8	0.004253
4.145000E-8	0.004403
4.150000E-8	0.004250
4.155000E-8	0.004253
4.160000E-8	0.004169
4.165000E-8	0.003769
4.170000E-8	0.003475
4.175000E-8	0.003081
4.180000E-8	0.002644
4.185000E-8	0.002400
4.190000E-8	0.001966
4.195000E-8	0.001538
4.200000E-8	0.001156
4.205000E-8	0.000981
4.210000E-8	0.000928
4.215000E-8	0.000869
4.220000E-8	0.001009
4.225000E-8	0.001141
4.230000E-8	0.001466
4.235000E-8	0.001866
4.240000E-8	0.002178
4.245000E-8	0.002616
4.250000E-8	0.002988
4.255000E-8	0.003397
4.260000E-8	0.003769
4.265000E-8	0.003975
4.270000E-8	0.004128
4.275000E-8	0.004309
4.280000E-8	0.004131
4.285000E-8	0.004016
4.290000E-8	0.003716
4.295000E-8	0.003434
4.300000E-8	0.003038
4.305000E-8	0.002713
4.310000E-8	0.002197
4.315000E-8	0.001816
4.320000E-8	0.001413
4.325000E-8	0.001219
4.330000E-8	0.000975
4.335000E-8	0.000984
4.340000E-8	0.000994
4.345000E-8	0.001197
4.350000E-8	0.001356
4.355000E-8	0.001631
4.360000E-8	0.001841
4.365000E-8	0.002275
4.370000E-8	0.002691
4.375000E-8	0.003138
4.380000E-8	0.003475
4.385000E-8	0.004022
4.390000E-8	0.004244
4.395000E-8	0.004456
4.400000E-8	0.004525
4.405000E-8	0.004359
4.410000E-8	0.004178
4.415000E-8	0.004016
4.420000E-8	0.003544
4.425000E-8	0.003197
4.430000E-8	0.002697
4.435000E-8	0.002313
4.440000E-8	0.001916
4.445000E-8	0.001700
4.450000E-8	0.001303
4.455000E-8	0.001106
4.460000E-8	0.001059
4.465000E-8	0.000906
4.470000E-8	0.000981
4.475000E-8	0.001213
4.480000E-8	0.001366
4.485000E-8	0.001700
4.490000E-8	0.002116
4.495000E-8	0.002494
4.500000E-8	0.002834
4.505000E-8	0.003213
4.510000E-8	0.003594
4.515000E-8	0.003891
4.520000E-8	0.004122
4.525000E-8	0.004084
4.530000E-8	0.004066
4.535000E-8	0.003984
4.540000E-8	0.003691
4.545000E-8	0.003366
4.550000E-8	0.002903
4.555000E-8	0.002463
4.560000E-8	0.002084
4.565000E-8	0.001666
4.570000E-8	0.001353
4.575000E-8	0.000947
4.580000E-8	0.000728
4.585000E-8	0.000706
4.590000E-8	0.000716
4.595000E-8	0.000853
4.600000E-8	0.001022
4.605000E-8	0.001319
4.610000E-8	0.001553
4.615000E-8	0.001981
4.620000E-8	0.002425
4.625000E-8	0.002831
4.630000E-8	0.003094
4.635000E-8	0.003341
4.640000E-8	0.003484
4.645000E-8	0.003791
4.650000E-8	0.003797
4.655000E-8	0.003866
4.660000E-8	0.003863
4.665000E-8	0.003653
4.670000E-8	0.003384
4.675000E-8	0.003250
4.680000E-8	0.002866
4.685000E-8	0.002669
4.690000E-8	0.002278
4.695000E-8	0.002000
4.700000E-8	0.001775
4.705000E-8	0.001687
4.710000E-8	0.001341
4.715000E-8	0.001356
4.720000E-8	0.001269
4.725000E-8	0.001366
4.730000E-8	0.001509
4.735000E-8	0.001725
4.740000E-8	0.001925
4.745000E-8	0.002341
4.750000E-8	0.002538
4.755000E-8	0.002950
4.760000E-8	0.003275
4.765000E-8	0.003616
4.770000E-8	0.003791
4.775000E-8	0.003900
4.780000E-8	0.003863
4.785000E-8	0.003847
4.790000E-8	0.003628
4.795000E-8	0.003453
4.800000E-8	0.003072
4.805000E-8	0.002766
4.810000E-8	0.002328
4.815000E-8	0.002103
4.820000E-8	0.001644
4.825000E-8	0.001375
4.830000E-8	0.001134
4.835000E-8	0.001031
4.840000E-8	0.000822
4.845000E-8	0.000850
4.850000E-8	0.000972
4.855000E-8	0.001231
4.860000E-8	0.001591
4.865000E-8	0.001937
4.870000E-8	0.002397
4.875000E-8	0.002641
4.880000E-8	0.003025
4.885000E-8	0.003456
4.890000E-8	0.003647
4.895000E-8	0.003822
4.900000E-8	0.003866
4.905000E-8	0.004025
4.910000E-8	0.003822
4.915000E-8	0.003675
4.920000E-8	0.003369
4.925000E-8	0.003134
4.930000E-8	0.002731
4.935000E-8	0.002363
4.940000E-8	0.002069
4.945000E-8	0.001778
4.950000E-8	0.001428
4.955000E-8	0.001269
4.960000E-8	0.001075
4.965000E-8	0.001044
4.970000E-8	0.001063
4.975000E-8	0.001097
4.980000E-8	0.001269
4.985000E-8	0.001588
4.990000E-8	0.001891
4.995000E-8	0.002159
5.000000E-8	0.002547
5.005000E-8	0.002881
5.010000E-8	0.003222
5.015000E-8	0.003669
5.020000E-8	0.003800
5.025000E-8	0.003919
5.030000E-8	0.003997
5.035000E-8	0.003778
5.040000E-8	0.003656
5.045000E-8	0.003497
5.050000E-8	0.003203
5.055000E-8	0.002944
5.060000E-8	0.002463
5.065000E-8	0.002213
5.070000E-8	0.001750
5.075000E-8	0.001581
5.080000E-8	0.001206
5.085000E-8	0.001059
5.090000E-8	0.001006
5.095000E-8	0.001131
5.100000E-8	0.001166
5.105000E-8	0.001466
5.110000E-8	0.001741
5.115000E-8	0.001953
5.120000E-8	0.002278
5.125000E-8	0.002538
5.130000E-8	0.002859
5.135000E-8	0.003341
5.140000E-8	0.003422
5.145000E-8	0.003581
5.150000E-8	0.003616
5.155000E-8	0.003775
5.160000E-8	0.003613
5.165000E-8	0.003491
5.170000E-8	0.003134
5.175000E-8	0.002966
5.180000E-8	0.002659
5.185000E-8	0.002278
5.190000E-8	0.001991
5.195000E-8	0.001759
5.200000E-8	0.001472
5.205000E-8	0.001416
5.210000E-8	0.001197
5.215000E-8	0.001191
5.220000E-8	0.001263
5.225000E-8	0.001469
5.230000E-8	0.001612
5.235000E-8	0.001825
5.240000E-8	0.002138
5.245000E-8	0.002384
5.250000E-8	0.002606
5.255000E-8	0.002919
5.260000E-8	0.003109
5.265000E-8	0.003338
5.270000E-8	0.003438
5.275000E-8	0.003691
5.280000E-8	0.003750
5.285000E-8	0.003791
5.290000E-8	0.003684
5.295000E-8	0.003559
5.300000E-8	0.003409
5.305000E-8	0.003219
5.310000E-8	0.002969
5.315000E-8	0.002684
5.320000E-8	0.002303
5.325000E-8	0.002016
5.330000E-8	0.001684
5.335000E-8	0.001434
5.340000E-8	0.001200
5.345000E-8	0.001006
5.350000E-8	0.001019
5.355000E-8	0.000994
5.360000E-8	0.001238
5.365000E-8	0.001534
5.370000E-8	0.001750
5.375000E-8	0.002034
5.380000E-8	0.002372
5.385000E-8	0.002703
5.390000E-8	0.002928
5.395000E-8	0.003147
5.400000E-8	0.003197
5.405000E-8	0.003281
5.410000E-8	0.003272
5.415000E-8	0.003338
5.420000E-8	0.003119
5.425000E-8	0.003087
5.430000E-8	0.002697
5.435000E-8	0.002494
5.440000E-8	0.002172
5.445000E-8	0.001856
5.450000E-8	0.001609
5.455000E-8	0.001409
5.460000E-8	0.001138
5.465000E-8	0.001069
5.470000E-8	0.001044
5.475000E-8	0.001294
5.480000E-8	0.001328
5.485000E-8	0.001591
5.490000E-8	0.001878
5.495000E-8	0.002256
5.500000E-8	0.002556
5.505000E-8	0.002934
5.510000E-8	0.003109
5.515000E-8	0.003344
5.520000E-8	0.003481
5.525000E-8	0.003622
5.530000E-8	0.003600
5.535000E-8	0.003591
5.540000E-8	0.003525
5.545000E-8	0.003466
5.550000E-8	0.003231
5.555000E-8	0.002944
5.560000E-8	0.002697
5.565000E-8	0.002481
5.570000E-8	0.002097
5.575000E-8	0.001841
5.580000E-8	0.001500
5.585000E-8	0.001263
5.590000E-8	0.001112
5.595000E-8	0.001116
5.600000E-8	0.000997
5.605000E-8	0.001187
5.610000E-8	0.001281
5.615000E-8	0.001606
5.620000E-8	0.001778
5.625000E-8	0.002128
5.630000E-8	0.002384
5.635000E-8	0.002750
5.640000E-8	0.002947
5.645000E-8	0.003175
5.650000E-8	0.003356
5.655000E-8	0.003522
5.660000E-8	0.003503
5.665000E-8	0.003603
5.670000E-8	0.003541
5.675000E-8	0.003409
5.680000E-8	0.003066
5.685000E-8	0.002753
5.690000E-8	0.002512
5.695000E-8	0.002250
5.700000E-8	0.001894
5.705000E-8	0.001784
5.710000E-8	0.001591
5.715000E-8	0.001513
5.720000E-8	0.001378
5.725000E-8	0.001528
5.730000E-8	0.001638
5.735000E-8	0.001922
5.740000E-8	0.002222
5.745000E-8	0.002497
5.750000E-8	0.002719
5.755000E-8	0.002916
5.760000E-8	0.003131
5.765000E-8	0.003344
5.770000E-8	0.003409
5.775000E-8	0.003541
5.780000E-8	0.003512
5.785000E-8	0.003569
5.790000E-8	0.003534
5.795000E-8	0.003525
5.800000E-8	0.003431
5.805000E-8	0.003250
5.810000E-8	0.002953
5.815000E-8	0.002666
5.820000E-8	0.002425
5.825000E-8	0.002147
5.830000E-8	0.001900
5.835000E-8	0.001616
5.840000E-8	0.001425
5.845000E-8	0.001353
5.850000E-8	0.001316
5.855000E-8	0.001506
5.860000E-8	0.001638
5.865000E-8	0.001950
5.870000E-8	0.002150
5.875000E-8	0.002481
5.880000E-8	0.002737
5.885000E-8	0.002953
5.890000E-8	0.003222
5.895000E-8	0.003500
5.900000E-8	0.003659
5.905000E-8	0.003778
5.910000E-8	0.003756
5.915000E-8	0.003863
5.920000E-8	0.003681
5.925000E-8	0.003541
5.930000E-8	0.003184
5.935000E-8	0.002991
5.940000E-8	0.002644
5.945000E-8	0.002372
5.950000E-8	0.002091
5.955000E-8	0.001822
5.960000E-8	0.001619
5.965000E-8	0.001544
5.970000E-8	0.001338
5.975000E-8	0.001519
5.980000E-8	0.001513
5.985000E-8	0.001650
5.990000E-8	0.001813
5.995000E-8	0.002078
6.000000E-8	0.002306
6.005000E-8	0.002669
6.010000E-8	0.002928
6.015000E-8	0.003128
6.020000E-8	0.003288
6.025000E-8	0.003372
6.030000E-8	0.003519
6.035000E-8	0.003597
6.040000E-8	0.003563
6.045000E-8	0.003541
6.050000E-8	0.003434
6.055000E-8	0.003394
6.060000E-8	0.003116
6.065000E-8	0.002919
6.070000E-8	0.002647
6.075000E-8	0.002453
6.080000E-8	0.002147
6.085000E-8	0.002069
6.090000E-8	0.001888
6.095000E-8	0.001841
6.100000E-8	0.001756
6.105000E-8	0.001803
6.110000E-8	0.001888
6.115000E-8	0.002016
6.120000E-8	0.001988
6.125000E-8	0.002344
6.130000E-8	0.002509
6.135000E-8	0.002834
6.140000E-8	0.002988
6.145000E-8	0.003184
6.150000E-8	0.003428
6.155000E-8	0.003556
6.160000E-8	0.003559
6.165000E-8	0.003631
6.170000E-8	0.003391
6.175000E-8	0.003309
6.180000E-8	0.003028
6.185000E-8	0.002850
6.190000E-8	0.002516
6.195000E-8	0.002306
6.200000E-8	0.001881
6.205000E-8	0.001634
6.210000E-8	0.001463
6.215000E-8	0.001259
6.220000E-8	0.001191
6.225000E-8	0.001353
6.230000E-8	0.001388
6.235000E-8	0.001606
6.240000E-8	0.001828
6.245000E-8	0.002138
6.250000E-8	0.002359
6.255000E-8	0.002653
6.260000E-8	0.002941
6.265000E-8	0.003150
6.270000E-8	0.003366
6.275000E-8	0.003531
6.280000E-8	0.003594
6.285000E-8	0.003788
6.290000E-8	0.003675
6.295000E-8	0.003669
6.300000E-8	0.003519
6.305000E-8	0.003422
6.310000E-8	0.003087
6.315000E-8	0.002975
6.320000E-8	0.002706
6.325000E-8	0.002572
6.330000E-8	0.002175
6.335000E-8	0.001988
6.340000E-8	0.001828
6.345000E-8	0.001781
6.350000E-8	0.001731
6.355000E-8	0.001806
6.360000E-8	0.001850
6.365000E-8	0.001941
6.370000E-8	0.002244
6.375000E-8	0.002434
6.380000E-8	0.002575
6.385000E-8	0.002928
6.390000E-8	0.003022
6.395000E-8	0.003291
6.400000E-8	0.003413
6.405000E-8	0.003638
6.410000E-8	0.003663
6.415000E-8	0.003719
6.420000E-8	0.003656
6.425000E-8	0.003713
6.430000E-8	0.003447
6.435000E-8	0.003191
6.440000E-8	0.002884
6.445000E-8	0.002634
6.450000E-8	0.002237
6.455000E-8	0.001991
6.460000E-8	0.001672
6.465000E-8	0.001466
6.470000E-8	0.001375
6.475000E-8	0.001328
6.480000E-8	0.001344
6.485000E-8	0.001634
6.490000E-8	0.001694
6.495000E-8	0.002272
6.500000E-8	0.002531
6.505000E-8	0.002853
6.510000E-8	0.003109
6.515000E-8	0.003397
6.520000E-8	0.003466
6.525000E-8	0.003578
6.530000E-8	0.003566
6.535000E-8	0.003594
6.540000E-8	0.003369
6.545000E-8	0.003366
6.550000E-8	0.003181
6.555000E-8	0.003122
6.560000E-8	0.002978
6.565000E-8	0.002847
6.570000E-8	0.002625
6.575000E-8	0.002581
6.580000E-8	0.002488
6.585000E-8	0.002375
6.590000E-8	0.002178
6.595000E-8	0.002188
6.600000E-8	0.002056
6.605000E-8	0.002084
6.610000E-8	0.002000
6.615000E-8	0.001963
6.620000E-8	0.002044
6.625000E-8	0.002306
6.630000E-8	0.002406
6.635000E-8	0.002600
6.640000E-8	0.002850
6.645000E-8	0.002991
6.650000E-8	0.003178
6.655000E-8	0.003306
6.660000E-8	0.003397
6.665000E-8	0.003484
6.670000E-8	0.003406
6.675000E-8	0.003288
6.680000E-8	0.003034
6.685000E-8	0.002888
6.690000E-8	0.002672
6.695000E-8	0.002500
6.700000E-8	0.002197
6.705000E-8	0.002031
6.710000E-8	0.001741
6.715000E-8	0.001678
6.720000E-8	0.001456
6.725000E-8	0.001472
6.730000E-8	0.001394
6.735000E-8	0.001478
6.740000E-8	0.001434
6.745000E-8	0.001641
6.750000E-8	0.001763
6.755000E-8	0.002106
6.760000E-8	0.002319
6.765000E-8	0.002534
6.770000E-8	0.002734
6.775000E-8	0.002966
6.780000E-8	0.003063
6.785000E-8	0.003244
6.790000E-8	0.003194
6.795000E-8	0.003253
6.800000E-8	0.003181
6.805000E-8	0.003094
6.810000E-8	0.002781
6.815000E-8	0.002706
6.820000E-8	0.002484
6.825000E-8	0.002281
6.830000E-8	0.002019
6.835000E-8	0.001900
6.840000E-8	0.001700
6.845000E-8	0.001566
6.850000E-8	0.001459
6.855000E-8	0.001622
6.860000E-8	0.001556
6.865000E-8	0.001763
6.870000E-8	0.001831
6.875000E-8	0.002053
6.880000E-8	0.002125
6.885000E-8	0.002331
6.890000E-8	0.002459
6.895000E-8	0.002631
6.900000E-8	0.002775
6.905000E-8	0.002906
6.910000E-8	0.002981
6.915000E-8	0.003091
6.920000E-8	0.003125
6.925000E-8	0.003194
6.930000E-8	0.003109
6.935000E-8	0.003044
6.940000E-8	0.002934
6.945000E-8	0.002778
6.950000E-8	0.002575
6.955000E-8	0.002528
6.960000E-8	0.002156
6.965000E-8	0.002044
6.970000E-8	0.001797
6.975000E-8	0.001775
6.980000E-8	0.001706
6.985000E-8	0.001697
6.990000E-8	0.001719
6.995000E-8	0.001825
7.000000E-8	0.001884
7.005000E-8	0.002134
7.010000E-8	0.002338
7.015000E-8	0.002566
7.020000E-8	0.002853
7.025000E-8	0.003078
7.030000E-8	0.003159
7.035000E-8	0.003272
7.040000E-8	0.003425
7.045000E-8	0.003503
7.050000E-8	0.003288
7.055000E-8	0.003222
7.060000E-8	0.003025
7.065000E-8	0.002828
7.070000E-8	0.002594
7.075000E-8	0.002388
7.080000E-8	0.002166
7.085000E-8	0.002066
7.090000E-8	0.001894
7.095000E-8	0.001897
7.100000E-8	0.001738
7.105000E-8	0.001813
7.110000E-8	0.001925
7.115000E-8	0.002128
7.120000E-8	0.002181
7.125000E-8	0.002391
7.130000E-8	0.002497
7.135000E-8	0.002713
7.140000E-8	0.002844
7.145000E-8	0.003053
7.150000E-8	0.003122
7.155000E-8	0.003375
7.160000E-8	0.003475
7.165000E-8	0.003497
7.170000E-8	0.003506
7.175000E-8	0.003422
7.180000E-8	0.003372
7.185000E-8	0.003309
7.190000E-8	0.003047
7.195000E-8	0.002856
7.200000E-8	0.002453
7.205000E-8	0.002309
7.210000E-8	0.002034
7.215000E-8	0.001781
7.220000E-8	0.001584
7.225000E-8	0.001647
7.230000E-8	0.001619
7.235000E-8	0.001669
7.240000E-8	0.001725
7.245000E-8	0.001850
7.250000E-8	0.002019
7.255000E-8	0.002206
7.260000E-8	0.002350
7.265000E-8	0.002578
7.270000E-8	0.002581
7.275000E-8	0.002956
7.280000E-8	0.003066
7.285000E-8	0.003100
7.290000E-8	0.003087
7.295000E-8	0.003175
7.300000E-8	0.003103
7.305000E-8	0.003091
7.310000E-8	0.002881
7.315000E-8	0.002794
7.320000E-8	0.002666
7.325000E-8	0.002425
7.330000E-8	0.002297
7.335000E-8	0.002119
7.340000E-8	0.001900
7.345000E-8	0.001916
7.350000E-8	0.001734
7.355000E-8	0.001809
7.360000E-8	0.001756
7.365000E-8	0.001947
7.370000E-8	0.001997
7.375000E-8	0.002197
7.380000E-8	0.002372
7.385000E-8	0.002522
7.390000E-8	0.002638
7.395000E-8	0.002803
7.400000E-8	0.002856
7.405000E-8	0.003003
7.410000E-8	0.002988
7.415000E-8	0.003034
7.420000E-8	0.002984
7.425000E-8	0.003019
7.430000E-8	0.002963
7.435000E-8	0.002994
7.440000E-8	0.002831
7.445000E-8	0.002753
7.450000E-8	0.002650
7.455000E-8	0.002650
7.460000E-8	0.002494
7.465000E-8	0.002447
7.470000E-8	0.002319
7.475000E-8	0.002309
7.480000E-8	0.002128
7.485000E-8	0.002162
7.490000E-8	0.002203
7.495000E-8	0.002359
7.500000E-8	0.002413
7.505000E-8	0.002631
7.510000E-8	0.002828
7.515000E-8	0.003119
7.520000E-8	0.003303
7.525000E-8	0.003422
7.530000E-8	0.003419
7.535000E-8	0.003628
7.540000E-8	0.003547
7.545000E-8	0.003556
7.550000E-8	0.003438
7.555000E-8	0.003353
7.560000E-8	0.003200
7.565000E-8	0.003084
7.570000E-8	0.002891
7.575000E-8	0.002631
7.580000E-8	0.002456
7.585000E-8	0.002259
7.590000E-8	0.002119
7.595000E-8	0.002053
7.600000E-8	0.001825
7.605000E-8	0.001834
7.610000E-8	0.001778
7.615000E-8	0.001863
7.620000E-8	0.001972
7.625000E-8	0.002094
7.630000E-8	0.002191
7.635000E-8	0.002437
7.640000E-8	0.002631
7.645000E-8	0.002772
7.650000E-8	0.002775
7.655000E-8	0.002909
7.660000E-8	0.003147
7.665000E-8	0.003113
7.670000E-8	0.003131
7.675000E-8	0.003138
7.680000E-8	0.003044
7.685000E-8	0.002994
7.690000E-8	0.002866
7.695000E-8	0.002662
7.700000E-8	0.002509
7.705000E-8	0.002372
7.710000E-8	0.002213
7.715000E-8	0.002250
7.720000E-8	0.002012
7.725000E-8	0.002091
7.730000E-8	0.002056
7.735000E-8	0.002081
7.740000E-8	0.002259
7.745000E-8	0.002441
7.750000E-8	0.002425
7.755000E-8	0.002650
7.760000E-8	0.002772
7.765000E-8	0.002888
7.770000E-8	0.003038
7.775000E-8	0.003113
7.780000E-8	0.003206
7.785000E-8	0.003247
7.790000E-8	0.003288
7.795000E-8	0.003222
7.800000E-8	0.003113
7.805000E-8	0.003075
7.810000E-8	0.002931
7.815000E-8	0.002875
7.820000E-8	0.002672
7.825000E-8	0.002600
7.830000E-8	0.002488
7.835000E-8	0.002422
7.840000E-8	0.002428
7.845000E-8	0.002363
7.850000E-8	0.002378
7.855000E-8	0.002372
7.860000E-8	0.002372
7.865000E-8	0.002378
7.870000E-8	0.002400
7.875000E-8	0.002497
7.880000E-8	0.002519
7.885000E-8	0.002622
7.890000E-8	0.002688
7.895000E-8	0.002788
7.900000E-8	0.002863
7.905000E-8	0.003009
7.910000E-8	0.003100
7.915000E-8	0.003166
7.920000E-8	0.003063
7.925000E-8	0.003078
7.930000E-8	0.002938
7.935000E-8	0.002878
7.940000E-8	0.002791
7.945000E-8	0.002531
7.950000E-8	0.002469
7.955000E-8	0.002428
7.960000E-8	0.002138
7.965000E-8	0.002012
7.970000E-8	0.001963
7.975000E-8	0.002003
7.980000E-8	0.002091
7.985000E-8	0.002222
7.990000E-8	0.002284
7.995000E-8	0.002428
8.000000E-8	0.002534
8.005000E-8	0.002684
8.010000E-8	0.002841
8.015000E-8	0.002947
8.020000E-8	0.002938
8.025000E-8	0.002981
8.030000E-8	0.003006
8.035000E-8	0.003031
8.040000E-8	0.002981
8.045000E-8	0.002997
8.050000E-8	0.002934
8.055000E-8	0.002838
8.060000E-8	0.002706
8.065000E-8	0.002622
8.070000E-8	0.002475
8.075000E-8	0.002463
8.080000E-8	0.002259
8.085000E-8	0.002266
8.090000E-8	0.002244
8.095000E-8	0.002162
8.100000E-8	0.002125
8.105000E-8	0.002075
8.110000E-8	0.001891
8.115000E-8	0.001972
8.120000E-8	0.002063
8.125000E-8	0.001969
8.130000E-8	0.001981
8.135000E-8	0.002181
8.140000E-8	0.002256
8.145000E-8	0.002394
8.150000E-8	0.002503
8.155000E-8	0.002666
8.160000E-8	0.002788
8.165000E-8	0.002956
8.170000E-8	0.003009
8.175000E-8	0.003016
8.180000E-8	0.003069
8.185000E-8	0.003138
8.190000E-8	0.002984
8.195000E-8	0.002772
8.200000E-8	0.002737
8.205000E-8	0.002550
8.210000E-8	0.002463
8.215000E-8	0.002381
8.220000E-8	0.002316
8.225000E-8	0.002303
8.230000E-8	0.002228
8.235000E-8	0.002209
8.240000E-8	0.002197
8.245000E-8	0.002206
8.250000E-8	0.002309
8.255000E-8	0.002384
8.260000E-8	0.002391
8.265000E-8	0.002469
8.270000E-8	0.002512
8.275000E-8	0.002578
8.280000E-8	0.002709
8.285000E-8	0.002859
8.290000E-8	0.002759
8.295000E-8	0.002728
8.300000E-8	0.002706
8.305000E-8	0.002706
8.310000E-8	0.002606
8.315000E-8	0.002756
8.320000E-8	0.002656
8.325000E-8	0.002506
8.330000E-8	0.002322
8.335000E-8	0.002394
8.340000E-8	0.002294
8.345000E-8	0.002263
8.350000E-8	0.002213
8.355000E-8	0.002241
8.360000E-8	0.002116
8.365000E-8	0.002162
8.370000E-8	0.002150
8.375000E-8	0.002222
8.380000E-8	0.002237
8.385000E-8	0.002422
8.390000E-8	0.002591
8.395000E-8	0.002734
8.400000E-8	0.002944
8.405000E-8	0.003081
8.410000E-8	0.003209
8.415000E-8	0.003291
8.420000E-8	0.003356
8.425000E-8	0.003297
8.430000E-8	0.003269
8.435000E-8	0.003275
8.440000E-8	0.003072
8.445000E-8	0.002953
8.450000E-8	0.002781
8.455000E-8	0.002631
8.460000E-8	0.002437
8.465000E-8	0.002316
8.470000E-8	0.002200
8.475000E-8	0.002141
8.480000E-8	0.002006
8.485000E-8	0.002038
8.490000E-8	0.002162
8.495000E-8	0.002184
8.500000E-8	0.002303
8.505000E-8	0.002350
8.510000E-8	0.002463
8.515000E-8	0.002566
8.520000E-8	0.002556
8.525000E-8	0.002722
8.530000E-8	0.002809
8.535000E-8	0.002866
8.540000E-8	0.002784
8.545000E-8	0.002778
8.550000E-8	0.002819
8.555000E-8	0.002869
8.560000E-8	0.002863
8.565000E-8	0.002766
8.570000E-8	0.002616
8.575000E-8	0.002587
8.580000E-8	0.002431
8.585000E-8	0.002437
8.590000E-8	0.002359
8.595000E-8	0.002400
8.600000E-8	0.002209
8.605000E-8	0.002272
8.610000E-8	0.002253
8.615000E-8	0.002334
8.620000E-8	0.002284
8.625000E-8	0.002400
8.630000E-8	0.002300
8.635000E-8	0.002356
8.640000E-8	0.002344
8.645000E-8	0.002469
8.650000E-8	0.002556
8.655000E-8	0.002578
8.660000E-8	0.002659
8.665000E-8	0.002797
8.670000E-8	0.002722
8.675000E-8	0.002731
8.680000E-8	0.002616
8.685000E-8	0.002684
8.690000E-8	0.002616
8.695000E-8	0.002684
8.700000E-8	0.002569
8.705000E-8	0.002516
8.710000E-8	0.002344
8.715000E-8	0.002250
8.720000E-8	0.002178
8.725000E-8	0.002103
8.730000E-8	0.001984
8.735000E-8	0.002153
8.740000E-8	0.002072
8.745000E-8	0.002156
8.750000E-8	0.002309
8.755000E-8	0.002437
8.760000E-8	0.002444
8.765000E-8	0.002581
8.770000E-8	0.002678
8.775000E-8	0.002763
8.780000E-8	0.002794
8.785000E-8	0.002750
8.790000E-8	0.002800
8.795000E-8	0.002781
8.800000E-8	0.002847
8.805000E-8	0.002950
8.810000E-8	0.002881
8.815000E-8	0.002922
8.820000E-8	0.002975
8.825000E-8	0.002950
8.830000E-8	0.002784
8.835000E-8	0.002822
8.840000E-8	0.002659
8.845000E-8	0.002587
8.850000E-8	0.002503
8.855000E-8	0.002453
8.860000E-8	0.002319
8.865000E-8	0.002425
8.870000E-8	0.002356
8.875000E-8	0.002350
8.880000E-8	0.002300
8.885000E-8	0.002472
8.890000E-8	0.002534
8.895000E-8	0.002728
8.900000E-8	0.002800
8.905000E-8	0.002956
8.910000E-8	0.002928
8.915000E-8	0.003153
8.920000E-8	0.003128
8.925000E-8	0.003081
8.930000E-8	0.002866
8.935000E-8	0.002900
8.940000E-8	0.002822
8.945000E-8	0.002809
8.950000E-8	0.002684
8.955000E-8	0.002516
8.960000E-8	0.002359
8.965000E-8	0.002403
8.970000E-8	0.002203
8.975000E-8	0.002263
8.980000E-8	0.002213
8.985000E-8	0.002288
8.990000E-8	0.002225
8.995000E-8	0.002437
9.000000E-8	0.002272
9.005000E-8	0.002441
9.010000E-8	0.002413
9.015000E-8	0.002594
9.020000E-8	0.002594
9.025000E-8	0.002603
9.030000E-8	0.002766
9.035000E-8	0.002725
9.040000E-8	0.002603
9.045000E-8	0.002725
9.050000E-8	0.002550
9.055000E-8	0.002541
9.060000E-8	0.002397
9.065000E-8	0.002372
9.070000E-8	0.002372
9.075000E-8	0.002516
9.080000E-8	0.002553
9.085000E-8	0.002484
9.090000E-8	0.002506
9.095000E-8	0.002534
9.100000E-8	0.002388
9.105000E-8	0.002353
9.110000E-8	0.002372
9.115000E-8	0.002281
9.120000E-8	0.002272
9.125000E-8	0.002228
9.130000E-8	0.002078
9.135000E-8	0.002066
9.140000E-8	0.002119
9.145000E-8	0.002138
9.150000E-8	0.002353
9.155000E-8	0.002594
9.160000E-8	0.002569
9.165000E-8	0.002853
9.170000E-8	0.002975
9.175000E-8	0.003109
9.180000E-8	0.003194
9.185000E-8	0.003309
9.190000E-8	0.003150
9.195000E-8	0.003134
9.200000E-8	0.003038
9.205000E-8	0.003022
9.210000E-8	0.002816
9.215000E-8	0.002722
9.220000E-8	0.002528
9.225000E-8	0.002409
9.230000E-8	0.002416
9.235000E-8	0.002434
9.240000E-8	0.002322
9.245000E-8	0.002309
9.250000E-8	0.002353
9.255000E-8	0.002303
9.260000E-8	0.002338
9.265000E-8	0.002575
9.270000E-8	0.002656
9.275000E-8	0.002694
9.280000E-8	0.002697
9.285000E-8	0.002884
9.290000E-8	0.002897
9.295000E-8	0.002903
9.300000E-8	0.002944
9.305000E-8	0.002916
9.310000E-8	0.002759
9.315000E-8	0.002706
9.320000E-8	0.002647
9.325000E-8	0.002575
9.330000E-8	0.002344
9.335000E-8	0.002331
9.340000E-8	0.002284
9.345000E-8	0.002162
9.350000E-8	0.002047
9.355000E-8	0.002056
9.360000E-8	0.001991
9.365000E-8	0.002087
9.370000E-8	0.002059
9.375000E-8	0.002228
9.380000E-8	0.002159
9.385000E-8	0.002325
9.390000E-8	0.002375
9.395000E-8	0.002653
9.400000E-8	0.002675
9.405000E-8	0.002788
9.410000E-8	0.002791
9.415000E-8	0.002913
9.420000E-8	0.002975
9.425000E-8	0.002950
9.430000E-8	0.002872
9.435000E-8	0.002878
9.440000E-8	0.002725
9.445000E-8	0.002772
9.450000E-8	0.002641
9.455000E-8	0.002697
9.460000E-8	0.002684
9.465000E-8	0.002659
9.470000E-8	0.002531
9.475000E-8	0.002459
9.480000E-8	0.002506
9.485000E-8	0.002409
9.490000E-8	0.002359
9.495000E-8	0.002369
9.500000E-8	0.002391
9.505000E-8	0.002388
9.510000E-8	0.002359
9.515000E-8	0.002369
9.520000E-8	0.002353
9.525000E-8	0.002528
9.530000E-8	0.002534
9.535000E-8	0.002625
9.540000E-8	0.002647
9.545000E-8	0.002744
9.550000E-8	0.002756
9.555000E-8	0.002756
9.560000E-8	0.002719
9.565000E-8	0.002803
9.570000E-8	0.002734
9.575000E-8	0.002734
9.580000E-8	0.002634
9.585000E-8	0.002581
9.590000E-8	0.002456
9.595000E-8	0.002447
9.600000E-8	0.002456
9.605000E-8	0.002344
9.610000E-8	0.002281
9.615000E-8	0.002247
9.620000E-8	0.002194
9.625000E-8	0.002219
9.630000E-8	0.002222
9.635000E-8	0.002281
9.640000E-8	0.002325
9.645000E-8	0.002437
9.650000E-8	0.002569
9.655000E-8	0.002681
9.660000E-8	0.002706
9.665000E-8	0.002800
9.670000E-8	0.002800
9.675000E-8	0.002800
9.680000E-8	0.002825
9.685000E-8	0.002822
9.690000E-8	0.002813
9.695000E-8	0.002828
9.700000E-8	0.002778
9.705000E-8	0.002644
9.710000E-8	0.002600
9.715000E-8	0.002559
9.720000E-8	0.002512
9.725000E-8	0.002394
9.730000E-8	0.002284
9.735000E-8	0.002225
9.740000E-8	0.002166
9.745000E-8	0.002206
9.750000E-8	0.002047
9.755000E-8	0.002259
9.760000E-8	0.002250
9.765000E-8	0.002334
9.770000E-8	0.002422
9.775000E-8	0.002522
9.780000E-8	0.002497
9.785000E-8	0.002525
9.790000E-8	0.002700
9.795000E-8	0.002600
9.800000E-8	0.002616
9.805000E-8	0.002684
9.810000E-8	0.002681
9.815000E-8	0.002722
9.820000E-8	0.002647
9.825000E-8	0.002706
9.830000E-8	0.002659
9.835000E-8	0.002666
9.840000E-8	0.002684
9.845000E-8	0.002725
9.850000E-8	0.002641
9.855000E-8	0.002528
9.860000E-8	0.002403
9.865000E-8	0.002488
9.870000E-8	0.002353
9.875000E-8	0.002344
9.880000E-8	0.002350
9.885000E-8	0.002388
9.890000E-8	0.002450
9.895000E-8	0.002575
9.900000E-8	0.002600
9.905000E-8	0.002772
9.910000E-8	0.002809
9.915000E-8	0.002922
9.920000E-8	0.002928
9.925000E-8	0.003078
9.930000E-8	0.003025
9.935000E-8	0.003000
9.940000E-8	0.003059
9.945000E-8	0.003075
9.950000E-8	0.003041
9.955000E-8	0.003069
9.960000E-8	0.003025
9.965000E-8	0.002956
9.970000E-8	0.002766
9.975000E-8	0.002772
9.980000E-8	0.002603
9.985000E-8	0.002463
9.990000E-8	0.002394
9.995000E-8	0.002306
