LabVIEW Measurement	
Writer_Version	2
Reader_Version	2
Separator	Tab
Decimal_Separator	.
Multi_Headings	No
X_Columns	Multi
Time_Pref	Relative
Operator	TG lab
Date	2015/03/06
Time	19:36:21.4234395027160644532
***End_of_Header***	
	
Channels	1	
Samples	2000	
Date	1903/12/31	
Time	19:00:00	
X_Dimension	Time	
X0	0.0000000000000000E+0	
Delta_X	5.000000E-11	
***End_of_Header***		
X_Value	Untitled	Comment
0.000000	0.003019
5.000000E-11	0.002841
1.000000E-10	0.002719
1.500000E-10	0.002716
2.000000E-10	0.002594
2.500000E-10	0.002534
3.000000E-10	0.002659
3.500000E-10	0.002681
4.000000E-10	0.002734
4.500000E-10	0.002728
5.000000E-10	0.002719
5.500000E-10	0.002863
6.000000E-10	0.002834
6.500000E-10	0.002900
7.000000E-10	0.002900
7.500000E-10	0.002906
8.000000E-10	0.002869
8.500000E-10	0.002984
9.000000E-10	0.002903
9.500000E-10	0.002950
1.000000E-9	0.002934
1.050000E-9	0.002994
1.100000E-9	0.003103
1.150000E-9	0.003034
1.200000E-9	0.002966
1.250000E-9	0.002966
1.300000E-9	0.003003
1.350000E-9	0.003109
1.400000E-9	0.003053
1.450000E-9	0.002972
1.500000E-9	0.003028
1.550000E-9	0.003138
1.600000E-9	0.003153
1.650000E-9	0.003259
1.700000E-9	0.003288
1.750000E-9	0.003475
1.800000E-9	0.003388
1.850000E-9	0.003434
1.900000E-9	0.003509
1.950000E-9	0.003619
2.000000E-9	0.003622
2.050000E-9	0.003663
2.100000E-9	0.003575
2.150000E-9	0.003528
2.200000E-9	0.003456
2.250000E-9	0.003506
2.300000E-9	0.003428
2.350000E-9	0.003338
2.400000E-9	0.003272
2.450000E-9	0.003309
2.500000E-9	0.003228
2.550000E-9	0.003359
2.600000E-9	0.003409
2.650000E-9	0.003491
2.700000E-9	0.003506
2.750000E-9	0.003572
2.800000E-9	0.003566
2.850000E-9	0.003631
2.900000E-9	0.003556
2.950000E-9	0.003647
3.000000E-9	0.003734
3.050000E-9	0.003766
3.100000E-9	0.003678
3.150000E-9	0.003553
3.200000E-9	0.003531
3.250000E-9	0.003572
3.300000E-9	0.003431
3.350000E-9	0.003422
3.400000E-9	0.003394
3.450000E-9	0.003447
3.500000E-9	0.003466
3.550000E-9	0.003556
3.600000E-9	0.003559
3.650000E-9	0.003625
3.700000E-9	0.003591
3.750000E-9	0.003647
3.800000E-9	0.003725
3.850000E-9	0.003838
3.900000E-9	0.003834
3.950000E-9	0.003928
4.000000E-9	0.003928
4.050000E-9	0.004144
4.100000E-9	0.004291
4.150000E-9	0.004413
4.200000E-9	0.004578
4.250000E-9	0.004816
4.300000E-9	0.005063
4.350000E-9	0.005409
4.400000E-9	0.005675
4.450000E-9	0.006291
4.500000E-9	0.006831
4.550000E-9	0.007481
4.600000E-9	0.008228
4.650000E-9	0.009134
4.700000E-9	0.010250
4.750000E-9	0.011275
4.800000E-9	0.012306
4.850000E-9	0.013522
4.900000E-9	0.014900
4.950000E-9	0.016453
5.000000E-9	0.017928
5.050000E-9	0.019556
5.100000E-9	0.021284
5.150000E-9	0.023047
5.200000E-9	0.024675
5.250000E-9	0.026244
5.300000E-9	0.027684
5.350000E-9	0.028913
5.400000E-9	0.029819
5.450000E-9	0.030578
5.500000E-9	0.030969
5.550000E-9	0.031488
5.600000E-9	0.031556
5.650000E-9	0.031547
5.700000E-9	0.031216
5.750000E-9	0.030706
5.800000E-9	0.029953
5.850000E-9	0.029069
5.900000E-9	0.027906
5.950000E-9	0.026619
6.000000E-9	0.025172
6.050000E-9	0.023575
6.100000E-9	0.021994
6.150000E-9	0.020525
6.200000E-9	0.019309
6.250000E-9	0.018356
6.300000E-9	0.017672
6.350000E-9	0.017453
6.400000E-9	0.017478
6.450000E-9	0.017831
6.500000E-9	0.018309
6.550000E-9	0.018969
6.600000E-9	0.019575
6.650000E-9	0.020378
6.700000E-9	0.021019
6.750000E-9	0.021506
6.800000E-9	0.021706
6.850000E-9	0.021806
6.900000E-9	0.021700
6.950000E-9	0.021531
7.000000E-9	0.021022
7.050000E-9	0.020394
7.100000E-9	0.019509
7.150000E-9	0.018653
7.200000E-9	0.017409
7.250000E-9	0.016344
7.300000E-9	0.015247
7.350000E-9	0.014216
7.400000E-9	0.013178
7.450000E-9	0.012313
7.500000E-9	0.011706
7.550000E-9	0.011309
7.600000E-9	0.011075
7.650000E-9	0.011081
7.700000E-9	0.011234
7.750000E-9	0.011716
7.800000E-9	0.012266
7.850000E-9	0.012916
7.900000E-9	0.013641
7.950000E-9	0.014359
8.000000E-9	0.014903
8.050000E-9	0.015638
8.100000E-9	0.016063
8.150000E-9	0.016372
8.200000E-9	0.016359
8.250000E-9	0.016259
8.300000E-9	0.015825
8.350000E-9	0.015166
8.400000E-9	0.014313
8.450000E-9	0.013303
8.500000E-9	0.012181
8.550000E-9	0.011141
8.600000E-9	0.009897
8.650000E-9	0.008962
8.700000E-9	0.008128
8.750000E-9	0.007472
8.800000E-9	0.007022
8.850000E-9	0.006881
8.900000E-9	0.006978
8.950000E-9	0.007169
9.000000E-9	0.007663
9.050000E-9	0.008381
9.100000E-9	0.009250
9.150000E-9	0.009994
9.200000E-9	0.010769
9.250000E-9	0.011403
9.300000E-9	0.012084
9.350000E-9	0.012569
9.400000E-9	0.012750
9.450000E-9	0.012844
9.500000E-9	0.012719
9.550000E-9	0.012294
9.600000E-9	0.011756
9.650000E-9	0.010934
9.700000E-9	0.010088
9.750000E-9	0.009188
9.800000E-9	0.008197
9.850000E-9	0.007306
9.900000E-9	0.006306
9.950000E-9	0.005681
1.000000E-8	0.005028
1.005000E-8	0.004756
1.010000E-8	0.004519
1.015000E-8	0.004653
1.020000E-8	0.004869
1.025000E-8	0.005366
1.030000E-8	0.005972
1.035000E-8	0.006794
1.040000E-8	0.007503
1.045000E-8	0.008378
1.050000E-8	0.009125
1.055000E-8	0.009950
1.060000E-8	0.010534
1.065000E-8	0.010991
1.070000E-8	0.011159
1.075000E-8	0.011078
1.080000E-8	0.010969
1.085000E-8	0.010438
1.090000E-8	0.009794
1.095000E-8	0.009050
1.100000E-8	0.007997
1.105000E-8	0.006972
1.110000E-8	0.005922
1.115000E-8	0.005081
1.120000E-8	0.004178
1.125000E-8	0.003641
1.130000E-8	0.003122
1.135000E-8	0.002966
1.140000E-8	0.003063
1.145000E-8	0.003353
1.150000E-8	0.003791
1.155000E-8	0.004428
1.160000E-8	0.005034
1.165000E-8	0.005784
1.170000E-8	0.006537
1.175000E-8	0.007241
1.180000E-8	0.007894
1.185000E-8	0.008537
1.190000E-8	0.008991
1.195000E-8	0.009213
1.200000E-8	0.009153
1.205000E-8	0.009031
1.210000E-8	0.008647
1.215000E-8	0.008169
1.220000E-8	0.007334
1.225000E-8	0.006644
1.230000E-8	0.005684
1.235000E-8	0.004778
1.240000E-8	0.003625
1.245000E-8	0.002791
1.250000E-8	0.002087
1.255000E-8	0.001647
1.260000E-8	0.001431
1.265000E-8	0.001459
1.270000E-8	0.001891
1.275000E-8	0.002475
1.280000E-8	0.003138
1.285000E-8	0.004000
1.290000E-8	0.004894
1.295000E-8	0.005941
1.300000E-8	0.006775
1.305000E-8	0.007569
1.310000E-8	0.008147
1.315000E-8	0.008644
1.320000E-8	0.008803
1.325000E-8	0.008784
1.330000E-8	0.008575
1.335000E-8	0.008228
1.340000E-8	0.007594
1.345000E-8	0.006909
1.350000E-8	0.005994
1.355000E-8	0.005031
1.360000E-8	0.003991
1.365000E-8	0.003178
1.370000E-8	0.002281
1.375000E-8	0.001759
1.380000E-8	0.001244
1.385000E-8	0.001141
1.390000E-8	0.001153
1.395000E-8	0.001406
1.400000E-8	0.001909
1.405000E-8	0.002556
1.410000E-8	0.003344
1.415000E-8	0.004138
1.420000E-8	0.004975
1.425000E-8	0.005825
1.430000E-8	0.006522
1.435000E-8	0.007084
1.440000E-8	0.007344
1.445000E-8	0.007528
1.450000E-8	0.007619
1.455000E-8	0.007494
1.460000E-8	0.007122
1.465000E-8	0.006666
1.470000E-8	0.005888
1.475000E-8	0.005103
1.480000E-8	0.004150
1.485000E-8	0.003225
1.490000E-8	0.002384
1.495000E-8	0.001719
1.500000E-8	0.001038
1.505000E-8	0.000647
1.510000E-8	0.000422
1.515000E-8	0.000684
1.520000E-8	0.000853
1.525000E-8	0.001372
1.530000E-8	0.001931
1.535000E-8	0.002725
1.540000E-8	0.003491
1.545000E-8	0.004300
1.550000E-8	0.004988
1.555000E-8	0.005803
1.560000E-8	0.006213
1.565000E-8	0.006603
1.570000E-8	0.006753
1.575000E-8	0.006913
1.580000E-8	0.006775
1.585000E-8	0.006406
1.590000E-8	0.006072
1.595000E-8	0.005513
1.600000E-8	0.004822
1.605000E-8	0.004078
1.610000E-8	0.003313
1.615000E-8	0.002616
1.620000E-8	0.001950
1.625000E-8	0.001331
1.630000E-8	0.000944
1.635000E-8	0.000638
1.640000E-8	0.000472
1.645000E-8	0.000619
1.650000E-8	0.000850
1.655000E-8	0.001450
1.660000E-8	0.002128
1.665000E-8	0.002828
1.670000E-8	0.003581
1.675000E-8	0.004594
1.680000E-8	0.005394
1.685000E-8	0.006041
1.690000E-8	0.006541
1.695000E-8	0.006919
1.700000E-8	0.007003
1.705000E-8	0.006794
1.710000E-8	0.006484
1.715000E-8	0.005853
1.720000E-8	0.005241
1.725000E-8	0.004428
1.730000E-8	0.003572
1.735000E-8	0.002678
1.740000E-8	0.001884
1.745000E-8	0.001278
1.750000E-8	0.000609
1.755000E-8	0.000313
1.760000E-8	0.000106
1.765000E-8	8.750000E-5
1.770000E-8	0.000269
1.775000E-8	0.000647
1.780000E-8	0.001097
1.785000E-8	0.001656
1.790000E-8	0.002300
1.795000E-8	0.003191
1.800000E-8	0.003828
1.805000E-8	0.004556
1.810000E-8	0.005081
1.815000E-8	0.005525
1.820000E-8	0.005719
1.825000E-8	0.005916
1.830000E-8	0.005803
1.835000E-8	0.005553
1.840000E-8	0.005088
1.845000E-8	0.004566
1.850000E-8	0.004013
1.855000E-8	0.003256
1.860000E-8	0.002463
1.865000E-8	0.001788
1.870000E-8	0.001153
1.875000E-8	0.000688
1.880000E-8	0.000253
1.885000E-8	7.187500E-5
1.890000E-8	-5.625000E-5
1.895000E-8	6.250000E-5
1.900000E-8	0.000334
1.905000E-8	0.000803
1.910000E-8	0.001422
1.915000E-8	0.002234
1.920000E-8	0.002988
1.925000E-8	0.003719
1.930000E-8	0.004531
1.935000E-8	0.005131
1.940000E-8	0.005641
1.945000E-8	0.005984
1.950000E-8	0.006178
1.955000E-8	0.006084
1.960000E-8	0.005763
1.965000E-8	0.005428
1.970000E-8	0.004853
1.975000E-8	0.004266
1.980000E-8	0.003581
1.985000E-8	0.002853
1.990000E-8	0.002019
1.995000E-8	0.001447
2.000000E-8	0.000828
2.005000E-8	0.000384
2.010000E-8	0.000188
2.015000E-8	0.000134
2.020000E-8	0.000272
2.025000E-8	0.000681
2.030000E-8	0.001109
2.035000E-8	0.001734
2.040000E-8	0.002394
2.045000E-8	0.003138
2.050000E-8	0.003834
2.055000E-8	0.004497
2.060000E-8	0.005038
2.065000E-8	0.005559
2.070000E-8	0.005769
2.075000E-8	0.005966
2.080000E-8	0.005894
2.085000E-8	0.005650
2.090000E-8	0.005181
2.095000E-8	0.004638
2.100000E-8	0.003972
2.105000E-8	0.003275
2.110000E-8	0.002516
2.115000E-8	0.001878
2.120000E-8	0.001197
2.125000E-8	0.000703
2.130000E-8	0.000303
2.135000E-8	6.562500E-5
2.140000E-8	-3.750000E-5
2.145000E-8	0.000150
2.150000E-8	0.000450
2.155000E-8	0.000938
2.160000E-8	0.001413
2.165000E-8	0.002119
2.170000E-8	0.002747
2.175000E-8	0.003481
2.180000E-8	0.004019
2.185000E-8	0.004588
2.190000E-8	0.005009
2.195000E-8	0.005472
2.200000E-8	0.005559
2.205000E-8	0.005522
2.210000E-8	0.005453
2.215000E-8	0.005200
2.220000E-8	0.004728
2.225000E-8	0.004072
2.230000E-8	0.003447
2.235000E-8	0.002713
2.240000E-8	0.002069
2.245000E-8	0.001509
2.250000E-8	0.000997
2.255000E-8	0.000609
2.260000E-8	0.000275
2.265000E-8	9.062500E-5
2.270000E-8	7.500000E-5
2.275000E-8	0.000384
2.280000E-8	0.000716
2.285000E-8	0.001206
2.290000E-8	0.001741
2.295000E-8	0.002422
2.300000E-8	0.002956
2.305000E-8	0.003591
2.310000E-8	0.004091
2.315000E-8	0.004563
2.320000E-8	0.004878
2.325000E-8	0.005166
2.330000E-8	0.005181
2.335000E-8	0.005119
2.340000E-8	0.004809
2.345000E-8	0.004384
2.350000E-8	0.003909
2.355000E-8	0.003391
2.360000E-8	0.002706
2.365000E-8	0.002087
2.370000E-8	0.001413
2.375000E-8	0.000906
2.380000E-8	0.000522
2.385000E-8	0.000250
2.390000E-8	8.437500E-5
2.395000E-8	0.000200
2.400000E-8	0.000319
2.405000E-8	0.000672
2.410000E-8	0.001019
2.415000E-8	0.001612
2.420000E-8	0.002181
2.425000E-8	0.002875
2.430000E-8	0.003344
2.435000E-8	0.003997
2.440000E-8	0.004559
2.445000E-8	0.004956
2.450000E-8	0.005178
2.455000E-8	0.005288
2.460000E-8	0.005272
2.465000E-8	0.005081
2.470000E-8	0.004650
2.475000E-8	0.004237
2.480000E-8	0.003569
2.485000E-8	0.002900
2.490000E-8	0.002100
2.495000E-8	0.001578
2.500000E-8	0.001122
2.505000E-8	0.000666
2.510000E-8	0.000269
2.515000E-8	0.000163
2.520000E-8	0.000291
2.525000E-8	0.000344
2.530000E-8	0.000591
2.535000E-8	0.001141
2.540000E-8	0.001506
2.545000E-8	0.002106
2.550000E-8	0.002716
2.555000E-8	0.003356
2.560000E-8	0.003816
2.565000E-8	0.004363
2.570000E-8	0.004687
2.575000E-8	0.004984
2.580000E-8	0.005006
2.585000E-8	0.004969
2.590000E-8	0.004722
2.595000E-8	0.004297
2.600000E-8	0.004044
2.605000E-8	0.003428
2.610000E-8	0.002844
2.615000E-8	0.002294
2.620000E-8	0.001716
2.625000E-8	0.001238
2.630000E-8	0.000944
2.635000E-8	0.000734
2.640000E-8	0.000519
2.645000E-8	0.000447
2.650000E-8	0.000575
2.655000E-8	0.000803
2.660000E-8	0.001128
2.665000E-8	0.001584
2.670000E-8	0.002009
2.675000E-8	0.002472
2.680000E-8	0.002894
2.685000E-8	0.003338
2.690000E-8	0.003809
2.695000E-8	0.004159
2.700000E-8	0.004378
2.705000E-8	0.004569
2.710000E-8	0.004534
2.715000E-8	0.004431
2.720000E-8	0.004184
2.725000E-8	0.003788
2.730000E-8	0.003231
2.735000E-8	0.002756
2.740000E-8	0.002144
2.745000E-8	0.001669
2.750000E-8	0.001131
2.755000E-8	0.000703
2.760000E-8	0.000400
2.765000E-8	0.000247
2.770000E-8	0.000219
2.775000E-8	0.000322
2.780000E-8	0.000547
2.785000E-8	0.000944
2.790000E-8	0.001366
2.795000E-8	0.001972
2.800000E-8	0.002459
2.805000E-8	0.002947
2.810000E-8	0.003587
2.815000E-8	0.004097
2.820000E-8	0.004309
2.825000E-8	0.004650
2.830000E-8	0.004856
2.835000E-8	0.004841
2.840000E-8	0.004597
2.845000E-8	0.004416
2.850000E-8	0.004056
2.855000E-8	0.003578
2.860000E-8	0.002903
2.865000E-8	0.002431
2.870000E-8	0.001828
2.875000E-8	0.001359
2.880000E-8	0.000928
2.885000E-8	0.000734
2.890000E-8	0.000559
2.895000E-8	0.000431
2.900000E-8	0.000513
2.905000E-8	0.000822
2.910000E-8	0.001222
2.915000E-8	0.001709
2.920000E-8	0.002134
2.925000E-8	0.002847
2.930000E-8	0.003341
2.935000E-8	0.004006
2.940000E-8	0.004347
2.945000E-8	0.004650
2.950000E-8	0.004809
2.955000E-8	0.005081
2.960000E-8	0.005059
2.965000E-8	0.004988
2.970000E-8	0.004650
2.975000E-8	0.004297
2.980000E-8	0.003816
2.985000E-8	0.003347
2.990000E-8	0.002684
2.995000E-8	0.001994
3.000000E-8	0.001522
3.005000E-8	0.001000
3.010000E-8	0.000675
3.015000E-8	0.000559
3.020000E-8	0.000331
3.025000E-8	0.000516
3.030000E-8	0.000719
3.035000E-8	0.001081
3.040000E-8	0.001328
3.045000E-8	0.001937
3.050000E-8	0.002475
3.055000E-8	0.002969
3.060000E-8	0.003388
3.065000E-8	0.003884
3.070000E-8	0.004163
3.075000E-8	0.004369
3.080000E-8	0.004416
3.085000E-8	0.004300
3.090000E-8	0.004244
3.095000E-8	0.004097
3.100000E-8	0.003719
3.105000E-8	0.003328
3.110000E-8	0.002944
3.115000E-8	0.002594
3.120000E-8	0.002119
3.125000E-8	0.001747
3.130000E-8	0.001275
3.135000E-8	0.001056
3.140000E-8	0.000978
3.145000E-8	0.000922
3.150000E-8	0.000925
3.155000E-8	0.001003
3.160000E-8	0.001219
3.165000E-8	0.001578
3.170000E-8	0.001900
3.175000E-8	0.002406
3.180000E-8	0.002819
3.185000E-8	0.003253
3.190000E-8	0.003603
3.195000E-8	0.004003
3.200000E-8	0.004172
3.205000E-8	0.004325
3.210000E-8	0.004284
3.215000E-8	0.004269
3.220000E-8	0.003950
3.225000E-8	0.003772
3.230000E-8	0.003434
3.235000E-8	0.003028
3.240000E-8	0.002625
3.245000E-8	0.002109
3.250000E-8	0.001681
3.255000E-8	0.001484
3.260000E-8	0.001031
3.265000E-8	0.000834
3.270000E-8	0.000788
3.275000E-8	0.000781
3.280000E-8	0.000944
3.285000E-8	0.001103
3.290000E-8	0.001397
3.295000E-8	0.001744
3.300000E-8	0.002081
3.305000E-8	0.002503
3.310000E-8	0.002941
3.315000E-8	0.003431
3.320000E-8	0.003688
3.325000E-8	0.004034
3.330000E-8	0.004241
3.335000E-8	0.004400
3.340000E-8	0.004272
3.345000E-8	0.004156
3.350000E-8	0.003866
3.355000E-8	0.003544
3.360000E-8	0.003081
3.365000E-8	0.002584
3.370000E-8	0.002072
3.375000E-8	0.001669
3.380000E-8	0.001197
3.385000E-8	0.000953
3.390000E-8	0.000759
3.395000E-8	0.000766
3.400000E-8	0.000850
3.405000E-8	0.001084
3.410000E-8	0.001300
3.415000E-8	0.001731
3.420000E-8	0.001972
3.425000E-8	0.002375
3.430000E-8	0.002806
3.435000E-8	0.003188
3.440000E-8	0.003478
3.445000E-8	0.003853
3.450000E-8	0.003975
3.455000E-8	0.004109
3.460000E-8	0.004044
3.465000E-8	0.004006
3.470000E-8	0.003872
3.475000E-8	0.003659
3.480000E-8	0.003431
3.485000E-8	0.003059
3.490000E-8	0.002734
3.495000E-8	0.002353
3.500000E-8	0.001937
3.505000E-8	0.001563
3.510000E-8	0.001241
3.515000E-8	0.001072
3.520000E-8	0.000847
3.525000E-8	0.000866
3.530000E-8	0.000881
3.535000E-8	0.001128
3.540000E-8	0.001306
3.545000E-8	0.001691
3.550000E-8	0.002144
3.555000E-8	0.002634
3.560000E-8	0.002888
3.565000E-8	0.003331
3.570000E-8	0.003531
3.575000E-8	0.003891
3.580000E-8	0.003909
3.585000E-8	0.004059
3.590000E-8	0.003997
3.595000E-8	0.003916
3.600000E-8	0.003641
3.605000E-8	0.003466
3.610000E-8	0.003150
3.615000E-8	0.002788
3.620000E-8	0.002338
3.625000E-8	0.001978
3.630000E-8	0.001606
3.635000E-8	0.001319
3.640000E-8	0.001122
3.645000E-8	0.001022
3.650000E-8	0.001012
3.655000E-8	0.001016
3.660000E-8	0.001094
3.665000E-8	0.001541
3.670000E-8	0.001838
3.675000E-8	0.002241
3.680000E-8	0.002559
3.685000E-8	0.003056
3.690000E-8	0.003453
3.695000E-8	0.003719
3.700000E-8	0.003875
3.705000E-8	0.004166
3.710000E-8	0.004194
3.715000E-8	0.004156
3.720000E-8	0.004006
3.725000E-8	0.003775
3.730000E-8	0.003587
3.735000E-8	0.003241
3.740000E-8	0.002737
3.745000E-8	0.002341
3.750000E-8	0.001916
3.755000E-8	0.001600
3.760000E-8	0.001244
3.765000E-8	0.001012
3.770000E-8	0.000841
3.775000E-8	0.000875
3.780000E-8	0.000953
3.785000E-8	0.001153
3.790000E-8	0.001572
3.795000E-8	0.001953
3.800000E-8	0.002369
3.805000E-8	0.002641
3.810000E-8	0.003006
3.815000E-8	0.003341
3.820000E-8	0.003541
3.825000E-8	0.003800
3.830000E-8	0.004063
3.835000E-8	0.004200
3.840000E-8	0.004141
3.845000E-8	0.004031
3.850000E-8	0.003828
3.855000E-8	0.003744
3.860000E-8	0.003403
3.865000E-8	0.002906
3.870000E-8	0.002569
3.875000E-8	0.002119
3.880000E-8	0.001772
3.885000E-8	0.001375
3.890000E-8	0.001216
3.895000E-8	0.001088
3.900000E-8	0.001059
3.905000E-8	0.001081
3.910000E-8	0.001134
3.915000E-8	0.001541
3.920000E-8	0.001775
3.925000E-8	0.002103
3.930000E-8	0.002297
3.935000E-8	0.002784
3.940000E-8	0.003131
3.945000E-8	0.003363
3.950000E-8	0.003528
3.955000E-8	0.003731
3.960000E-8	0.003756
3.965000E-8	0.003784
3.970000E-8	0.003706
3.975000E-8	0.003584
3.980000E-8	0.003225
3.985000E-8	0.002934
3.990000E-8	0.002688
3.995000E-8	0.002350
4.000000E-8	0.001981
4.005000E-8	0.001859
4.010000E-8	0.001534
4.015000E-8	0.001281
4.020000E-8	0.001166
4.025000E-8	0.001125
4.030000E-8	0.001219
4.035000E-8	0.001344
4.040000E-8	0.001484
4.045000E-8	0.001766
4.050000E-8	0.002028
4.055000E-8	0.002416
4.060000E-8	0.002709
4.065000E-8	0.003162
4.070000E-8	0.003428
4.075000E-8	0.003647
4.080000E-8	0.003775
4.085000E-8	0.003831
4.090000E-8	0.003803
4.095000E-8	0.003722
4.100000E-8	0.003516
4.105000E-8	0.003331
4.110000E-8	0.003234
4.115000E-8	0.002966
4.120000E-8	0.002703
4.125000E-8	0.002494
4.130000E-8	0.002144
4.135000E-8	0.002100
4.140000E-8	0.001784
4.145000E-8	0.001778
4.150000E-8	0.001713
4.155000E-8	0.001788
4.160000E-8	0.001778
4.165000E-8	0.001959
4.170000E-8	0.002109
4.175000E-8	0.002422
4.180000E-8	0.002525
4.185000E-8	0.002888
4.190000E-8	0.003022
4.195000E-8	0.003325
4.200000E-8	0.003509
4.205000E-8	0.003628
4.210000E-8	0.003613
4.215000E-8	0.003659
4.220000E-8	0.003566
4.225000E-8	0.003497
4.230000E-8	0.003316
4.235000E-8	0.003087
4.240000E-8	0.002778
4.245000E-8	0.002544
4.250000E-8	0.002363
4.255000E-8	0.002016
4.260000E-8	0.001638
4.265000E-8	0.001513
4.270000E-8	0.001481
4.275000E-8	0.001378
4.280000E-8	0.001322
4.285000E-8	0.001341
4.290000E-8	0.001572
4.295000E-8	0.001916
4.300000E-8	0.002144
4.305000E-8	0.002484
4.310000E-8	0.002684
4.315000E-8	0.003200
4.320000E-8	0.003431
4.325000E-8	0.003619
4.330000E-8	0.003863
4.335000E-8	0.003962
4.340000E-8	0.003984
4.345000E-8	0.004000
4.350000E-8	0.003984
4.355000E-8	0.003853
4.360000E-8	0.003491
4.365000E-8	0.003178
4.370000E-8	0.002891
4.375000E-8	0.002581
4.380000E-8	0.002247
4.385000E-8	0.002084
4.390000E-8	0.001734
4.395000E-8	0.001687
4.400000E-8	0.001513
4.405000E-8	0.001513
4.410000E-8	0.001584
4.415000E-8	0.001681
4.420000E-8	0.001875
4.425000E-8	0.002153
4.430000E-8	0.002369
4.435000E-8	0.002678
4.440000E-8	0.002916
4.445000E-8	0.003244
4.450000E-8	0.003400
4.455000E-8	0.003653
4.460000E-8	0.003753
4.465000E-8	0.003694
4.470000E-8	0.003675
4.475000E-8	0.003541
4.480000E-8	0.003275
4.485000E-8	0.003003
4.490000E-8	0.002737
4.495000E-8	0.002437
4.500000E-8	0.002050
4.505000E-8	0.001828
4.510000E-8	0.001481
4.515000E-8	0.001441
4.520000E-8	0.001272
4.525000E-8	0.001169
4.530000E-8	0.001184
4.535000E-8	0.001378
4.540000E-8	0.001431
4.545000E-8	0.001663
4.550000E-8	0.001747
4.555000E-8	0.002113
4.560000E-8	0.002259
4.565000E-8	0.002556
4.570000E-8	0.002709
4.575000E-8	0.002969
4.580000E-8	0.003109
4.585000E-8	0.003388
4.590000E-8	0.003447
4.595000E-8	0.003512
4.600000E-8	0.003328
4.605000E-8	0.003322
4.610000E-8	0.003125
4.615000E-8	0.002922
4.620000E-8	0.002688
4.625000E-8	0.002547
4.630000E-8	0.002244
4.635000E-8	0.002041
4.640000E-8	0.001884
4.645000E-8	0.001697
4.650000E-8	0.001656
4.655000E-8	0.001659
4.660000E-8	0.001694
4.665000E-8	0.001847
4.670000E-8	0.001994
4.675000E-8	0.002237
4.680000E-8	0.002350
4.685000E-8	0.002716
4.690000E-8	0.003003
4.695000E-8	0.003309
4.700000E-8	0.003653
4.705000E-8	0.003831
4.710000E-8	0.003972
4.715000E-8	0.004119
4.720000E-8	0.004075
4.725000E-8	0.004094
4.730000E-8	0.003900
4.735000E-8	0.003638
4.740000E-8	0.003344
4.745000E-8	0.003094
4.750000E-8	0.002731
4.755000E-8	0.002425
4.760000E-8	0.002106
4.765000E-8	0.001797
4.770000E-8	0.001541
4.775000E-8	0.001522
4.780000E-8	0.001400
4.785000E-8	0.001409
4.790000E-8	0.001434
4.795000E-8	0.001603
4.800000E-8	0.001800
4.805000E-8	0.002022
4.810000E-8	0.002225
4.815000E-8	0.002453
4.820000E-8	0.002791
4.825000E-8	0.003034
4.830000E-8	0.003256
4.835000E-8	0.003575
4.840000E-8	0.003691
4.845000E-8	0.003700
4.850000E-8	0.003566
4.855000E-8	0.003638
4.860000E-8	0.003306
4.865000E-8	0.002931
4.870000E-8	0.002600
4.875000E-8	0.002372
4.880000E-8	0.002038
4.885000E-8	0.001875
4.890000E-8	0.001603
4.895000E-8	0.001538
4.900000E-8	0.001431
4.905000E-8	0.001431
4.910000E-8	0.001503
4.915000E-8	0.001575
4.920000E-8	0.001778
4.925000E-8	0.002028
4.930000E-8	0.002228
4.935000E-8	0.002463
4.940000E-8	0.002747
4.945000E-8	0.002988
4.950000E-8	0.003303
4.955000E-8	0.003591
4.960000E-8	0.003625
4.965000E-8	0.003819
4.970000E-8	0.003825
4.975000E-8	0.003778
4.980000E-8	0.003619
4.985000E-8	0.003413
4.990000E-8	0.003087
4.995000E-8	0.002806
5.000000E-8	0.002378
5.005000E-8	0.002162
5.010000E-8	0.001981
5.015000E-8	0.001741
5.020000E-8	0.001597
5.025000E-8	0.001500
5.030000E-8	0.001456
5.035000E-8	0.001547
5.040000E-8	0.001659
5.045000E-8	0.001909
5.050000E-8	0.002047
5.055000E-8	0.002219
5.060000E-8	0.002391
5.065000E-8	0.002609
5.070000E-8	0.002884
5.075000E-8	0.003134
5.080000E-8	0.003303
5.085000E-8	0.003547
5.090000E-8	0.003563
5.095000E-8	0.003591
5.100000E-8	0.003466
5.105000E-8	0.003391
5.110000E-8	0.003200
5.115000E-8	0.003066
5.120000E-8	0.002734
5.125000E-8	0.002463
5.130000E-8	0.002134
5.135000E-8	0.001978
5.140000E-8	0.001606
5.145000E-8	0.001466
5.150000E-8	0.001325
5.155000E-8	0.001394
5.160000E-8	0.001300
5.165000E-8	0.001475
5.170000E-8	0.001556
5.175000E-8	0.001875
5.180000E-8	0.002169
5.185000E-8	0.002494
5.190000E-8	0.002769
5.195000E-8	0.003038
5.200000E-8	0.003359
5.205000E-8	0.003431
5.210000E-8	0.003544
5.215000E-8	0.003753
5.220000E-8	0.003697
5.225000E-8	0.003753
5.230000E-8	0.003653
5.235000E-8	0.003603
5.240000E-8	0.003322
5.245000E-8	0.003138
5.250000E-8	0.002869
5.255000E-8	0.002659
5.260000E-8	0.002459
5.265000E-8	0.002188
5.270000E-8	0.001816
5.275000E-8	0.001713
5.280000E-8	0.001534
5.285000E-8	0.001425
5.290000E-8	0.001347
5.295000E-8	0.001459
5.300000E-8	0.001516
5.305000E-8	0.001831
5.310000E-8	0.002231
5.315000E-8	0.002431
5.320000E-8	0.002688
5.325000E-8	0.002869
5.330000E-8	0.003063
5.335000E-8	0.003181
5.340000E-8	0.003244
5.345000E-8	0.003203
5.350000E-8	0.003197
5.355000E-8	0.003213
5.360000E-8	0.002919
5.365000E-8	0.002753
5.370000E-8	0.002481
5.375000E-8	0.002409
5.380000E-8	0.002284
5.385000E-8	0.002200
5.390000E-8	0.002059
5.395000E-8	0.001909
5.400000E-8	0.001731
5.405000E-8	0.001716
5.410000E-8	0.001678
5.415000E-8	0.001534
5.420000E-8	0.001566
5.425000E-8	0.001731
5.430000E-8	0.001763
5.435000E-8	0.001875
5.440000E-8	0.002141
5.445000E-8	0.002509
5.450000E-8	0.002784
5.455000E-8	0.003175
5.460000E-8	0.003425
5.465000E-8	0.003647
5.470000E-8	0.003816
5.475000E-8	0.003897
5.480000E-8	0.003788
5.485000E-8	0.003594
5.490000E-8	0.003447
5.495000E-8	0.003213
5.500000E-8	0.002938
5.505000E-8	0.002625
5.510000E-8	0.002291
5.515000E-8	0.002144
5.520000E-8	0.001891
5.525000E-8	0.001809
5.530000E-8	0.001772
5.535000E-8	0.001794
5.540000E-8	0.001800
5.545000E-8	0.001841
5.550000E-8	0.001984
5.555000E-8	0.002122
5.560000E-8	0.002325
5.565000E-8	0.002566
5.570000E-8	0.002769
5.575000E-8	0.003116
5.580000E-8	0.003191
5.585000E-8	0.003397
5.590000E-8	0.003531
5.595000E-8	0.003556
5.600000E-8	0.003538
5.605000E-8	0.003338
5.610000E-8	0.003294
5.615000E-8	0.002988
5.620000E-8	0.002788
5.625000E-8	0.002478
5.630000E-8	0.002181
5.635000E-8	0.002025
5.640000E-8	0.001809
5.645000E-8	0.001606
5.650000E-8	0.001588
5.655000E-8	0.001563
5.660000E-8	0.001678
5.665000E-8	0.001778
5.670000E-8	0.001859
5.675000E-8	0.002134
5.680000E-8	0.002294
5.685000E-8	0.002456
5.690000E-8	0.002666
5.695000E-8	0.002688
5.700000E-8	0.002788
5.705000E-8	0.002972
5.710000E-8	0.003175
5.715000E-8	0.003378
5.720000E-8	0.003538
5.725000E-8	0.003522
5.730000E-8	0.003603
5.735000E-8	0.003469
5.740000E-8	0.003328
5.745000E-8	0.003197
5.750000E-8	0.002959
5.755000E-8	0.002806
5.760000E-8	0.002559
5.765000E-8	0.002391
5.770000E-8	0.002188
5.775000E-8	0.001994
5.780000E-8	0.001934
5.785000E-8	0.001953
5.790000E-8	0.002131
5.795000E-8	0.002219
5.800000E-8	0.002244
5.805000E-8	0.002416
5.810000E-8	0.002488
5.815000E-8	0.002672
5.820000E-8	0.002750
5.825000E-8	0.002894
5.830000E-8	0.003006
5.835000E-8	0.003066
5.840000E-8	0.003053
5.845000E-8	0.003250
5.850000E-8	0.003238
5.855000E-8	0.003209
5.860000E-8	0.003188
5.865000E-8	0.003144
5.870000E-8	0.002909
5.875000E-8	0.002769
5.880000E-8	0.002478
5.885000E-8	0.002375
5.890000E-8	0.002122
5.895000E-8	0.001963
5.900000E-8	0.001731
5.905000E-8	0.001631
5.910000E-8	0.001531
5.915000E-8	0.001525
5.920000E-8	0.001566
5.925000E-8	0.001725
5.930000E-8	0.001825
5.935000E-8	0.002087
5.940000E-8	0.002228
5.945000E-8	0.002459
5.950000E-8	0.002647
5.955000E-8	0.002897
5.960000E-8	0.002934
5.965000E-8	0.003078
5.970000E-8	0.003125
5.975000E-8	0.003322
5.980000E-8	0.003253
5.985000E-8	0.003256
5.990000E-8	0.003228
5.995000E-8	0.003213
6.000000E-8	0.003056
6.005000E-8	0.002675
6.010000E-8	0.002584
6.015000E-8	0.002394
6.020000E-8	0.002094
6.025000E-8	0.001972
6.030000E-8	0.001794
6.035000E-8	0.001772
6.040000E-8	0.001744
6.045000E-8	0.001781
6.050000E-8	0.001888
6.055000E-8	0.002213
6.060000E-8	0.002394
6.065000E-8	0.002713
6.070000E-8	0.002856
6.075000E-8	0.003047
6.080000E-8	0.003144
6.085000E-8	0.003338
6.090000E-8	0.003388
6.095000E-8	0.003438
6.100000E-8	0.003363
6.105000E-8	0.003366
6.110000E-8	0.003341
6.115000E-8	0.003291
6.120000E-8	0.003181
6.125000E-8	0.003053
6.130000E-8	0.002897
6.135000E-8	0.002797
6.140000E-8	0.002622
6.145000E-8	0.002425
6.150000E-8	0.002303
6.155000E-8	0.002266
6.160000E-8	0.002056
6.165000E-8	0.002000
6.170000E-8	0.001966
6.175000E-8	0.002016
6.180000E-8	0.002050
6.185000E-8	0.002144
6.190000E-8	0.002359
6.195000E-8	0.002516
6.200000E-8	0.002603
6.205000E-8	0.002778
6.210000E-8	0.002934
6.215000E-8	0.003003
6.220000E-8	0.003063
6.225000E-8	0.003169
6.230000E-8	0.003122
6.235000E-8	0.003213
6.240000E-8	0.003228
6.245000E-8	0.003150
6.250000E-8	0.002938
6.255000E-8	0.002791
6.260000E-8	0.002603
6.265000E-8	0.002528
6.270000E-8	0.002250
6.275000E-8	0.002191
6.280000E-8	0.002009
6.285000E-8	0.001922
6.290000E-8	0.002016
6.295000E-8	0.001975
6.300000E-8	0.001997
6.305000E-8	0.001994
6.310000E-8	0.002147
6.315000E-8	0.002444
6.320000E-8	0.002616
6.325000E-8	0.002659
6.330000E-8	0.002813
6.335000E-8	0.002897
6.340000E-8	0.003003
6.345000E-8	0.003141
6.350000E-8	0.003172
6.355000E-8	0.003238
6.360000E-8	0.003147
6.365000E-8	0.003059
6.370000E-8	0.002978
6.375000E-8	0.003006
6.380000E-8	0.002603
6.385000E-8	0.002509
6.390000E-8	0.002400
6.395000E-8	0.002297
6.400000E-8	0.002134
6.405000E-8	0.002091
6.410000E-8	0.002087
6.415000E-8	0.002041
6.420000E-8	0.002019
6.425000E-8	0.002188
6.430000E-8	0.002241
6.435000E-8	0.002463
6.440000E-8	0.002559
6.445000E-8	0.002809
6.450000E-8	0.002869
6.455000E-8	0.003109
6.460000E-8	0.003119
6.465000E-8	0.003125
6.470000E-8	0.003075
6.475000E-8	0.003116
6.480000E-8	0.003078
6.485000E-8	0.003081
6.490000E-8	0.002794
6.495000E-8	0.002656
6.500000E-8	0.002428
6.505000E-8	0.002416
6.510000E-8	0.002347
6.515000E-8	0.002159
6.520000E-8	0.001928
6.525000E-8	0.001853
6.530000E-8	0.001934
6.535000E-8	0.001906
6.540000E-8	0.001888
6.545000E-8	0.001884
6.550000E-8	0.001913
6.555000E-8	0.001984
6.560000E-8	0.002075
6.565000E-8	0.002225
6.570000E-8	0.002131
6.575000E-8	0.002216
6.580000E-8	0.002366
6.585000E-8	0.002516
6.590000E-8	0.002641
6.595000E-8	0.002778
6.600000E-8	0.002809
6.605000E-8	0.002878
6.610000E-8	0.002872
6.615000E-8	0.002903
6.620000E-8	0.002769
6.625000E-8	0.002628
6.630000E-8	0.002491
6.635000E-8	0.002488
6.640000E-8	0.002356
6.645000E-8	0.002266
6.650000E-8	0.002106
6.655000E-8	0.002141
6.660000E-8	0.002003
6.665000E-8	0.002003
6.670000E-8	0.001975
6.675000E-8	0.002162
6.680000E-8	0.002234
6.685000E-8	0.002309
6.690000E-8	0.002481
6.695000E-8	0.002803
6.700000E-8	0.002891
6.705000E-8	0.003072
6.710000E-8	0.003175
6.715000E-8	0.003247
6.720000E-8	0.003288
6.725000E-8	0.003353
6.730000E-8	0.003366
6.735000E-8	0.003356
6.740000E-8	0.003225
6.745000E-8	0.003047
6.750000E-8	0.002822
6.755000E-8	0.002681
6.760000E-8	0.002472
6.765000E-8	0.002244
6.770000E-8	0.001988
6.775000E-8	0.001875
6.780000E-8	0.001744
6.785000E-8	0.001828
6.790000E-8	0.001797
6.795000E-8	0.001975
6.800000E-8	0.002019
6.805000E-8	0.002066
6.810000E-8	0.002162
6.815000E-8	0.002400
6.820000E-8	0.002428
6.825000E-8	0.002669
6.830000E-8	0.002772
6.835000E-8	0.002913
6.840000E-8	0.002975
6.845000E-8	0.003066
6.850000E-8	0.003069
6.855000E-8	0.003159
6.860000E-8	0.003147
6.865000E-8	0.003031
6.870000E-8	0.002956
6.875000E-8	0.002913
6.880000E-8	0.002597
6.885000E-8	0.002519
6.890000E-8	0.002309
6.895000E-8	0.002234
6.900000E-8	0.002041
6.905000E-8	0.002053
6.910000E-8	0.001988
6.915000E-8	0.002012
6.920000E-8	0.002078
6.925000E-8	0.002169
6.930000E-8	0.002250
6.935000E-8	0.002469
6.940000E-8	0.002512
6.945000E-8	0.002556
6.950000E-8	0.002634
6.955000E-8	0.002756
6.960000E-8	0.002809
6.965000E-8	0.002919
6.970000E-8	0.002991
6.975000E-8	0.002981
6.980000E-8	0.002916
6.985000E-8	0.002991
6.990000E-8	0.002928
6.995000E-8	0.002931
7.000000E-8	0.002766
7.005000E-8	0.002600
7.010000E-8	0.002509
7.015000E-8	0.002256
7.020000E-8	0.002131
7.025000E-8	0.002034
7.030000E-8	0.001909
7.035000E-8	0.001844
7.040000E-8	0.001825
7.045000E-8	0.001816
7.050000E-8	0.001878
7.055000E-8	0.001969
7.060000E-8	0.002197
7.065000E-8	0.002300
7.070000E-8	0.002400
7.075000E-8	0.002497
7.080000E-8	0.002500
7.085000E-8	0.002656
7.090000E-8	0.002822
7.095000E-8	0.002913
7.100000E-8	0.002991
7.105000E-8	0.003050
7.110000E-8	0.003103
7.115000E-8	0.003147
7.120000E-8	0.003003
7.125000E-8	0.002994
7.130000E-8	0.002891
7.135000E-8	0.002753
7.140000E-8	0.002519
7.145000E-8	0.002397
7.150000E-8	0.002219
7.155000E-8	0.002200
7.160000E-8	0.002034
7.165000E-8	0.001966
7.170000E-8	0.001931
7.175000E-8	0.001988
7.180000E-8	0.001897
7.185000E-8	0.002028
7.190000E-8	0.002087
7.195000E-8	0.002269
7.200000E-8	0.002400
7.205000E-8	0.002684
7.210000E-8	0.002897
7.215000E-8	0.003069
7.220000E-8	0.003175
7.225000E-8	0.003331
7.230000E-8	0.003372
7.235000E-8	0.003288
7.240000E-8	0.003191
7.245000E-8	0.003022
7.250000E-8	0.002938
7.255000E-8	0.002741
7.260000E-8	0.002672
7.265000E-8	0.002625
7.270000E-8	0.002456
7.275000E-8	0.002328
7.280000E-8	0.002253
7.285000E-8	0.002134
7.290000E-8	0.002069
7.295000E-8	0.002000
7.300000E-8	0.001937
7.305000E-8	0.001969
7.310000E-8	0.001997
7.315000E-8	0.002291
7.320000E-8	0.002491
7.325000E-8	0.002662
7.330000E-8	0.002909
7.335000E-8	0.003194
7.340000E-8	0.003347
7.345000E-8	0.003463
7.350000E-8	0.003553
7.355000E-8	0.003484
7.360000E-8	0.003319
7.365000E-8	0.003206
7.370000E-8	0.003162
7.375000E-8	0.002963
7.380000E-8	0.002713
7.385000E-8	0.002684
7.390000E-8	0.002512
7.395000E-8	0.002428
7.400000E-8	0.002400
7.405000E-8	0.002284
7.410000E-8	0.002219
7.415000E-8	0.002213
7.420000E-8	0.002278
7.425000E-8	0.002197
7.430000E-8	0.002313
7.435000E-8	0.002425
7.440000E-8	0.002519
7.445000E-8	0.002662
7.450000E-8	0.002822
7.455000E-8	0.002909
7.460000E-8	0.003053
7.465000E-8	0.003216
7.470000E-8	0.003266
7.475000E-8	0.003397
7.480000E-8	0.003316
7.485000E-8	0.003288
7.490000E-8	0.003197
7.495000E-8	0.003041
7.500000E-8	0.002869
7.505000E-8	0.002859
7.510000E-8	0.002669
7.515000E-8	0.002531
7.520000E-8	0.002419
7.525000E-8	0.002313
7.530000E-8	0.002209
7.535000E-8	0.002156
7.540000E-8	0.002116
7.545000E-8	0.002109
7.550000E-8	0.002022
7.555000E-8	0.002150
7.560000E-8	0.002138
7.565000E-8	0.002288
7.570000E-8	0.002378
7.575000E-8	0.002441
7.580000E-8	0.002478
7.585000E-8	0.002647
7.590000E-8	0.002784
7.595000E-8	0.002869
7.600000E-8	0.002863
7.605000E-8	0.002972
7.610000E-8	0.002897
7.615000E-8	0.002813
7.620000E-8	0.002616
7.625000E-8	0.002563
7.630000E-8	0.002481
7.635000E-8	0.002422
7.640000E-8	0.002347
7.645000E-8	0.002394
7.650000E-8	0.002291
7.655000E-8	0.002322
7.660000E-8	0.002272
7.665000E-8	0.002369
7.670000E-8	0.002347
7.675000E-8	0.002406
7.680000E-8	0.002272
7.685000E-8	0.002388
7.690000E-8	0.002313
7.695000E-8	0.002444
7.700000E-8	0.002388
7.705000E-8	0.002406
7.710000E-8	0.002519
7.715000E-8	0.002747
7.720000E-8	0.002778
7.725000E-8	0.002913
7.730000E-8	0.002916
7.735000E-8	0.003097
7.740000E-8	0.003041
7.745000E-8	0.003056
7.750000E-8	0.003009
7.755000E-8	0.003003
7.760000E-8	0.002791
7.765000E-8	0.002584
7.770000E-8	0.002428
7.775000E-8	0.002397
7.780000E-8	0.002181
7.785000E-8	0.002075
7.790000E-8	0.001909
7.795000E-8	0.001950
7.800000E-8	0.001941
7.805000E-8	0.002038
7.810000E-8	0.002184
7.815000E-8	0.002322
7.820000E-8	0.002369
7.825000E-8	0.002538
7.830000E-8	0.002569
7.835000E-8	0.002688
7.840000E-8	0.002713
7.845000E-8	0.002763
7.850000E-8	0.002681
7.855000E-8	0.002737
7.860000E-8	0.002766
7.865000E-8	0.002834
7.870000E-8	0.002838
7.875000E-8	0.002888
7.880000E-8	0.002850
7.885000E-8	0.002834
7.890000E-8	0.002925
7.895000E-8	0.002834
7.900000E-8	0.002706
7.905000E-8	0.002678
7.910000E-8	0.002509
7.915000E-8	0.002459
7.920000E-8	0.002297
7.925000E-8	0.002253
7.930000E-8	0.002066
7.935000E-8	0.002147
7.940000E-8	0.002159
7.945000E-8	0.002153
7.950000E-8	0.002166
7.955000E-8	0.002434
7.960000E-8	0.002547
7.965000E-8	0.002675
7.970000E-8	0.002797
7.975000E-8	0.002938
7.980000E-8	0.002903
7.985000E-8	0.002816
7.990000E-8	0.002784
7.995000E-8	0.002672
8.000000E-8	0.002525
8.005000E-8	0.002381
8.010000E-8	0.002313
8.015000E-8	0.002237
8.020000E-8	0.002219
8.025000E-8	0.002109
8.030000E-8	0.002038
8.035000E-8	0.002066
8.040000E-8	0.002072
8.045000E-8	0.002113
8.050000E-8	0.002147
8.055000E-8	0.002259
8.060000E-8	0.002338
8.065000E-8	0.002447
8.070000E-8	0.002581
8.075000E-8	0.002678
8.080000E-8	0.002800
8.085000E-8	0.002994
8.090000E-8	0.002988
8.095000E-8	0.003175
8.100000E-8	0.003166
8.105000E-8	0.003184
8.110000E-8	0.003325
8.115000E-8	0.003350
8.120000E-8	0.003206
8.125000E-8	0.003159
8.130000E-8	0.002988
8.135000E-8	0.003000
8.140000E-8	0.002706
8.145000E-8	0.002597
8.150000E-8	0.002297
8.155000E-8	0.002363
8.160000E-8	0.002156
8.165000E-8	0.002084
8.170000E-8	0.002078
8.175000E-8	0.002044
8.180000E-8	0.002103
8.185000E-8	0.002038
8.190000E-8	0.002131
8.195000E-8	0.002278
8.200000E-8	0.002419
8.205000E-8	0.002572
8.210000E-8	0.002634
8.215000E-8	0.002784
8.220000E-8	0.002678
8.225000E-8	0.002731
8.230000E-8	0.002703
8.235000E-8	0.002797
8.240000E-8	0.002794
8.245000E-8	0.002747
8.250000E-8	0.002706
8.255000E-8	0.002828
8.260000E-8	0.002750
8.265000E-8	0.002781
8.270000E-8	0.002819
8.275000E-8	0.002844
8.280000E-8	0.002631
8.285000E-8	0.002553
8.290000E-8	0.002494
8.295000E-8	0.002353
8.300000E-8	0.002278
8.305000E-8	0.002181
8.310000E-8	0.002181
8.315000E-8	0.002222
8.320000E-8	0.002319
8.325000E-8	0.002584
8.330000E-8	0.002759
8.335000E-8	0.002859
8.340000E-8	0.003072
8.345000E-8	0.003213
8.350000E-8	0.003344
8.355000E-8	0.003369
8.360000E-8	0.003338
8.365000E-8	0.003281
8.370000E-8	0.003122
8.375000E-8	0.002938
8.380000E-8	0.002691
8.385000E-8	0.002603
8.390000E-8	0.002325
8.395000E-8	0.002222
8.400000E-8	0.002078
8.405000E-8	0.002084
8.410000E-8	0.002091
8.415000E-8	0.002147
8.420000E-8	0.002216
8.425000E-8	0.002366
8.430000E-8	0.002503
8.435000E-8	0.002622
8.440000E-8	0.002653
8.445000E-8	0.002709
8.450000E-8	0.002831
8.455000E-8	0.002863
8.460000E-8	0.002931
8.465000E-8	0.002956
8.470000E-8	0.002859
8.475000E-8	0.002772
8.480000E-8	0.002809
8.485000E-8	0.002719
8.490000E-8	0.002847
8.495000E-8	0.002809
8.500000E-8	0.002831
8.505000E-8	0.002728
8.510000E-8	0.002625
8.515000E-8	0.002638
8.520000E-8	0.002416
8.525000E-8	0.002334
8.530000E-8	0.002156
8.535000E-8	0.002213
8.540000E-8	0.002166
8.545000E-8	0.002153
8.550000E-8	0.002162
8.555000E-8	0.002244
8.560000E-8	0.002275
8.565000E-8	0.002450
8.570000E-8	0.002488
8.575000E-8	0.002569
8.580000E-8	0.002656
8.585000E-8	0.002972
8.590000E-8	0.003025
8.595000E-8	0.003159
8.600000E-8	0.003191
8.605000E-8	0.003209
8.610000E-8	0.003059
8.615000E-8	0.003047
8.620000E-8	0.002913
8.625000E-8	0.002828
8.630000E-8	0.002750
8.635000E-8	0.002669
8.640000E-8	0.002606
8.645000E-8	0.002497
8.650000E-8	0.002369
8.655000E-8	0.002353
8.660000E-8	0.002300
8.665000E-8	0.002263
8.670000E-8	0.002225
8.675000E-8	0.002216
8.680000E-8	0.002122
8.685000E-8	0.002197
8.690000E-8	0.002156
8.695000E-8	0.002191
8.700000E-8	0.002216
8.705000E-8	0.002400
8.710000E-8	0.002456
8.715000E-8	0.002659
8.720000E-8	0.002656
8.725000E-8	0.002894
8.730000E-8	0.002906
8.735000E-8	0.002825
8.740000E-8	0.002741
8.745000E-8	0.002744
8.750000E-8	0.002541
8.755000E-8	0.002466
8.760000E-8	0.002309
8.765000E-8	0.002313
8.770000E-8	0.002322
8.775000E-8	0.002228
8.780000E-8	0.002272
8.785000E-8	0.002291
8.790000E-8	0.002188
8.795000E-8	0.002394
8.800000E-8	0.002297
8.805000E-8	0.002338
8.810000E-8	0.002297
8.815000E-8	0.002294
8.820000E-8	0.002425
8.825000E-8	0.002431
8.830000E-8	0.002531
8.835000E-8	0.002772
8.840000E-8	0.002728
8.845000E-8	0.002894
8.850000E-8	0.002891
8.855000E-8	0.002991
8.860000E-8	0.002988
8.865000E-8	0.003038
8.870000E-8	0.002975
8.875000E-8	0.003050
8.880000E-8	0.002984
8.885000E-8	0.002903
8.890000E-8	0.003006
8.895000E-8	0.002888
8.900000E-8	0.002781
8.905000E-8	0.002888
8.910000E-8	0.002734
8.915000E-8	0.002603
8.920000E-8	0.002619
8.925000E-8	0.002587
8.930000E-8	0.002541
8.935000E-8	0.002625
8.940000E-8	0.002534
8.945000E-8	0.002675
8.950000E-8	0.002634
8.955000E-8	0.002756
8.960000E-8	0.002719
8.965000E-8	0.002894
8.970000E-8	0.002856
8.975000E-8	0.002925
8.980000E-8	0.002897
8.985000E-8	0.002819
8.990000E-8	0.002831
8.995000E-8	0.002794
9.000000E-8	0.002734
9.005000E-8	0.002719
9.010000E-8	0.002569
9.015000E-8	0.002553
9.020000E-8	0.002478
9.025000E-8	0.002584
9.030000E-8	0.002509
9.035000E-8	0.002437
9.040000E-8	0.002363
9.045000E-8	0.002328
9.050000E-8	0.002356
9.055000E-8	0.002409
9.060000E-8	0.002491
9.065000E-8	0.002569
9.070000E-8	0.002459
9.075000E-8	0.002497
9.080000E-8	0.002619
9.085000E-8	0.002544
9.090000E-8	0.002688
9.095000E-8	0.002756
9.100000E-8	0.002706
9.105000E-8	0.002728
9.110000E-8	0.002731
9.115000E-8	0.002847
9.120000E-8	0.002781
9.125000E-8	0.002769
9.130000E-8	0.002775
9.135000E-8	0.002641
9.140000E-8	0.002622
9.145000E-8	0.002641
9.150000E-8	0.002563
9.155000E-8	0.002416
9.160000E-8	0.002378
9.165000E-8	0.002350
9.170000E-8	0.002350
9.175000E-8	0.002453
9.180000E-8	0.002497
9.185000E-8	0.002516
9.190000E-8	0.002531
9.195000E-8	0.002453
9.200000E-8	0.002356
9.205000E-8	0.002538
9.210000E-8	0.002594
9.215000E-8	0.002575
9.220000E-8	0.002531
9.225000E-8	0.002559
9.230000E-8	0.002525
9.235000E-8	0.002631
9.240000E-8	0.002591
9.245000E-8	0.002556
9.250000E-8	0.002497
9.255000E-8	0.002659
9.260000E-8	0.002497
9.265000E-8	0.002519
9.270000E-8	0.002466
9.275000E-8	0.002437
9.280000E-8	0.002347
9.285000E-8	0.002447
9.290000E-8	0.002391
9.295000E-8	0.002422
9.300000E-8	0.002316
9.305000E-8	0.002353
9.310000E-8	0.002291
9.315000E-8	0.002309
9.320000E-8	0.002250
9.325000E-8	0.002259
9.330000E-8	0.002334
9.335000E-8	0.002431
9.340000E-8	0.002419
9.345000E-8	0.002547
9.350000E-8	0.002584
9.355000E-8	0.002763
9.360000E-8	0.002809
9.365000E-8	0.002850
9.370000E-8	0.002900
9.375000E-8	0.002844
9.380000E-8	0.002722
9.385000E-8	0.002563
9.390000E-8	0.002650
9.395000E-8	0.002453
9.400000E-8	0.002394
9.405000E-8	0.002400
9.410000E-8	0.002350
9.415000E-8	0.002481
9.420000E-8	0.002481
9.425000E-8	0.002428
9.430000E-8	0.002450
9.435000E-8	0.002509
9.440000E-8	0.002488
9.445000E-8	0.002603
9.450000E-8	0.002619
9.455000E-8	0.002587
9.460000E-8	0.002553
9.465000E-8	0.002425
9.470000E-8	0.002403
9.475000E-8	0.002378
9.480000E-8	0.002491
9.485000E-8	0.002447
9.490000E-8	0.002484
9.495000E-8	0.002616
9.500000E-8	0.002594
9.505000E-8	0.002584
9.510000E-8	0.002597
9.515000E-8	0.002669
9.520000E-8	0.002794
9.525000E-8	0.002838
9.530000E-8	0.002766
9.535000E-8	0.002763
9.540000E-8	0.002625
9.545000E-8	0.002547
9.550000E-8	0.002541
9.555000E-8	0.002441
9.560000E-8	0.002413
9.565000E-8	0.002391
9.570000E-8	0.002391
9.575000E-8	0.002444
9.580000E-8	0.002369
9.585000E-8	0.002500
9.590000E-8	0.002597
9.595000E-8	0.002628
9.600000E-8	0.002691
9.605000E-8	0.002869
9.610000E-8	0.002975
9.615000E-8	0.002922
9.620000E-8	0.002931
9.625000E-8	0.002878
9.630000E-8	0.002859
9.635000E-8	0.002678
9.640000E-8	0.002631
9.645000E-8	0.002597
9.650000E-8	0.002472
9.655000E-8	0.002397
9.660000E-8	0.002209
9.665000E-8	0.002172
9.670000E-8	0.002119
9.675000E-8	0.002034
9.680000E-8	0.001963
9.685000E-8	0.002162
9.690000E-8	0.002300
9.695000E-8	0.002538
9.700000E-8	0.002506
9.705000E-8	0.002759
9.710000E-8	0.002756
9.715000E-8	0.002925
9.720000E-8	0.003022
9.725000E-8	0.002934
9.730000E-8	0.002928
9.735000E-8	0.002791
9.740000E-8	0.002641
9.745000E-8	0.002647
9.750000E-8	0.002456
9.755000E-8	0.002544
9.760000E-8	0.002581
9.765000E-8	0.002641
9.770000E-8	0.002766
9.775000E-8	0.002781
9.780000E-8	0.002778
9.785000E-8	0.002781
9.790000E-8	0.002878
9.795000E-8	0.002913
9.800000E-8	0.002791
9.805000E-8	0.002675
9.810000E-8	0.002587
9.815000E-8	0.002538
9.820000E-8	0.002434
9.825000E-8	0.002538
9.830000E-8	0.002553
9.835000E-8	0.002631
9.840000E-8	0.002619
9.845000E-8	0.002750
9.850000E-8	0.002744
9.855000E-8	0.002925
9.860000E-8	0.002913
9.865000E-8	0.003066
9.870000E-8	0.002872
9.875000E-8	0.002856
9.880000E-8	0.002866
9.885000E-8	0.002844
9.890000E-8	0.002850
9.895000E-8	0.002875
9.900000E-8	0.002781
9.905000E-8	0.002669
9.910000E-8	0.002547
9.915000E-8	0.002481
9.920000E-8	0.002481
9.925000E-8	0.002447
9.930000E-8	0.002375
9.935000E-8	0.002213
9.940000E-8	0.002200
9.945000E-8	0.002244
9.950000E-8	0.002338
9.955000E-8	0.002309
9.960000E-8	0.002413
9.965000E-8	0.002553
9.970000E-8	0.002641
9.975000E-8	0.002722
9.980000E-8	0.002709
9.985000E-8	0.002828
9.990000E-8	0.002794
9.995000E-8	0.002791
