LabVIEW Measurement	
Writer_Version	2
Reader_Version	2
Separator	Tab
Decimal_Separator	.
Multi_Headings	No
X_Columns	Multi
Time_Pref	Relative
Operator	TG lab
Date	2015/03/06
Time	19:57:47.1159768104553222656
***End_of_Header***	
	
Channels	1	
Samples	2000	
Date	1903/12/31	
Time	19:00:00	
X_Dimension	Time	
X0	0.0000000000000000E+0	
Delta_X	5.000000E-11	
***End_of_Header***		
X_Value	Untitled	Comment
0.000000	0.002336
5.000000E-11	0.002436
1.000000E-10	0.002492
1.500000E-10	0.002541
2.000000E-10	0.002530
2.500000E-10	0.002514
3.000000E-10	0.002456
3.500000E-10	0.002475
4.000000E-10	0.002398
4.500000E-10	0.002302
5.000000E-10	0.002186
5.500000E-10	0.002083
6.000000E-10	0.002011
6.500000E-10	0.001911
7.000000E-10	0.001844
7.500000E-10	0.001878
8.000000E-10	0.001978
8.500000E-10	0.001995
9.000000E-10	0.002038
9.500000E-10	0.002139
1.000000E-9	0.002177
1.050000E-9	0.002237
1.100000E-9	0.002288
1.150000E-9	0.002356
1.200000E-9	0.002317
1.250000E-9	0.002366
1.300000E-9	0.002359
1.350000E-9	0.002339
1.400000E-9	0.002322
1.450000E-9	0.002306
1.500000E-9	0.002245
1.550000E-9	0.002230
1.600000E-9	0.002219
1.650000E-9	0.002195
1.700000E-9	0.002170
1.750000E-9	0.002209
1.800000E-9	0.002166
1.850000E-9	0.002192
1.900000E-9	0.002170
1.950000E-9	0.002122
2.000000E-9	0.002147
2.050000E-9	0.002114
2.100000E-9	0.002084
2.150000E-9	0.002055
2.200000E-9	0.002044
2.250000E-9	0.002027
2.300000E-9	0.001964
2.350000E-9	0.002014
2.400000E-9	0.001902
2.450000E-9	0.001934
2.500000E-9	0.001937
2.550000E-9	0.001919
2.600000E-9	0.002017
2.650000E-9	0.001995
2.700000E-9	0.001988
2.750000E-9	0.002087
2.800000E-9	0.002033
2.850000E-9	0.002075
2.900000E-9	0.002019
2.950000E-9	0.002077
3.000000E-9	0.002036
3.050000E-9	0.002027
3.100000E-9	0.001977
3.150000E-9	0.002017
3.200000E-9	0.001981
3.250000E-9	0.001984
3.300000E-9	0.001989
3.350000E-9	0.001948
3.400000E-9	0.001975
3.450000E-9	0.001952
3.500000E-9	0.001880
3.550000E-9	0.001802
3.600000E-9	0.001773
3.650000E-9	0.001770
3.700000E-9	0.001720
3.750000E-9	0.001652
3.800000E-9	0.001764
3.850000E-9	0.001788
3.900000E-9	0.001839
3.950000E-9	0.001881
4.000000E-9	0.001958
4.050000E-9	0.002005
4.100000E-9	0.002042
4.150000E-9	0.002017
4.200000E-9	0.001917
4.250000E-9	0.001834
4.300000E-9	0.001753
4.350000E-9	0.001619
4.400000E-9	0.001486
4.450000E-9	0.001488
4.500000E-9	0.001383
4.550000E-9	0.001392
4.600000E-9	0.001306
4.650000E-9	0.001298
4.700000E-9	0.001117
4.750000E-9	0.000794
4.800000E-9	0.000302
4.850000E-9	-0.000287
4.900000E-9	-0.001158
4.950000E-9	-0.002236
5.000000E-9	-0.003595
5.050000E-9	-0.005022
5.100000E-9	-0.006681
5.150000E-9	-0.008295
5.200000E-9	-0.010069
5.250000E-9	-0.011663
5.300000E-9	-0.013164
5.350000E-9	-0.014473
5.400000E-9	-0.015511
5.450000E-9	-0.016136
5.500000E-9	-0.016519
5.550000E-9	-0.016488
5.600000E-9	-0.016106
5.650000E-9	-0.015408
5.700000E-9	-0.014427
5.750000E-9	-0.013291
5.800000E-9	-0.012097
5.850000E-9	-0.010848
5.900000E-9	-0.009788
5.950000E-9	-0.008886
6.000000E-9	-0.008247
6.050000E-9	-0.007911
6.100000E-9	-0.007925
6.150000E-9	-0.008109
6.200000E-9	-0.008563
6.250000E-9	-0.009028
6.300000E-9	-0.009588
6.350000E-9	-0.009991
6.400000E-9	-0.010298
6.450000E-9	-0.010236
6.500000E-9	-0.009994
6.550000E-9	-0.009484
6.600000E-9	-0.008748
6.650000E-9	-0.007734
6.700000E-9	-0.006739
6.750000E-9	-0.005619
6.800000E-9	-0.004566
6.850000E-9	-0.003700
6.900000E-9	-0.003002
6.950000E-9	-0.002634
7.000000E-9	-0.002484
7.050000E-9	-0.002645
7.100000E-9	-0.002998
7.150000E-9	-0.003595
7.200000E-9	-0.004220
7.250000E-9	-0.004780
7.300000E-9	-0.005345
7.350000E-9	-0.005644
7.400000E-9	-0.005759
7.450000E-9	-0.005580
7.500000E-9	-0.005203
7.550000E-9	-0.004511
7.600000E-9	-0.003764
7.650000E-9	-0.002856
7.700000E-9	-0.002009
7.750000E-9	-0.001191
7.800000E-9	-0.000536
7.850000E-9	-3.593750E-5
7.900000E-9	0.000194
7.950000E-9	0.000280
8.000000E-9	9.375000E-6
8.050000E-9	-0.000347
8.100000E-9	-0.000889
8.150000E-9	-0.001463
8.200000E-9	-0.002039
8.250000E-9	-0.002559
8.300000E-9	-0.002847
8.350000E-9	-0.002981
8.400000E-9	-0.002895
8.450000E-9	-0.002548
8.500000E-9	-0.002005
8.550000E-9	-0.001273
8.600000E-9	-0.000509
8.650000E-9	0.000331
8.700000E-9	0.000989
8.750000E-9	0.001541
8.800000E-9	0.001848
8.850000E-9	0.001983
8.900000E-9	0.001763
8.950000E-9	0.001386
9.000000E-9	0.000777
9.050000E-9	8.593750E-5
9.100000E-9	-0.000711
9.150000E-9	-0.001413
9.200000E-9	-0.001998
9.250000E-9	-0.002333
9.300000E-9	-0.002459
9.350000E-9	-0.002267
9.400000E-9	-0.001936
9.450000E-9	-0.001305
9.500000E-9	-0.000527
9.550000E-9	0.000303
9.600000E-9	0.001106
9.650000E-9	0.001848
9.700000E-9	0.002336
9.750000E-9	0.002672
9.800000E-9	0.002733
9.850000E-9	0.002586
9.900000E-9	0.002080
9.950000E-9	0.001498
1.000000E-8	0.000733
1.005000E-8	-8.437500E-5
1.010000E-8	-0.000700
1.015000E-8	-0.001178
1.020000E-8	-0.001630
1.025000E-8	-0.001616
1.030000E-8	-0.001417
1.035000E-8	-0.000948
1.040000E-8	-0.000338
1.045000E-8	0.000498
1.050000E-8	0.001231
1.055000E-8	0.002103
1.060000E-8	0.002719
1.065000E-8	0.003288
1.070000E-8	0.003533
1.075000E-8	0.003523
1.080000E-8	0.003275
1.085000E-8	0.002845
1.090000E-8	0.002261
1.095000E-8	0.001705
1.100000E-8	0.000959
1.105000E-8	0.000470
1.110000E-8	-3.125000E-5
1.115000E-8	-0.000267
1.120000E-8	-0.000333
1.125000E-8	-0.000128
1.130000E-8	0.000152
1.135000E-8	0.000645
1.140000E-8	0.001253
1.145000E-8	0.001866
1.150000E-8	0.002434
1.155000E-8	0.002931
1.160000E-8	0.003203
1.165000E-8	0.003364
1.170000E-8	0.003234
1.175000E-8	0.003083
1.180000E-8	0.002669
1.185000E-8	0.002105
1.190000E-8	0.001527
1.195000E-8	0.001003
1.200000E-8	0.000555
1.205000E-8	0.000159
1.210000E-8	-8.906250E-5
1.215000E-8	-4.687500E-5
1.220000E-8	0.000200
1.225000E-8	0.000556
1.230000E-8	0.001069
1.235000E-8	0.001645
1.240000E-8	0.002269
1.245000E-8	0.002823
1.250000E-8	0.003164
1.255000E-8	0.003398
1.260000E-8	0.003427
1.265000E-8	0.003291
1.270000E-8	0.002917
1.275000E-8	0.002448
1.280000E-8	0.001877
1.285000E-8	0.001298
1.290000E-8	0.000683
1.295000E-8	0.000311
1.300000E-8	4.375000E-5
1.305000E-8	-1.875000E-5
1.310000E-8	8.906250E-5
1.315000E-8	0.000522
1.320000E-8	0.001034
1.325000E-8	0.001645
1.330000E-8	0.002292
1.335000E-8	0.003002
1.340000E-8	0.003445
1.345000E-8	0.003803
1.350000E-8	0.003934
1.355000E-8	0.003930
1.360000E-8	0.003573
1.365000E-8	0.003173
1.370000E-8	0.002598
1.375000E-8	0.001980
1.380000E-8	0.001341
1.385000E-8	0.000855
1.390000E-8	0.000455
1.395000E-8	0.000391
1.400000E-8	0.000381
1.405000E-8	0.000709
1.410000E-8	0.001095
1.415000E-8	0.001711
1.420000E-8	0.002359
1.425000E-8	0.002978
1.430000E-8	0.003508
1.435000E-8	0.003895
1.440000E-8	0.004095
1.445000E-8	0.004075
1.450000E-8	0.003903
1.455000E-8	0.003552
1.460000E-8	0.003017
1.465000E-8	0.002420
1.470000E-8	0.001878
1.475000E-8	0.001375
1.480000E-8	0.000908
1.485000E-8	0.000694
1.490000E-8	0.000614
1.495000E-8	0.000731
1.500000E-8	0.000942
1.505000E-8	0.001436
1.510000E-8	0.001920
1.515000E-8	0.002366
1.520000E-8	0.002877
1.525000E-8	0.003342
1.530000E-8	0.003586
1.535000E-8	0.003736
1.540000E-8	0.003717
1.545000E-8	0.003511
1.550000E-8	0.003123
1.555000E-8	0.002614
1.560000E-8	0.002052
1.565000E-8	0.001553
1.570000E-8	0.001009
1.575000E-8	0.000673
1.580000E-8	0.000439
1.585000E-8	0.000427
1.590000E-8	0.000541
1.595000E-8	0.000866
1.600000E-8	0.001325
1.605000E-8	0.001798
1.610000E-8	0.002372
1.615000E-8	0.002927
1.620000E-8	0.003384
1.625000E-8	0.003761
1.630000E-8	0.003889
1.635000E-8	0.003878
1.640000E-8	0.003700
1.645000E-8	0.003331
1.650000E-8	0.002817
1.655000E-8	0.002286
1.660000E-8	0.001747
1.665000E-8	0.001409
1.670000E-8	0.000952
1.675000E-8	0.000883
1.680000E-8	0.000863
1.685000E-8	0.001089
1.690000E-8	0.001388
1.695000E-8	0.001942
1.700000E-8	0.002445
1.705000E-8	0.003052
1.710000E-8	0.003494
1.715000E-8	0.003909
1.720000E-8	0.004125
1.725000E-8	0.004105
1.730000E-8	0.003906
1.735000E-8	0.003586
1.740000E-8	0.003033
1.745000E-8	0.002550
1.750000E-8	0.001902
1.755000E-8	0.001422
1.760000E-8	0.000942
1.765000E-8	0.000677
1.770000E-8	0.000541
1.775000E-8	0.000552
1.780000E-8	0.000781
1.785000E-8	0.001158
1.790000E-8	0.001636
1.795000E-8	0.002209
1.800000E-8	0.002711
1.805000E-8	0.003206
1.810000E-8	0.003495
1.815000E-8	0.003705
1.820000E-8	0.003736
1.825000E-8	0.003581
1.830000E-8	0.003261
1.835000E-8	0.002819
1.840000E-8	0.002288
1.845000E-8	0.001833
1.850000E-8	0.001311
1.855000E-8	0.000998
1.860000E-8	0.000736
1.865000E-8	0.000767
1.870000E-8	0.000811
1.875000E-8	0.001103
1.880000E-8	0.001427
1.885000E-8	0.001948
1.890000E-8	0.002397
1.895000E-8	0.002867
1.900000E-8	0.003280
1.905000E-8	0.003608
1.910000E-8	0.003684
1.915000E-8	0.003644
1.920000E-8	0.003469
1.925000E-8	0.003147
1.930000E-8	0.002697
1.935000E-8	0.002225
1.940000E-8	0.001783
1.945000E-8	0.001420
1.950000E-8	0.001100
1.955000E-8	0.001033
1.960000E-8	0.001073
1.965000E-8	0.001228
1.970000E-8	0.001514
1.975000E-8	0.001937
1.980000E-8	0.002452
1.985000E-8	0.002919
1.990000E-8	0.003358
1.995000E-8	0.003650
2.000000E-8	0.003888
2.005000E-8	0.004017
2.010000E-8	0.003805
2.015000E-8	0.003595
2.020000E-8	0.003220
2.025000E-8	0.002766
2.030000E-8	0.002277
2.035000E-8	0.001783
2.040000E-8	0.001373
2.045000E-8	0.001139
2.050000E-8	0.000956
2.055000E-8	0.001008
2.060000E-8	0.001080
2.065000E-8	0.001355
2.070000E-8	0.001697
2.075000E-8	0.002108
2.080000E-8	0.002559
2.085000E-8	0.002950
2.090000E-8	0.003345
2.095000E-8	0.003536
2.100000E-8	0.003677
2.105000E-8	0.003653
2.110000E-8	0.003423
2.115000E-8	0.003111
2.120000E-8	0.002688
2.125000E-8	0.002255
2.130000E-8	0.001902
2.135000E-8	0.001538
2.140000E-8	0.001253
2.145000E-8	0.001228
2.150000E-8	0.001292
2.155000E-8	0.001453
2.160000E-8	0.001719
2.165000E-8	0.002158
2.170000E-8	0.002583
2.175000E-8	0.003070
2.180000E-8	0.003484
2.185000E-8	0.003780
2.190000E-8	0.003913
2.195000E-8	0.003853
2.200000E-8	0.003658
2.205000E-8	0.003359
2.210000E-8	0.002930
2.215000E-8	0.002489
2.220000E-8	0.002105
2.225000E-8	0.001744
2.230000E-8	0.001431
2.235000E-8	0.001372
2.240000E-8	0.001358
2.245000E-8	0.001534
2.250000E-8	0.001803
2.255000E-8	0.002217
2.260000E-8	0.002695
2.265000E-8	0.003105
2.270000E-8	0.003484
2.275000E-8	0.003789
2.280000E-8	0.003906
2.285000E-8	0.004006
2.290000E-8	0.003845
2.295000E-8	0.003594
2.300000E-8	0.003234
2.305000E-8	0.002875
2.310000E-8	0.002400
2.315000E-8	0.002078
2.320000E-8	0.001836
2.325000E-8	0.001567
2.330000E-8	0.001495
2.335000E-8	0.001567
2.340000E-8	0.001778
2.345000E-8	0.002044
2.350000E-8	0.002313
2.355000E-8	0.002644
2.360000E-8	0.002894
2.365000E-8	0.003198
2.370000E-8	0.003270
2.375000E-8	0.003341
2.380000E-8	0.003261
2.385000E-8	0.003230
2.390000E-8	0.002977
2.395000E-8	0.002772
2.400000E-8	0.002441
2.405000E-8	0.002239
2.410000E-8	0.001906
2.415000E-8	0.001731
2.420000E-8	0.001575
2.425000E-8	0.001597
2.430000E-8	0.001602
2.435000E-8	0.001769
2.440000E-8	0.001988
2.445000E-8	0.002241
2.450000E-8	0.002536
2.455000E-8	0.002900
2.460000E-8	0.003177
2.465000E-8	0.003409
2.470000E-8	0.003534
2.475000E-8	0.003589
2.480000E-8	0.003527
2.485000E-8	0.003277
2.490000E-8	0.002978
2.495000E-8	0.002625
2.500000E-8	0.002228
2.505000E-8	0.001897
2.510000E-8	0.001636
2.515000E-8	0.001448
2.520000E-8	0.001425
2.525000E-8	0.001516
2.530000E-8	0.001745
2.535000E-8	0.002034
2.540000E-8	0.002392
2.545000E-8	0.002689
2.550000E-8	0.002967
2.555000E-8	0.003150
2.560000E-8	0.003320
2.565000E-8	0.003333
2.570000E-8	0.003219
2.575000E-8	0.003109
2.580000E-8	0.002908
2.585000E-8	0.002670
2.590000E-8	0.002458
2.595000E-8	0.002297
2.600000E-8	0.002041
2.605000E-8	0.001922
2.610000E-8	0.001855
2.615000E-8	0.001816
2.620000E-8	0.001872
2.625000E-8	0.002080
2.630000E-8	0.002242
2.635000E-8	0.002528
2.640000E-8	0.002736
2.645000E-8	0.003017
2.650000E-8	0.003228
2.655000E-8	0.003456
2.660000E-8	0.003480
2.665000E-8	0.003434
2.670000E-8	0.003309
2.675000E-8	0.003147
2.680000E-8	0.002888
2.685000E-8	0.002534
2.690000E-8	0.002117
2.695000E-8	0.001877
2.700000E-8	0.001555
2.705000E-8	0.001455
2.710000E-8	0.001344
2.715000E-8	0.001422
2.720000E-8	0.001558
2.725000E-8	0.001903
2.730000E-8	0.002209
2.735000E-8	0.002566
2.740000E-8	0.002958
2.745000E-8	0.003328
2.750000E-8	0.003495
2.755000E-8	0.003600
2.760000E-8	0.003519
2.765000E-8	0.003333
2.770000E-8	0.003011
2.775000E-8	0.002716
2.780000E-8	0.002341
2.785000E-8	0.002036
2.790000E-8	0.001642
2.795000E-8	0.001459
2.800000E-8	0.001436
2.805000E-8	0.001581
2.810000E-8	0.001750
2.815000E-8	0.002125
2.820000E-8	0.002430
2.825000E-8	0.002877
2.830000E-8	0.003233
2.835000E-8	0.003536
2.840000E-8	0.003678
2.845000E-8	0.003680
2.850000E-8	0.003659
2.855000E-8	0.003467
2.860000E-8	0.003256
2.865000E-8	0.002906
2.870000E-8	0.002650
2.875000E-8	0.002338
2.880000E-8	0.002042
2.885000E-8	0.001827
2.890000E-8	0.001719
2.895000E-8	0.001747
2.900000E-8	0.001788
2.905000E-8	0.002030
2.910000E-8	0.002239
2.915000E-8	0.002572
2.920000E-8	0.002802
2.925000E-8	0.003002
2.930000E-8	0.003159
2.935000E-8	0.003300
2.940000E-8	0.003209
2.945000E-8	0.003152
2.950000E-8	0.002994
2.955000E-8	0.002722
2.960000E-8	0.002430
2.965000E-8	0.002125
2.970000E-8	0.001892
2.975000E-8	0.001709
2.980000E-8	0.001623
2.985000E-8	0.001556
2.990000E-8	0.001598
2.995000E-8	0.001752
3.000000E-8	0.001884
3.005000E-8	0.002044
3.010000E-8	0.002277
3.015000E-8	0.002536
3.020000E-8	0.002773
3.025000E-8	0.002909
3.030000E-8	0.003056
3.035000E-8	0.003069
3.040000E-8	0.003047
3.045000E-8	0.002897
3.050000E-8	0.002688
3.055000E-8	0.002505
3.060000E-8	0.002267
3.065000E-8	0.002020
3.070000E-8	0.001836
3.075000E-8	0.001723
3.080000E-8	0.001677
3.085000E-8	0.001709
3.090000E-8	0.001839
3.095000E-8	0.002084
3.100000E-8	0.002297
3.105000E-8	0.002614
3.110000E-8	0.002961
3.115000E-8	0.003191
3.120000E-8	0.003473
3.125000E-8	0.003573
3.130000E-8	0.003567
3.135000E-8	0.003522
3.140000E-8	0.003314
3.145000E-8	0.003103
3.150000E-8	0.002713
3.155000E-8	0.002433
3.160000E-8	0.002100
3.165000E-8	0.001863
3.170000E-8	0.001720
3.175000E-8	0.001659
3.180000E-8	0.001736
3.185000E-8	0.001966
3.190000E-8	0.002194
3.195000E-8	0.002516
3.200000E-8	0.002791
3.205000E-8	0.003086
3.210000E-8	0.003350
3.215000E-8	0.003530
3.220000E-8	0.003538
3.225000E-8	0.003478
3.230000E-8	0.003292
3.235000E-8	0.003011
3.240000E-8	0.002666
3.245000E-8	0.002364
3.250000E-8	0.002045
3.255000E-8	0.001814
3.260000E-8	0.001638
3.265000E-8	0.001545
3.270000E-8	0.001527
3.275000E-8	0.001672
3.280000E-8	0.001788
3.285000E-8	0.002058
3.290000E-8	0.002316
3.295000E-8	0.002600
3.300000E-8	0.002694
3.305000E-8	0.002889
3.310000E-8	0.002902
3.315000E-8	0.002922
3.320000E-8	0.002789
3.325000E-8	0.002656
3.330000E-8	0.002397
3.335000E-8	0.002111
3.340000E-8	0.001845
3.345000E-8	0.001617
3.350000E-8	0.001469
3.355000E-8	0.001442
3.360000E-8	0.001433
3.365000E-8	0.001611
3.370000E-8	0.001750
3.375000E-8	0.002011
3.380000E-8	0.002261
3.385000E-8	0.002517
3.390000E-8	0.002727
3.395000E-8	0.002872
3.400000E-8	0.002933
3.405000E-8	0.002952
3.410000E-8	0.002888
3.415000E-8	0.002769
3.420000E-8	0.002575
3.425000E-8	0.002383
3.430000E-8	0.002113
3.435000E-8	0.001956
3.440000E-8	0.001778
3.445000E-8	0.001667
3.450000E-8	0.001513
3.455000E-8	0.001573
3.460000E-8	0.001683
3.465000E-8	0.001822
3.470000E-8	0.002094
3.475000E-8	0.002345
3.480000E-8	0.002650
3.485000E-8	0.002869
3.490000E-8	0.003073
3.495000E-8	0.003236
3.500000E-8	0.003225
3.505000E-8	0.003134
3.510000E-8	0.003002
3.515000E-8	0.002764
3.520000E-8	0.002467
3.525000E-8	0.002208
3.530000E-8	0.001956
3.535000E-8	0.001716
3.540000E-8	0.001484
3.545000E-8	0.001458
3.550000E-8	0.001444
3.555000E-8	0.001564
3.560000E-8	0.001727
3.565000E-8	0.001948
3.570000E-8	0.002258
3.575000E-8	0.002459
3.580000E-8	0.002711
3.585000E-8	0.002947
3.590000E-8	0.003083
3.595000E-8	0.003094
3.600000E-8	0.003077
3.605000E-8	0.002989
3.610000E-8	0.002880
3.615000E-8	0.002659
3.620000E-8	0.002439
3.625000E-8	0.002234
3.630000E-8	0.002039
3.635000E-8	0.001980
3.640000E-8	0.001900
3.645000E-8	0.001977
3.650000E-8	0.002027
3.655000E-8	0.002203
3.660000E-8	0.002311
3.665000E-8	0.002542
3.670000E-8	0.002728
3.675000E-8	0.002898
3.680000E-8	0.003042
3.685000E-8	0.003050
3.690000E-8	0.003080
3.695000E-8	0.003023
3.700000E-8	0.002900
3.705000E-8	0.002688
3.710000E-8	0.002467
3.715000E-8	0.002197
3.720000E-8	0.001980
3.725000E-8	0.001800
3.730000E-8	0.001625
3.735000E-8	0.001603
3.740000E-8	0.001625
3.745000E-8	0.001755
3.750000E-8	0.001983
3.755000E-8	0.002202
3.760000E-8	0.002539
3.765000E-8	0.002730
3.770000E-8	0.002955
3.775000E-8	0.003122
3.780000E-8	0.003094
3.785000E-8	0.003073
3.790000E-8	0.002902
3.795000E-8	0.002673
3.800000E-8	0.002414
3.805000E-8	0.002170
3.810000E-8	0.001883
3.815000E-8	0.001772
3.820000E-8	0.001594
3.825000E-8	0.001625
3.830000E-8	0.001628
3.835000E-8	0.001792
3.840000E-8	0.001959
3.845000E-8	0.002233
3.850000E-8	0.002478
3.855000E-8	0.002730
3.860000E-8	0.002942
3.865000E-8	0.003108
3.870000E-8	0.003172
3.875000E-8	0.003138
3.880000E-8	0.003147
3.885000E-8	0.003008
3.890000E-8	0.002850
3.895000E-8	0.002606
3.900000E-8	0.002359
3.905000E-8	0.002184
3.910000E-8	0.002039
3.915000E-8	0.001891
3.920000E-8	0.001820
3.925000E-8	0.001892
3.930000E-8	0.001931
3.935000E-8	0.002084
3.940000E-8	0.002263
3.945000E-8	0.002525
3.950000E-8	0.002689
3.955000E-8	0.002858
3.960000E-8	0.002975
3.965000E-8	0.003064
3.970000E-8	0.003027
3.975000E-8	0.002895
3.980000E-8	0.002745
3.985000E-8	0.002547
3.990000E-8	0.002388
3.995000E-8	0.002139
4.000000E-8	0.001897
4.005000E-8	0.001834
4.010000E-8	0.001733
4.015000E-8	0.001786
4.020000E-8	0.001781
4.025000E-8	0.001909
4.030000E-8	0.002078
4.035000E-8	0.002308
4.040000E-8	0.002461
4.045000E-8	0.002689
4.050000E-8	0.002823
4.055000E-8	0.002963
4.060000E-8	0.003002
4.065000E-8	0.003092
4.070000E-8	0.002902
4.075000E-8	0.002800
4.080000E-8	0.002727
4.085000E-8	0.002552
4.090000E-8	0.002303
4.095000E-8	0.002183
4.100000E-8	0.002056
4.105000E-8	0.001977
4.110000E-8	0.001919
4.115000E-8	0.001963
4.120000E-8	0.002105
4.125000E-8	0.002217
4.130000E-8	0.002380
4.135000E-8	0.002539
4.140000E-8	0.002814
4.145000E-8	0.002964
4.150000E-8	0.003084
4.155000E-8	0.003067
4.160000E-8	0.003055
4.165000E-8	0.002973
4.170000E-8	0.002864
4.175000E-8	0.002669
4.180000E-8	0.002459
4.185000E-8	0.002320
4.190000E-8	0.002164
4.195000E-8	0.002036
4.200000E-8	0.001991
4.205000E-8	0.001859
4.210000E-8	0.001831
4.215000E-8	0.001945
4.220000E-8	0.002002
4.225000E-8	0.002214
4.230000E-8	0.002370
4.235000E-8	0.002505
4.240000E-8	0.002719
4.245000E-8	0.002881
4.250000E-8	0.002933
4.255000E-8	0.003034
4.260000E-8	0.002863
4.265000E-8	0.002808
4.270000E-8	0.002567
4.275000E-8	0.002406
4.280000E-8	0.002164
4.285000E-8	0.002027
4.290000E-8	0.001802
4.295000E-8	0.001752
4.300000E-8	0.001727
4.305000E-8	0.001814
4.310000E-8	0.002052
4.315000E-8	0.002205
4.320000E-8	0.002447
4.325000E-8	0.002709
4.330000E-8	0.002898
4.335000E-8	0.003052
4.340000E-8	0.003102
4.345000E-8	0.003139
4.350000E-8	0.002972
4.355000E-8	0.002747
4.360000E-8	0.002658
4.365000E-8	0.002448
4.370000E-8	0.002148
4.375000E-8	0.002022
4.380000E-8	0.001870
4.385000E-8	0.001814
4.390000E-8	0.001780
4.395000E-8	0.001920
4.400000E-8	0.002038
4.405000E-8	0.002214
4.410000E-8	0.002433
4.415000E-8	0.002595
4.420000E-8	0.002766
4.425000E-8	0.002914
4.430000E-8	0.002952
4.435000E-8	0.002972
4.440000E-8	0.002941
4.445000E-8	0.002828
4.450000E-8	0.002641
4.455000E-8	0.002517
4.460000E-8	0.002263
4.465000E-8	0.002184
4.470000E-8	0.002089
4.475000E-8	0.002016
4.480000E-8	0.001969
4.485000E-8	0.001984
4.490000E-8	0.002083
4.495000E-8	0.002181
4.500000E-8	0.002284
4.505000E-8	0.002366
4.510000E-8	0.002525
4.515000E-8	0.002655
4.520000E-8	0.002695
4.525000E-8	0.002744
4.530000E-8	0.002673
4.535000E-8	0.002677
4.540000E-8	0.002609
4.545000E-8	0.002541
4.550000E-8	0.002433
4.555000E-8	0.002269
4.560000E-8	0.002130
4.565000E-8	0.002077
4.570000E-8	0.002008
4.575000E-8	0.001997
4.580000E-8	0.002052
4.585000E-8	0.002164
4.590000E-8	0.002336
4.595000E-8	0.002459
4.600000E-8	0.002587
4.605000E-8	0.002784
4.610000E-8	0.002809
4.615000E-8	0.002914
4.620000E-8	0.002886
4.625000E-8	0.002852
4.630000E-8	0.002778
4.635000E-8	0.002587
4.640000E-8	0.002411
4.645000E-8	0.002250
4.650000E-8	0.002055
4.655000E-8	0.001945
4.660000E-8	0.001836
4.665000E-8	0.001834
4.670000E-8	0.001806
4.675000E-8	0.001909
4.680000E-8	0.002030
4.685000E-8	0.002214
4.690000E-8	0.002359
4.695000E-8	0.002539
4.700000E-8	0.002700
4.705000E-8	0.002798
4.710000E-8	0.002914
4.715000E-8	0.002933
4.720000E-8	0.002838
4.725000E-8	0.002772
4.730000E-8	0.002609
4.735000E-8	0.002436
4.740000E-8	0.002253
4.745000E-8	0.002167
4.750000E-8	0.002119
4.755000E-8	0.002072
4.760000E-8	0.002061
4.765000E-8	0.002161
4.770000E-8	0.002303
4.775000E-8	0.002437
4.780000E-8	0.002578
4.785000E-8	0.002763
4.790000E-8	0.002761
4.795000E-8	0.002806
4.800000E-8	0.002764
4.805000E-8	0.002681
4.810000E-8	0.002580
4.815000E-8	0.002355
4.820000E-8	0.002134
4.825000E-8	0.001944
4.830000E-8	0.001792
4.835000E-8	0.001644
4.840000E-8	0.001511
4.845000E-8	0.001483
4.850000E-8	0.001403
4.855000E-8	0.001533
4.860000E-8	0.001581
4.865000E-8	0.001859
4.870000E-8	0.002028
4.875000E-8	0.002313
4.880000E-8	0.002553
4.885000E-8	0.002792
4.890000E-8	0.002891
4.895000E-8	0.003022
4.900000E-8	0.002945
4.905000E-8	0.002873
4.910000E-8	0.002769
4.915000E-8	0.002569
4.920000E-8	0.002333
4.925000E-8	0.002175
4.930000E-8	0.002044
4.935000E-8	0.002003
4.940000E-8	0.001970
4.945000E-8	0.002012
4.950000E-8	0.002106
4.955000E-8	0.002150
4.960000E-8	0.002289
4.965000E-8	0.002409
4.970000E-8	0.002469
4.975000E-8	0.002594
4.980000E-8	0.002633
4.985000E-8	0.002645
4.990000E-8	0.002691
4.995000E-8	0.002675
5.000000E-8	0.002623
5.005000E-8	0.002597
5.010000E-8	0.002527
5.015000E-8	0.002472
5.020000E-8	0.002395
5.025000E-8	0.002328
5.030000E-8	0.002252
5.035000E-8	0.002239
5.040000E-8	0.002227
5.045000E-8	0.002233
5.050000E-8	0.002261
5.055000E-8	0.002328
5.060000E-8	0.002325
5.065000E-8	0.002397
5.070000E-8	0.002436
5.075000E-8	0.002517
5.080000E-8	0.002534
5.085000E-8	0.002563
5.090000E-8	0.002564
5.095000E-8	0.002547
5.100000E-8	0.002498
5.105000E-8	0.002563
5.110000E-8	0.002469
5.115000E-8	0.002411
5.120000E-8	0.002403
5.125000E-8	0.002292
5.130000E-8	0.002239
5.135000E-8	0.002272
5.140000E-8	0.002227
5.145000E-8	0.002292
5.150000E-8	0.002242
5.155000E-8	0.002356
5.160000E-8	0.002523
5.165000E-8	0.002631
5.170000E-8	0.002747
5.175000E-8	0.002866
5.180000E-8	0.002938
5.185000E-8	0.002936
5.190000E-8	0.002833
5.195000E-8	0.002744
5.200000E-8	0.002566
5.205000E-8	0.002341
5.210000E-8	0.002131
5.215000E-8	0.001980
5.220000E-8	0.001773
5.225000E-8	0.001766
5.230000E-8	0.001769
5.235000E-8	0.001856
5.240000E-8	0.001969
5.245000E-8	0.002181
5.250000E-8	0.002411
5.255000E-8	0.002619
5.260000E-8	0.002797
5.265000E-8	0.002952
5.270000E-8	0.002988
5.275000E-8	0.002981
5.280000E-8	0.002964
5.285000E-8	0.002861
5.290000E-8	0.002734
5.295000E-8	0.002577
5.300000E-8	0.002380
5.305000E-8	0.002261
5.310000E-8	0.002150
5.315000E-8	0.002098
5.320000E-8	0.002114
5.325000E-8	0.002050
5.330000E-8	0.002164
5.335000E-8	0.002170
5.340000E-8	0.002300
5.345000E-8	0.002381
5.350000E-8	0.002525
5.355000E-8	0.002559
5.360000E-8	0.002583
5.365000E-8	0.002594
5.370000E-8	0.002559
5.375000E-8	0.002598
5.380000E-8	0.002489
5.385000E-8	0.002386
5.390000E-8	0.002278
5.395000E-8	0.002150
5.400000E-8	0.002038
5.405000E-8	0.002005
5.410000E-8	0.001941
5.415000E-8	0.001948
5.420000E-8	0.002000
5.425000E-8	0.002061
5.430000E-8	0.002139
5.435000E-8	0.002248
5.440000E-8	0.002294
5.445000E-8	0.002469
5.450000E-8	0.002527
5.455000E-8	0.002547
5.460000E-8	0.002500
5.465000E-8	0.002519
5.470000E-8	0.002431
5.475000E-8	0.002402
5.480000E-8	0.002298
5.485000E-8	0.002203
5.490000E-8	0.002128
5.495000E-8	0.002117
5.500000E-8	0.002113
5.505000E-8	0.002223
5.510000E-8	0.002248
5.515000E-8	0.002400
5.520000E-8	0.002459
5.525000E-8	0.002534
5.530000E-8	0.002630
5.535000E-8	0.002662
5.540000E-8	0.002633
5.545000E-8	0.002667
5.550000E-8	0.002580
5.555000E-8	0.002506
5.560000E-8	0.002348
5.565000E-8	0.002217
5.570000E-8	0.002030
5.575000E-8	0.001934
5.580000E-8	0.001850
5.585000E-8	0.001814
5.590000E-8	0.001756
5.595000E-8	0.001852
5.600000E-8	0.001947
5.605000E-8	0.002069
5.610000E-8	0.002152
5.615000E-8	0.002272
5.620000E-8	0.002406
5.625000E-8	0.002516
5.630000E-8	0.002492
5.635000E-8	0.002525
5.640000E-8	0.002489
5.645000E-8	0.002370
5.650000E-8	0.002316
5.655000E-8	0.002230
5.660000E-8	0.002109
5.665000E-8	0.002056
5.670000E-8	0.002048
5.675000E-8	0.002020
5.680000E-8	0.001991
5.685000E-8	0.001973
5.690000E-8	0.002058
5.695000E-8	0.002106
5.700000E-8	0.002156
5.705000E-8	0.002248
5.710000E-8	0.002381
5.715000E-8	0.002491
5.720000E-8	0.002608
5.725000E-8	0.002752
5.730000E-8	0.002767
5.735000E-8	0.002809
5.740000E-8	0.002808
5.745000E-8	0.002764
5.750000E-8	0.002702
5.755000E-8	0.002586
5.760000E-8	0.002461
5.765000E-8	0.002380
5.770000E-8	0.002253
5.775000E-8	0.002253
5.780000E-8	0.002189
5.785000E-8	0.002247
5.790000E-8	0.002286
5.795000E-8	0.002405
5.800000E-8	0.002502
5.805000E-8	0.002641
5.810000E-8	0.002741
5.815000E-8	0.002789
5.820000E-8	0.002778
5.825000E-8	0.002856
5.830000E-8	0.002869
5.835000E-8	0.002861
5.840000E-8	0.002838
5.845000E-8	0.002800
5.850000E-8	0.002677
5.855000E-8	0.002573
5.860000E-8	0.002470
5.865000E-8	0.002330
5.870000E-8	0.002222
5.875000E-8	0.002066
5.880000E-8	0.001913
5.885000E-8	0.001855
5.890000E-8	0.001833
5.895000E-8	0.001784
5.900000E-8	0.001911
5.905000E-8	0.002025
5.910000E-8	0.002156
5.915000E-8	0.002302
5.920000E-8	0.002355
5.925000E-8	0.002481
5.930000E-8	0.002516
5.935000E-8	0.002480
5.940000E-8	0.002461
5.945000E-8	0.002452
5.950000E-8	0.002350
5.955000E-8	0.002325
5.960000E-8	0.002330
5.965000E-8	0.002367
5.970000E-8	0.002384
5.975000E-8	0.002394
5.980000E-8	0.002427
5.985000E-8	0.002442
5.990000E-8	0.002427
5.995000E-8	0.002516
6.000000E-8	0.002452
6.005000E-8	0.002463
6.010000E-8	0.002495
6.015000E-8	0.002480
6.020000E-8	0.002488
6.025000E-8	0.002597
6.030000E-8	0.002556
6.035000E-8	0.002636
6.040000E-8	0.002630
6.045000E-8	0.002662
6.050000E-8	0.002664
6.055000E-8	0.002670
6.060000E-8	0.002684
6.065000E-8	0.002742
6.070000E-8	0.002780
6.075000E-8	0.002870
6.080000E-8	0.002975
6.085000E-8	0.003056
6.090000E-8	0.003120
6.095000E-8	0.003139
6.100000E-8	0.003131
6.105000E-8	0.003087
6.110000E-8	0.002914
6.115000E-8	0.002772
6.120000E-8	0.002503
6.125000E-8	0.002298
6.130000E-8	0.002050
6.135000E-8	0.001937
6.140000E-8	0.001834
6.145000E-8	0.001805
6.150000E-8	0.001773
6.155000E-8	0.001759
6.160000E-8	0.001875
6.165000E-8	0.001939
6.170000E-8	0.002005
6.175000E-8	0.002127
6.180000E-8	0.002073
6.185000E-8	0.002180
6.190000E-8	0.002177
6.195000E-8	0.002253
6.200000E-8	0.002339
6.205000E-8	0.002400
6.210000E-8	0.002472
6.215000E-8	0.002548
6.220000E-8	0.002552
6.225000E-8	0.002581
6.230000E-8	0.002539
6.235000E-8	0.002527
6.240000E-8	0.002448
6.245000E-8	0.002389
6.250000E-8	0.002297
6.255000E-8	0.002323
6.260000E-8	0.002342
6.265000E-8	0.002448
6.270000E-8	0.002486
6.275000E-8	0.002602
6.280000E-8	0.002634
6.285000E-8	0.002766
6.290000E-8	0.002831
6.295000E-8	0.002855
6.300000E-8	0.002845
6.305000E-8	0.002778
6.310000E-8	0.002702
6.315000E-8	0.002550
6.320000E-8	0.002484
6.325000E-8	0.002319
6.330000E-8	0.002233
6.335000E-8	0.002181
6.340000E-8	0.002117
6.345000E-8	0.002138
6.350000E-8	0.002233
6.355000E-8	0.002298
6.360000E-8	0.002473
6.365000E-8	0.002594
6.370000E-8	0.002625
6.375000E-8	0.002720
6.380000E-8	0.002763
6.385000E-8	0.002783
6.390000E-8	0.002728
6.395000E-8	0.002634
6.400000E-8	0.002491
6.405000E-8	0.002395
6.410000E-8	0.002284
6.415000E-8	0.002186
6.420000E-8	0.002142
6.425000E-8	0.002150
6.430000E-8	0.002188
6.435000E-8	0.002191
6.440000E-8	0.002295
6.445000E-8	0.002398
6.450000E-8	0.002439
6.455000E-8	0.002495
6.460000E-8	0.002492
6.465000E-8	0.002470
6.470000E-8	0.002414
6.475000E-8	0.002370
6.480000E-8	0.002317
6.485000E-8	0.002317
6.490000E-8	0.002280
6.495000E-8	0.002222
6.500000E-8	0.002167
6.505000E-8	0.002195
6.510000E-8	0.002105
6.515000E-8	0.002123
6.520000E-8	0.002136
6.525000E-8	0.002175
6.530000E-8	0.002166
6.535000E-8	0.002213
6.540000E-8	0.002220
6.545000E-8	0.002219
6.550000E-8	0.002236
6.555000E-8	0.002241
6.560000E-8	0.002273
6.565000E-8	0.002283
6.570000E-8	0.002230
6.575000E-8	0.002319
6.580000E-8	0.002270
6.585000E-8	0.002302
6.590000E-8	0.002239
6.595000E-8	0.002180
6.600000E-8	0.002159
6.605000E-8	0.002162
6.610000E-8	0.002098
6.615000E-8	0.002178
6.620000E-8	0.002172
6.625000E-8	0.002213
6.630000E-8	0.002273
6.635000E-8	0.002302
6.640000E-8	0.002364
6.645000E-8	0.002433
6.650000E-8	0.002463
6.655000E-8	0.002567
6.660000E-8	0.002584
6.665000E-8	0.002633
6.670000E-8	0.002613
6.675000E-8	0.002661
6.680000E-8	0.002641
6.685000E-8	0.002572
6.690000E-8	0.002467
6.695000E-8	0.002419
6.700000E-8	0.002364
6.705000E-8	0.002336
6.710000E-8	0.002347
6.715000E-8	0.002344
6.720000E-8	0.002327
6.725000E-8	0.002405
6.730000E-8	0.002408
6.735000E-8	0.002472
6.740000E-8	0.002495
6.745000E-8	0.002522
6.750000E-8	0.002481
6.755000E-8	0.002375
6.760000E-8	0.002316
6.765000E-8	0.002208
6.770000E-8	0.002113
6.775000E-8	0.001986
6.780000E-8	0.001937
6.785000E-8	0.002011
6.790000E-8	0.001986
6.795000E-8	0.001986
6.800000E-8	0.002003
6.805000E-8	0.002072
6.810000E-8	0.002092
6.815000E-8	0.002205
6.820000E-8	0.002219
6.825000E-8	0.002256
6.830000E-8	0.002258
6.835000E-8	0.002322
6.840000E-8	0.002344
6.845000E-8	0.002363
6.850000E-8	0.002333
6.855000E-8	0.002477
6.860000E-8	0.002364
6.865000E-8	0.002394
6.870000E-8	0.002270
6.875000E-8	0.002284
6.880000E-8	0.002186
6.885000E-8	0.002177
6.890000E-8	0.002116
6.895000E-8	0.002034
6.900000E-8	0.002044
6.905000E-8	0.002138
6.910000E-8	0.002102
6.915000E-8	0.002172
6.920000E-8	0.002214
6.925000E-8	0.002277
6.930000E-8	0.002250
6.935000E-8	0.002292
6.940000E-8	0.002334
6.945000E-8	0.002336
6.950000E-8	0.002411
6.955000E-8	0.002409
6.960000E-8	0.002380
6.965000E-8	0.002341
6.970000E-8	0.002402
6.975000E-8	0.002339
6.980000E-8	0.002314
6.985000E-8	0.002280
6.990000E-8	0.002206
6.995000E-8	0.002184
7.000000E-8	0.002145
7.005000E-8	0.002255
7.010000E-8	0.002188
7.015000E-8	0.002313
7.020000E-8	0.002442
7.025000E-8	0.002564
7.030000E-8	0.002692
7.035000E-8	0.002795
7.040000E-8	0.002766
7.045000E-8	0.002788
7.050000E-8	0.002755
7.055000E-8	0.002683
7.060000E-8	0.002603
7.065000E-8	0.002506
7.070000E-8	0.002420
7.075000E-8	0.002402
7.080000E-8	0.002348
7.085000E-8	0.002314
7.090000E-8	0.002386
7.095000E-8	0.002467
7.100000E-8	0.002517
7.105000E-8	0.002613
7.110000E-8	0.002619
7.115000E-8	0.002769
7.120000E-8	0.002752
7.125000E-8	0.002769
7.130000E-8	0.002798
7.135000E-8	0.002777
7.140000E-8	0.002770
7.145000E-8	0.002742
7.150000E-8	0.002652
7.155000E-8	0.002594
7.160000E-8	0.002552
7.165000E-8	0.002447
7.170000E-8	0.002459
7.175000E-8	0.002380
7.180000E-8	0.002373
7.185000E-8	0.002450
7.190000E-8	0.002397
7.195000E-8	0.002472
7.200000E-8	0.002519
7.205000E-8	0.002500
7.210000E-8	0.002570
7.215000E-8	0.002555
7.220000E-8	0.002553
7.225000E-8	0.002516
7.230000E-8	0.002522
7.235000E-8	0.002531
7.240000E-8	0.002516
7.245000E-8	0.002448
7.250000E-8	0.002408
7.255000E-8	0.002423
7.260000E-8	0.002389
7.265000E-8	0.002353
7.270000E-8	0.002320
7.275000E-8	0.002355
7.280000E-8	0.002372
7.285000E-8	0.002342
7.290000E-8	0.002348
7.295000E-8	0.002272
7.300000E-8	0.002277
7.305000E-8	0.002241
7.310000E-8	0.002191
7.315000E-8	0.002172
7.320000E-8	0.002189
7.325000E-8	0.002155
7.330000E-8	0.002083
7.335000E-8	0.002105
7.340000E-8	0.002087
7.345000E-8	0.002063
7.350000E-8	0.002044
7.355000E-8	0.001986
7.360000E-8	0.001986
7.365000E-8	0.001998
7.370000E-8	0.001981
7.375000E-8	0.002133
7.380000E-8	0.002181
7.385000E-8	0.002266
7.390000E-8	0.002314
7.395000E-8	0.002467
7.400000E-8	0.002534
7.405000E-8	0.002645
7.410000E-8	0.002717
7.415000E-8	0.002747
7.420000E-8	0.002767
7.425000E-8	0.002711
7.430000E-8	0.002708
7.435000E-8	0.002678
7.440000E-8	0.002728
7.445000E-8	0.002645
7.450000E-8	0.002563
7.455000E-8	0.002483
7.460000E-8	0.002370
7.465000E-8	0.002297
7.470000E-8	0.002280
7.475000E-8	0.002208
7.480000E-8	0.002252
7.485000E-8	0.002266
7.490000E-8	0.002277
7.495000E-8	0.002302
7.500000E-8	0.002380
7.505000E-8	0.002469
7.510000E-8	0.002489
7.515000E-8	0.002553
7.520000E-8	0.002573
7.525000E-8	0.002638
7.530000E-8	0.002580
7.535000E-8	0.002464
7.540000E-8	0.002469
7.545000E-8	0.002431
7.550000E-8	0.002342
7.555000E-8	0.002334
7.560000E-8	0.002216
7.565000E-8	0.002173
7.570000E-8	0.002147
7.575000E-8	0.002136
7.580000E-8	0.002066
7.585000E-8	0.002075
7.590000E-8	0.002123
7.595000E-8	0.002091
7.600000E-8	0.002139
7.605000E-8	0.002134
7.610000E-8	0.002209
7.615000E-8	0.002291
7.620000E-8	0.002292
7.625000E-8	0.002397
7.630000E-8	0.002416
7.635000E-8	0.002470
7.640000E-8	0.002470
7.645000E-8	0.002553
7.650000E-8	0.002497
7.655000E-8	0.002503
7.660000E-8	0.002502
7.665000E-8	0.002437
7.670000E-8	0.002497
7.675000E-8	0.002519
7.680000E-8	0.002531
7.685000E-8	0.002545
7.690000E-8	0.002463
7.695000E-8	0.002447
7.700000E-8	0.002353
7.705000E-8	0.002358
7.710000E-8	0.002322
7.715000E-8	0.002288
7.720000E-8	0.002266
7.725000E-8	0.002309
7.730000E-8	0.002309
7.735000E-8	0.002389
7.740000E-8	0.002427
7.745000E-8	0.002486
7.750000E-8	0.002547
7.755000E-8	0.002619
7.760000E-8	0.002713
7.765000E-8	0.002745
7.770000E-8	0.002734
7.775000E-8	0.002730
7.780000E-8	0.002664
7.785000E-8	0.002681
7.790000E-8	0.002636
7.795000E-8	0.002539
7.800000E-8	0.002492
7.805000E-8	0.002428
7.810000E-8	0.002355
7.815000E-8	0.002338
7.820000E-8	0.002280
7.825000E-8	0.002273
7.830000E-8	0.002300
7.835000E-8	0.002359
7.840000E-8	0.002325
7.845000E-8	0.002420
7.850000E-8	0.002386
7.855000E-8	0.002458
7.860000E-8	0.002455
7.865000E-8	0.002491
7.870000E-8	0.002441
7.875000E-8	0.002486
7.880000E-8	0.002475
7.885000E-8	0.002409
7.890000E-8	0.002397
7.895000E-8	0.002350
7.900000E-8	0.002323
7.905000E-8	0.002283
7.910000E-8	0.002167
7.915000E-8	0.002144
7.920000E-8	0.002064
7.925000E-8	0.002041
7.930000E-8	0.002016
7.935000E-8	0.002050
7.940000E-8	0.002008
7.945000E-8	0.002128
7.950000E-8	0.002144
7.955000E-8	0.002252
7.960000E-8	0.002317
7.965000E-8	0.002502
7.970000E-8	0.002470
7.975000E-8	0.002605
7.980000E-8	0.002617
7.985000E-8	0.002659
7.990000E-8	0.002603
7.995000E-8	0.002648
8.000000E-8	0.002514
8.005000E-8	0.002461
8.010000E-8	0.002334
8.015000E-8	0.002267
8.020000E-8	0.002169
8.025000E-8	0.002203
8.030000E-8	0.002145
8.035000E-8	0.002252
8.040000E-8	0.002322
8.045000E-8	0.002445
8.050000E-8	0.002512
8.055000E-8	0.002608
8.060000E-8	0.002656
8.065000E-8	0.002717
8.070000E-8	0.002728
8.075000E-8	0.002584
8.080000E-8	0.002509
8.085000E-8	0.002464
8.090000E-8	0.002333
8.095000E-8	0.002264
8.100000E-8	0.002178
8.105000E-8	0.002139
8.110000E-8	0.002144
8.115000E-8	0.002155
8.120000E-8	0.002128
8.125000E-8	0.002208
8.130000E-8	0.002219
8.135000E-8	0.002303
8.140000E-8	0.002352
8.145000E-8	0.002386
8.150000E-8	0.002369
8.155000E-8	0.002383
8.160000E-8	0.002359
8.165000E-8	0.002350
8.170000E-8	0.002309
8.175000E-8	0.002236
8.180000E-8	0.002217
8.185000E-8	0.002208
8.190000E-8	0.002230
8.195000E-8	0.002277
8.200000E-8	0.002216
8.205000E-8	0.002250
8.210000E-8	0.002208
8.215000E-8	0.002256
8.220000E-8	0.002244
8.225000E-8	0.002216
8.230000E-8	0.002205
8.235000E-8	0.002219
8.240000E-8	0.002183
8.245000E-8	0.002298
8.250000E-8	0.002355
8.255000E-8	0.002375
8.260000E-8	0.002388
8.265000E-8	0.002472
8.270000E-8	0.002455
8.275000E-8	0.002463
8.280000E-8	0.002372
8.285000E-8	0.002383
8.290000E-8	0.002378
8.295000E-8	0.002364
8.300000E-8	0.002328
8.305000E-8	0.002358
8.310000E-8	0.002377
8.315000E-8	0.002411
8.320000E-8	0.002459
8.325000E-8	0.002491
8.330000E-8	0.002520
8.335000E-8	0.002573
8.340000E-8	0.002520
8.345000E-8	0.002578
8.350000E-8	0.002542
8.355000E-8	0.002611
8.360000E-8	0.002592
8.365000E-8	0.002570
8.370000E-8	0.002589
8.375000E-8	0.002656
8.380000E-8	0.002694
8.385000E-8	0.002711
8.390000E-8	0.002623
8.395000E-8	0.002617
8.400000E-8	0.002548
8.405000E-8	0.002567
8.410000E-8	0.002478
8.415000E-8	0.002381
8.420000E-8	0.002338
8.425000E-8	0.002344
8.430000E-8	0.002272
8.435000E-8	0.002280
8.440000E-8	0.002295
8.445000E-8	0.002372
8.450000E-8	0.002416
8.455000E-8	0.002497
8.460000E-8	0.002414
8.465000E-8	0.002553
8.470000E-8	0.002541
8.475000E-8	0.002583
8.480000E-8	0.002594
8.485000E-8	0.002570
8.490000E-8	0.002467
8.495000E-8	0.002494
8.500000E-8	0.002391
8.505000E-8	0.002359
8.510000E-8	0.002328
8.515000E-8	0.002339
8.520000E-8	0.002234
8.525000E-8	0.002350
8.530000E-8	0.002363
8.535000E-8	0.002414
8.540000E-8	0.002448
8.545000E-8	0.002503
8.550000E-8	0.002494
8.555000E-8	0.002470
8.560000E-8	0.002361
8.565000E-8	0.002405
8.570000E-8	0.002295
8.575000E-8	0.002305
8.580000E-8	0.002294
8.585000E-8	0.002361
8.590000E-8	0.002406
8.595000E-8	0.002464
8.600000E-8	0.002423
8.605000E-8	0.002548
8.610000E-8	0.002530
8.615000E-8	0.002505
8.620000E-8	0.002506
8.625000E-8	0.002433
8.630000E-8	0.002394
8.635000E-8	0.002439
8.640000E-8	0.002373
8.645000E-8	0.002445
8.650000E-8	0.002472
8.655000E-8	0.002484
8.660000E-8	0.002595
8.665000E-8	0.002672
8.670000E-8	0.002689
8.675000E-8	0.002722
8.680000E-8	0.002667
8.685000E-8	0.002727
8.690000E-8	0.002620
8.695000E-8	0.002587
8.700000E-8	0.002570
8.705000E-8	0.002594
8.710000E-8	0.002547
8.715000E-8	0.002567
8.720000E-8	0.002550
8.725000E-8	0.002552
8.730000E-8	0.002502
8.735000E-8	0.002542
8.740000E-8	0.002584
8.745000E-8	0.002556
8.750000E-8	0.002575
8.755000E-8	0.002527
8.760000E-8	0.002455
8.765000E-8	0.002355
8.770000E-8	0.002380
8.775000E-8	0.002322
8.780000E-8	0.002281
8.785000E-8	0.002356
8.790000E-8	0.002370
8.795000E-8	0.002480
8.800000E-8	0.002544
8.805000E-8	0.002572
8.810000E-8	0.002581
8.815000E-8	0.002703
8.820000E-8	0.002639
8.825000E-8	0.002617
8.830000E-8	0.002564
8.835000E-8	0.002469
8.840000E-8	0.002419
8.845000E-8	0.002395
8.850000E-8	0.002333
8.855000E-8	0.002336
8.860000E-8	0.002259
8.865000E-8	0.002277
8.870000E-8	0.002314
8.875000E-8	0.002237
8.880000E-8	0.002202
8.885000E-8	0.002153
8.890000E-8	0.002173
8.895000E-8	0.002155
8.900000E-8	0.002102
8.905000E-8	0.002197
8.910000E-8	0.002267
8.915000E-8	0.002272
8.920000E-8	0.002381
8.925000E-8	0.002481
8.930000E-8	0.002534
8.935000E-8	0.002575
8.940000E-8	0.002630
8.945000E-8	0.002631
8.950000E-8	0.002534
8.955000E-8	0.002503
8.960000E-8	0.002422
8.965000E-8	0.002339
8.970000E-8	0.002241
8.975000E-8	0.002178
8.980000E-8	0.002145
8.985000E-8	0.002039
8.990000E-8	0.002031
8.995000E-8	0.002111
9.000000E-8	0.002152
9.005000E-8	0.002272
9.010000E-8	0.002295
9.015000E-8	0.002386
9.020000E-8	0.002431
9.025000E-8	0.002427
9.030000E-8	0.002366
9.035000E-8	0.002411
9.040000E-8	0.002336
9.045000E-8	0.002286
9.050000E-8	0.002172
9.055000E-8	0.002172
9.060000E-8	0.002161
9.065000E-8	0.002192
9.070000E-8	0.002181
9.075000E-8	0.002205
9.080000E-8	0.002188
9.085000E-8	0.002244
9.090000E-8	0.002267
9.095000E-8	0.002273
9.100000E-8	0.002319
9.105000E-8	0.002388
9.110000E-8	0.002392
9.115000E-8	0.002420
9.120000E-8	0.002447
9.125000E-8	0.002417
9.130000E-8	0.002431
9.135000E-8	0.002419
9.140000E-8	0.002381
9.145000E-8	0.002344
9.150000E-8	0.002234
9.155000E-8	0.002242
9.160000E-8	0.002195
9.165000E-8	0.002209
9.170000E-8	0.002138
9.175000E-8	0.002231
9.180000E-8	0.002206
9.185000E-8	0.002283
9.190000E-8	0.002352
9.195000E-8	0.002420
9.200000E-8	0.002445
9.205000E-8	0.002466
9.210000E-8	0.002453
9.215000E-8	0.002406
9.220000E-8	0.002413
9.225000E-8	0.002280
9.230000E-8	0.002270
9.235000E-8	0.002198
9.240000E-8	0.002158
9.245000E-8	0.002114
9.250000E-8	0.002119
9.255000E-8	0.002164
9.260000E-8	0.002217
9.265000E-8	0.002327
9.270000E-8	0.002322
9.275000E-8	0.002380
9.280000E-8	0.002422
9.285000E-8	0.002386
9.290000E-8	0.002320
9.295000E-8	0.002234
9.300000E-8	0.002208
9.305000E-8	0.002150
9.310000E-8	0.002084
9.315000E-8	0.002097
9.320000E-8	0.002120
9.325000E-8	0.002180
9.330000E-8	0.002244
9.335000E-8	0.002391
9.340000E-8	0.002431
9.345000E-8	0.002458
9.350000E-8	0.002489
9.355000E-8	0.002517
9.360000E-8	0.002408
9.365000E-8	0.002348
9.370000E-8	0.002316
9.375000E-8	0.002264
9.380000E-8	0.002217
9.385000E-8	0.002231
9.390000E-8	0.002230
9.395000E-8	0.002330
9.400000E-8	0.002361
9.405000E-8	0.002366
9.410000E-8	0.002319
9.415000E-8	0.002250
9.420000E-8	0.002177
9.425000E-8	0.002111
9.430000E-8	0.002038
9.435000E-8	0.002009
9.440000E-8	0.001977
9.445000E-8	0.001973
9.450000E-8	0.001963
9.455000E-8	0.002030
9.460000E-8	0.002027
9.465000E-8	0.002083
9.470000E-8	0.002158
9.475000E-8	0.002172
9.480000E-8	0.002130
9.485000E-8	0.002194
9.490000E-8	0.002191
9.495000E-8	0.002217
9.500000E-8	0.002198
9.505000E-8	0.002277
9.510000E-8	0.002144
9.515000E-8	0.002152
9.520000E-8	0.002123
9.525000E-8	0.002100
9.530000E-8	0.002123
9.535000E-8	0.002234
9.540000E-8	0.002242
9.545000E-8	0.002345
9.550000E-8	0.002470
9.555000E-8	0.002541
9.560000E-8	0.002566
9.565000E-8	0.002655
9.570000E-8	0.002650
9.575000E-8	0.002594
9.580000E-8	0.002600
9.585000E-8	0.002508
9.590000E-8	0.002442
9.595000E-8	0.002353
9.600000E-8	0.002288
9.605000E-8	0.002264
9.610000E-8	0.002206
9.615000E-8	0.002200
9.620000E-8	0.002194
9.625000E-8	0.002253
9.630000E-8	0.002241
9.635000E-8	0.002333
9.640000E-8	0.002356
9.645000E-8	0.002458
9.650000E-8	0.002511
9.655000E-8	0.002563
9.660000E-8	0.002642
9.665000E-8	0.002658
9.670000E-8	0.002664
9.675000E-8	0.002647
9.680000E-8	0.002583
9.685000E-8	0.002523
9.690000E-8	0.002333
9.695000E-8	0.002252
9.700000E-8	0.002108
9.705000E-8	0.002117
9.710000E-8	0.002038
9.715000E-8	0.002011
9.720000E-8	0.002041
9.725000E-8	0.002089
9.730000E-8	0.002183
9.735000E-8	0.002308
9.740000E-8	0.002356
9.745000E-8	0.002427
9.750000E-8	0.002403
9.755000E-8	0.002377
9.760000E-8	0.002359
9.765000E-8	0.002356
9.770000E-8	0.002308
9.775000E-8	0.002263
9.780000E-8	0.002209
9.785000E-8	0.002233
9.790000E-8	0.002248
9.795000E-8	0.002250
9.800000E-8	0.002261
9.805000E-8	0.002339
9.810000E-8	0.002313
9.815000E-8	0.002336
9.820000E-8	0.002366
9.825000E-8	0.002408
9.830000E-8	0.002372
9.835000E-8	0.002417
9.840000E-8	0.002356
9.845000E-8	0.002470
9.850000E-8	0.002519
9.855000E-8	0.002587
9.860000E-8	0.002623
9.865000E-8	0.002694
9.870000E-8	0.002730
9.875000E-8	0.002791
9.880000E-8	0.002728
9.885000E-8	0.002750
9.890000E-8	0.002644
9.895000E-8	0.002553
9.900000E-8	0.002467
9.905000E-8	0.002345
9.910000E-8	0.002283
9.915000E-8	0.002261
9.920000E-8	0.002253
9.925000E-8	0.002289
9.930000E-8	0.002345
9.935000E-8	0.002434
9.940000E-8	0.002466
9.945000E-8	0.002522
9.950000E-8	0.002597
9.955000E-8	0.002620
9.960000E-8	0.002634
9.965000E-8	0.002587
9.970000E-8	0.002477
9.975000E-8	0.002475
9.980000E-8	0.002378
9.985000E-8	0.002300
9.990000E-8	0.002225
9.995000E-8	0.002186
