LabVIEW Measurement	
Writer_Version	2
Reader_Version	2
Separator	Tab
Decimal_Separator	.
Multi_Headings	No
X_Columns	Multi
Time_Pref	Relative
Operator	TG lab
Date	2015/03/06
Time	19:41:15.4832587242126464844
***End_of_Header***	
	
Channels	1	
Samples	2000	
Date	1903/12/31	
Time	19:00:00	
X_Dimension	Time	
X0	0.0000000000000000E+0	
Delta_X	5.000000E-11	
***End_of_Header***		
X_Value	Untitled	Comment
0.000000	0.002413
5.000000E-11	0.002519
1.000000E-10	0.002437
1.500000E-10	0.002453
2.000000E-10	0.002547
2.500000E-10	0.002616
3.000000E-10	0.002491
3.500000E-10	0.002406
4.000000E-10	0.002341
4.500000E-10	0.002369
5.000000E-10	0.002266
5.500000E-10	0.002391
6.000000E-10	0.002366
6.500000E-10	0.002363
7.000000E-10	0.002291
7.500000E-10	0.002356
8.000000E-10	0.002266
8.500000E-10	0.002156
9.000000E-10	0.002166
9.500000E-10	0.002197
1.000000E-9	0.002122
1.050000E-9	0.002250
1.100000E-9	0.002300
1.150000E-9	0.002334
1.200000E-9	0.002259
1.250000E-9	0.002309
1.300000E-9	0.002306
1.350000E-9	0.002359
1.400000E-9	0.002322
1.450000E-9	0.002453
1.500000E-9	0.002400
1.550000E-9	0.002334
1.600000E-9	0.002150
1.650000E-9	0.002225
1.700000E-9	0.002159
1.750000E-9	0.002053
1.800000E-9	0.001950
1.850000E-9	0.002128
1.900000E-9	0.002050
1.950000E-9	0.002128
2.000000E-9	0.002050
2.050000E-9	0.002063
2.100000E-9	0.002012
2.150000E-9	0.002125
2.200000E-9	0.002106
2.250000E-9	0.002084
2.300000E-9	0.002184
2.350000E-9	0.002366
2.400000E-9	0.002147
2.450000E-9	0.002281
2.500000E-9	0.002166
2.550000E-9	0.002131
2.600000E-9	0.002063
2.650000E-9	0.002091
2.700000E-9	0.002097
2.750000E-9	0.001972
2.800000E-9	0.001903
2.850000E-9	0.001903
2.900000E-9	0.001884
2.950000E-9	0.001675
3.000000E-9	0.001631
3.050000E-9	0.001581
3.100000E-9	0.001513
3.150000E-9	0.001459
3.200000E-9	0.001481
3.250000E-9	0.001519
3.300000E-9	0.001566
3.350000E-9	0.001600
3.400000E-9	0.001488
3.450000E-9	0.001597
3.500000E-9	0.001609
3.550000E-9	0.001547
3.600000E-9	0.001463
3.650000E-9	0.001497
3.700000E-9	0.001419
3.750000E-9	0.001381
3.800000E-9	0.001288
3.850000E-9	0.001341
3.900000E-9	0.001334
3.950000E-9	0.001369
4.000000E-9	0.001362
4.050000E-9	0.001437
4.100000E-9	0.001434
4.150000E-9	0.001538
4.200000E-9	0.001538
4.250000E-9	0.001612
4.300000E-9	0.001672
4.350000E-9	0.001800
4.400000E-9	0.001741
4.450000E-9	0.001831
4.500000E-9	0.001750
4.550000E-9	0.001828
4.600000E-9	0.001756
4.650000E-9	0.001634
4.700000E-9	0.001413
4.750000E-9	0.001181
4.800000E-9	0.000816
4.850000E-9	0.000313
4.900000E-9	-0.000528
4.950000E-9	-0.001634
5.000000E-9	-0.003106
5.050000E-9	-0.004800
5.100000E-9	-0.006906
5.150000E-9	-0.009128
5.200000E-9	-0.011653
5.250000E-9	-0.014181
5.300000E-9	-0.016856
5.350000E-9	-0.019309
5.400000E-9	-0.021675
5.450000E-9	-0.023722
5.500000E-9	-0.025481
5.550000E-9	-0.026603
5.600000E-9	-0.027503
5.650000E-9	-0.027966
5.700000E-9	-0.027941
5.750000E-9	-0.027534
5.800000E-9	-0.026894
5.850000E-9	-0.025706
5.900000E-9	-0.024481
5.950000E-9	-0.022869
6.000000E-9	-0.021319
6.050000E-9	-0.019631
6.100000E-9	-0.018138
6.150000E-9	-0.016706
6.200000E-9	-0.015697
6.250000E-9	-0.014797
6.300000E-9	-0.014350
6.350000E-9	-0.014044
6.400000E-9	-0.014278
6.450000E-9	-0.014625
6.500000E-9	-0.015278
6.550000E-9	-0.015984
6.600000E-9	-0.016716
6.650000E-9	-0.017456
6.700000E-9	-0.018125
6.750000E-9	-0.018703
6.800000E-9	-0.019097
6.850000E-9	-0.019103
6.900000E-9	-0.019197
6.950000E-9	-0.018900
7.000000E-9	-0.018444
7.050000E-9	-0.017753
7.100000E-9	-0.016903
7.150000E-9	-0.015759
7.200000E-9	-0.014497
7.250000E-9	-0.013097
7.300000E-9	-0.011797
7.350000E-9	-0.010431
7.400000E-9	-0.009194
7.450000E-9	-0.008181
7.500000E-9	-0.007456
7.550000E-9	-0.006853
7.600000E-9	-0.006566
7.650000E-9	-0.006638
7.700000E-9	-0.006869
7.750000E-9	-0.007300
7.800000E-9	-0.007888
7.850000E-9	-0.008528
7.900000E-9	-0.009422
7.950000E-9	-0.010250
8.000000E-9	-0.010938
8.050000E-9	-0.011566
8.100000E-9	-0.011984
8.150000E-9	-0.012472
8.200000E-9	-0.012481
8.250000E-9	-0.012225
8.300000E-9	-0.011909
8.350000E-9	-0.011228
8.400000E-9	-0.010269
8.450000E-9	-0.009250
8.500000E-9	-0.008000
8.550000E-9	-0.006778
8.600000E-9	-0.005647
8.650000E-9	-0.004409
8.700000E-9	-0.003622
8.750000E-9	-0.002816
8.800000E-9	-0.002331
8.850000E-9	-0.002003
8.900000E-9	-0.002206
8.950000E-9	-0.002447
9.000000E-9	-0.003003
9.050000E-9	-0.003650
9.100000E-9	-0.004559
9.150000E-9	-0.005444
9.200000E-9	-0.006434
9.250000E-9	-0.007313
9.300000E-9	-0.008100
9.350000E-9	-0.008569
9.400000E-9	-0.009100
9.450000E-9	-0.009194
9.500000E-9	-0.009063
9.550000E-9	-0.008647
9.600000E-9	-0.007978
9.650000E-9	-0.007081
9.700000E-9	-0.006094
9.750000E-9	-0.004906
9.800000E-9	-0.003813
9.850000E-9	-0.002600
9.900000E-9	-0.001653
9.950000E-9	-0.000800
1.000000E-8	-0.000116
1.005000E-8	0.000353
1.010000E-8	0.000478
1.015000E-8	0.000412
1.020000E-8	0.000144
1.025000E-8	-0.000369
1.030000E-8	-0.001169
1.035000E-8	-0.002044
1.040000E-8	-0.002844
1.045000E-8	-0.003738
1.050000E-8	-0.004666
1.055000E-8	-0.005375
1.060000E-8	-0.005928
1.065000E-8	-0.006425
1.070000E-8	-0.006569
1.075000E-8	-0.006375
1.080000E-8	-0.006150
1.085000E-8	-0.005541
1.090000E-8	-0.004831
1.095000E-8	-0.003947
1.100000E-8	-0.003078
1.105000E-8	-0.001888
1.110000E-8	-0.000913
1.115000E-8	0.000247
1.120000E-8	0.001009
1.125000E-8	0.001678
1.130000E-8	0.002209
1.135000E-8	0.002328
1.140000E-8	0.002234
1.145000E-8	0.001984
1.150000E-8	0.001231
1.155000E-8	0.000641
1.160000E-8	-0.000287
1.165000E-8	-0.001200
1.170000E-8	-0.002331
1.175000E-8	-0.003106
1.180000E-8	-0.003991
1.185000E-8	-0.004638
1.190000E-8	-0.005200
1.195000E-8	-0.005419
1.200000E-8	-0.005366
1.205000E-8	-0.005056
1.210000E-8	-0.004641
1.215000E-8	-0.003750
1.220000E-8	-0.002813
1.225000E-8	-0.001819
1.230000E-8	-0.000737
1.235000E-8	0.000406
1.240000E-8	0.001394
1.245000E-8	0.002175
1.250000E-8	0.002859
1.255000E-8	0.003394
1.260000E-8	0.003438
1.265000E-8	0.003522
1.270000E-8	0.003147
1.275000E-8	0.002722
1.280000E-8	0.002094
1.285000E-8	0.001241
1.290000E-8	0.000291
1.295000E-8	-0.000644
1.300000E-8	-0.001528
1.305000E-8	-0.002319
1.310000E-8	-0.003188
1.315000E-8	-0.003569
1.320000E-8	-0.003934
1.325000E-8	-0.003928
1.330000E-8	-0.003697
1.335000E-8	-0.003044
1.340000E-8	-0.002341
1.345000E-8	-0.001422
1.350000E-8	-0.000509
1.355000E-8	0.000663
1.360000E-8	0.001663
1.365000E-8	0.002578
1.370000E-8	0.003425
1.375000E-8	0.003941
1.380000E-8	0.004397
1.385000E-8	0.004575
1.390000E-8	0.004441
1.395000E-8	0.004034
1.400000E-8	0.003372
1.405000E-8	0.002713
1.410000E-8	0.001781
1.415000E-8	0.000881
1.420000E-8	-6.875000E-5
1.425000E-8	-0.001016
1.430000E-8	-0.001700
1.435000E-8	-0.002237
1.440000E-8	-0.002684
1.445000E-8	-0.002934
1.450000E-8	-0.003009
1.455000E-8	-0.002678
1.460000E-8	-0.002275
1.465000E-8	-0.001687
1.470000E-8	-0.001034
1.475000E-8	-0.000147
1.480000E-8	0.000700
1.485000E-8	0.001606
1.490000E-8	0.002463
1.495000E-8	0.003231
1.500000E-8	0.003813
1.505000E-8	0.004197
1.510000E-8	0.004456
1.515000E-8	0.004563
1.520000E-8	0.004475
1.525000E-8	0.004097
1.530000E-8	0.003556
1.535000E-8	0.002719
1.540000E-8	0.001775
1.545000E-8	0.000919
1.550000E-8	-6.250000E-6
1.555000E-8	-0.000763
1.560000E-8	-0.001544
1.565000E-8	-0.001953
1.570000E-8	-0.002394
1.575000E-8	-0.002372
1.580000E-8	-0.002150
1.585000E-8	-0.001706
1.590000E-8	-0.000988
1.595000E-8	-0.000275
1.600000E-8	0.000550
1.605000E-8	0.001362
1.610000E-8	0.002322
1.615000E-8	0.003403
1.620000E-8	0.004116
1.625000E-8	0.004728
1.630000E-8	0.005288
1.635000E-8	0.005441
1.640000E-8	0.005497
1.645000E-8	0.005359
1.650000E-8	0.004916
1.655000E-8	0.004316
1.660000E-8	0.003422
1.665000E-8	0.002578
1.670000E-8	0.001694
1.675000E-8	0.000700
1.680000E-8	-0.000169
1.685000E-8	-0.000778
1.690000E-8	-0.001431
1.695000E-8	-0.001647
1.700000E-8	-0.001753
1.705000E-8	-0.001553
1.710000E-8	-0.001219
1.715000E-8	-0.000669
1.720000E-8	9.375000E-5
1.725000E-8	0.000891
1.730000E-8	0.001806
1.735000E-8	0.002681
1.740000E-8	0.003347
1.745000E-8	0.004000
1.750000E-8	0.004537
1.755000E-8	0.004916
1.760000E-8	0.004944
1.765000E-8	0.004956
1.770000E-8	0.004659
1.775000E-8	0.004394
1.780000E-8	0.003813
1.785000E-8	0.003213
1.790000E-8	0.002428
1.795000E-8	0.001731
1.800000E-8	0.000959
1.805000E-8	0.000194
1.810000E-8	-0.000563
1.815000E-8	-0.001100
1.820000E-8	-0.001463
1.825000E-8	-0.001544
1.830000E-8	-0.001619
1.835000E-8	-0.001166
1.840000E-8	-0.000744
1.845000E-8	-3.125000E-5
1.850000E-8	0.000666
1.855000E-8	0.001531
1.860000E-8	0.002369
1.865000E-8	0.003119
1.870000E-8	0.003863
1.875000E-8	0.004391
1.880000E-8	0.004816
1.885000E-8	0.005150
1.890000E-8	0.005216
1.895000E-8	0.005106
1.900000E-8	0.004728
1.905000E-8	0.004231
1.910000E-8	0.003538
1.915000E-8	0.002834
1.920000E-8	0.001928
1.925000E-8	0.001228
1.930000E-8	0.000459
1.935000E-8	-0.000175
1.940000E-8	-0.000622
1.945000E-8	-0.000875
1.950000E-8	-0.001147
1.955000E-8	-0.001056
1.960000E-8	-0.000700
1.965000E-8	-0.000197
1.970000E-8	0.000269
1.975000E-8	0.001063
1.980000E-8	0.001816
1.985000E-8	0.002694
1.990000E-8	0.003413
1.995000E-8	0.004159
2.000000E-8	0.004625
2.005000E-8	0.005016
2.010000E-8	0.005228
2.015000E-8	0.005278
2.020000E-8	0.005138
2.025000E-8	0.004894
2.030000E-8	0.004350
2.035000E-8	0.003772
2.040000E-8	0.002969
2.045000E-8	0.002175
2.050000E-8	0.001291
2.055000E-8	0.000547
2.060000E-8	-0.000206
2.065000E-8	-0.000703
2.070000E-8	-0.001200
2.075000E-8	-0.001375
2.080000E-8	-0.001266
2.085000E-8	-0.001144
2.090000E-8	-0.000766
2.095000E-8	5.312500E-5
2.100000E-8	0.000691
2.105000E-8	0.001547
2.110000E-8	0.002363
2.115000E-8	0.003134
2.120000E-8	0.003834
2.125000E-8	0.004513
2.130000E-8	0.004881
2.135000E-8	0.005069
2.140000E-8	0.005178
2.145000E-8	0.004941
2.150000E-8	0.004700
2.155000E-8	0.004178
2.160000E-8	0.003544
2.165000E-8	0.002838
2.170000E-8	0.002047
2.175000E-8	0.001400
2.180000E-8	0.000772
2.185000E-8	0.000156
2.190000E-8	-0.000338
2.195000E-8	-0.000591
2.200000E-8	-0.000684
2.205000E-8	-0.000528
2.210000E-8	-0.000294
2.215000E-8	3.750000E-5
2.220000E-8	0.000372
2.225000E-8	0.001184
2.230000E-8	0.001869
2.235000E-8	0.002594
2.240000E-8	0.003338
2.245000E-8	0.004159
2.250000E-8	0.004653
2.255000E-8	0.005203
2.260000E-8	0.005638
2.265000E-8	0.005559
2.270000E-8	0.005566
2.275000E-8	0.005303
2.280000E-8	0.004800
2.285000E-8	0.004309
2.290000E-8	0.003581
2.295000E-8	0.002709
2.300000E-8	0.001803
2.305000E-8	0.001184
2.310000E-8	0.000516
2.315000E-8	-3.125000E-6
2.320000E-8	-0.000478
2.325000E-8	-0.000669
2.330000E-8	-0.000756
2.335000E-8	-0.000625
2.340000E-8	-0.000269
2.345000E-8	0.000275
2.350000E-8	0.000813
2.355000E-8	0.001528
2.360000E-8	0.002241
2.365000E-8	0.003091
2.370000E-8	0.003775
2.375000E-8	0.004334
2.380000E-8	0.004866
2.385000E-8	0.005153
2.390000E-8	0.005084
2.395000E-8	0.005041
2.400000E-8	0.004891
2.405000E-8	0.004428
2.410000E-8	0.003778
2.415000E-8	0.003191
2.420000E-8	0.002563
2.425000E-8	0.001866
2.430000E-8	0.001097
2.435000E-8	0.000494
2.440000E-8	-0.000109
2.445000E-8	-0.000356
2.450000E-8	-0.000672
2.455000E-8	-0.000688
2.460000E-8	-0.000594
2.465000E-8	-0.000322
2.470000E-8	0.000103
2.475000E-8	0.000691
2.480000E-8	0.001300
2.485000E-8	0.002050
2.490000E-8	0.002722
2.495000E-8	0.003606
2.500000E-8	0.004200
2.505000E-8	0.004894
2.510000E-8	0.005294
2.515000E-8	0.005484
2.520000E-8	0.005422
2.525000E-8	0.005363
2.530000E-8	0.004872
2.535000E-8	0.004366
2.540000E-8	0.003697
2.545000E-8	0.002956
2.550000E-8	0.002219
2.555000E-8	0.001509
2.560000E-8	0.000853
2.565000E-8	0.000375
2.570000E-8	-0.000153
2.575000E-8	-0.000378
2.580000E-8	-0.000447
2.585000E-8	-0.000331
2.590000E-8	-0.000169
2.595000E-8	0.000397
2.600000E-8	0.000856
2.605000E-8	0.001566
2.610000E-8	0.002169
2.615000E-8	0.002938
2.620000E-8	0.003463
2.625000E-8	0.003900
2.630000E-8	0.004353
2.635000E-8	0.004731
2.640000E-8	0.004803
2.645000E-8	0.004884
2.650000E-8	0.004706
2.655000E-8	0.004391
2.660000E-8	0.003938
2.665000E-8	0.003469
2.670000E-8	0.002719
2.675000E-8	0.002181
2.680000E-8	0.001475
2.685000E-8	0.000813
2.690000E-8	0.000338
2.695000E-8	-1.562500E-5
2.700000E-8	-0.000313
2.705000E-8	-0.000416
2.710000E-8	-0.000447
2.715000E-8	-0.000147
2.720000E-8	0.000325
2.725000E-8	0.000834
2.730000E-8	0.001303
2.735000E-8	0.001937
2.740000E-8	0.002538
2.745000E-8	0.003272
2.750000E-8	0.003672
2.755000E-8	0.004122
2.760000E-8	0.004384
2.765000E-8	0.004609
2.770000E-8	0.004741
2.775000E-8	0.004525
2.780000E-8	0.004209
2.785000E-8	0.003822
2.790000E-8	0.003263
2.795000E-8	0.002766
2.800000E-8	0.002075
2.805000E-8	0.001609
2.810000E-8	0.001109
2.815000E-8	0.000688
2.820000E-8	0.000331
2.825000E-8	8.750000E-5
2.830000E-8	-8.125000E-5
2.835000E-8	-5.625000E-5
2.840000E-8	4.375000E-5
2.845000E-8	0.000409
2.850000E-8	0.000853
2.855000E-8	0.001513
2.860000E-8	0.002116
2.865000E-8	0.002797
2.870000E-8	0.003400
2.875000E-8	0.003972
2.880000E-8	0.004475
2.885000E-8	0.004856
2.890000E-8	0.005025
2.895000E-8	0.005169
2.900000E-8	0.004959
2.905000E-8	0.004866
2.910000E-8	0.004422
2.915000E-8	0.003831
2.920000E-8	0.003231
2.925000E-8	0.002725
2.930000E-8	0.002072
2.935000E-8	0.001419
2.940000E-8	0.000756
2.945000E-8	0.000347
2.950000E-8	-6.250000E-6
2.955000E-8	-0.000234
2.960000E-8	-0.000169
2.965000E-8	2.187500E-5
2.970000E-8	0.000297
2.975000E-8	0.000888
2.980000E-8	0.001428
2.985000E-8	0.002053
2.990000E-8	0.002709
2.995000E-8	0.003238
3.000000E-8	0.003891
3.005000E-8	0.004344
3.010000E-8	0.004566
3.015000E-8	0.004694
3.020000E-8	0.004706
3.025000E-8	0.004550
3.030000E-8	0.004184
3.035000E-8	0.003856
3.040000E-8	0.003338
3.045000E-8	0.002850
3.050000E-8	0.002175
3.055000E-8	0.001781
3.060000E-8	0.001219
3.065000E-8	0.000928
3.070000E-8	0.000588
3.075000E-8	0.000478
3.080000E-8	0.000356
3.085000E-8	0.000341
3.090000E-8	0.000447
3.095000E-8	0.000784
3.100000E-8	0.001169
3.105000E-8	0.001656
3.110000E-8	0.002156
3.115000E-8	0.002684
3.120000E-8	0.003113
3.125000E-8	0.003722
3.130000E-8	0.003981
3.135000E-8	0.004284
3.140000E-8	0.004363
3.145000E-8	0.004488
3.150000E-8	0.004353
3.155000E-8	0.004141
3.160000E-8	0.003813
3.165000E-8	0.003478
3.170000E-8	0.003059
3.175000E-8	0.002619
3.180000E-8	0.001850
3.185000E-8	0.001484
3.190000E-8	0.000994
3.195000E-8	0.000691
3.200000E-8	0.000353
3.205000E-8	0.000247
3.210000E-8	0.000247
3.215000E-8	0.000434
3.220000E-8	0.000734
3.225000E-8	0.001206
3.230000E-8	0.001747
3.235000E-8	0.002203
3.240000E-8	0.002631
3.245000E-8	0.003184
3.250000E-8	0.003678
3.255000E-8	0.003950
3.260000E-8	0.004147
3.265000E-8	0.004300
3.270000E-8	0.004181
3.275000E-8	0.004119
3.280000E-8	0.003888
3.285000E-8	0.003566
3.290000E-8	0.003056
3.295000E-8	0.002737
3.300000E-8	0.002184
3.305000E-8	0.001856
3.310000E-8	0.001409
3.315000E-8	0.001025
3.320000E-8	0.000675
3.325000E-8	0.000522
3.330000E-8	0.000322
3.335000E-8	0.000409
3.340000E-8	0.000391
3.345000E-8	0.000588
3.350000E-8	0.000881
3.355000E-8	0.001409
3.360000E-8	0.001981
3.365000E-8	0.002500
3.370000E-8	0.003031
3.375000E-8	0.003597
3.380000E-8	0.004013
3.385000E-8	0.004431
3.390000E-8	0.004641
3.395000E-8	0.004662
3.400000E-8	0.004581
3.405000E-8	0.004453
3.410000E-8	0.004153
3.415000E-8	0.003925
3.420000E-8	0.003403
3.425000E-8	0.002875
3.430000E-8	0.002316
3.435000E-8	0.001878
3.440000E-8	0.001494
3.445000E-8	0.001106
3.450000E-8	0.000778
3.455000E-8	0.000763
3.460000E-8	0.000594
3.465000E-8	0.000663
3.470000E-8	0.000822
3.475000E-8	0.001194
3.480000E-8	0.001413
3.485000E-8	0.001916
3.490000E-8	0.002391
3.495000E-8	0.002841
3.500000E-8	0.003209
3.505000E-8	0.003781
3.510000E-8	0.004028
3.515000E-8	0.004309
3.520000E-8	0.004372
3.525000E-8	0.004300
3.530000E-8	0.004253
3.535000E-8	0.004094
3.540000E-8	0.003788
3.545000E-8	0.003378
3.550000E-8	0.002950
3.555000E-8	0.002472
3.560000E-8	0.001981
3.565000E-8	0.001522
3.570000E-8	0.001150
3.575000E-8	0.000913
3.580000E-8	0.000656
3.585000E-8	0.000556
3.590000E-8	0.000547
3.595000E-8	0.000741
3.600000E-8	0.000966
3.605000E-8	0.001353
3.610000E-8	0.001653
3.615000E-8	0.002184
3.620000E-8	0.002722
3.625000E-8	0.003206
3.630000E-8	0.003556
3.635000E-8	0.003859
3.640000E-8	0.004097
3.645000E-8	0.004366
3.650000E-8	0.004353
3.655000E-8	0.004284
3.660000E-8	0.003944
3.665000E-8	0.003678
3.670000E-8	0.003259
3.675000E-8	0.002947
3.680000E-8	0.002378
3.685000E-8	0.001972
3.690000E-8	0.001491
3.695000E-8	0.001088
3.700000E-8	0.000875
3.705000E-8	0.000706
3.710000E-8	0.000622
3.715000E-8	0.000694
3.720000E-8	0.000894
3.725000E-8	0.001197
3.730000E-8	0.001622
3.735000E-8	0.002175
3.740000E-8	0.002572
3.745000E-8	0.003050
3.750000E-8	0.003575
3.755000E-8	0.003975
3.760000E-8	0.004250
3.765000E-8	0.004497
3.770000E-8	0.004578
3.775000E-8	0.004653
3.780000E-8	0.004366
3.785000E-8	0.004181
3.790000E-8	0.003834
3.795000E-8	0.003403
3.800000E-8	0.003044
3.805000E-8	0.002559
3.810000E-8	0.002181
3.815000E-8	0.001797
3.820000E-8	0.001409
3.825000E-8	0.001281
3.830000E-8	0.001131
3.835000E-8	0.001019
3.840000E-8	0.001050
3.845000E-8	0.001281
3.850000E-8	0.001506
3.855000E-8	0.001813
3.860000E-8	0.002097
3.865000E-8	0.002503
3.870000E-8	0.002869
3.875000E-8	0.003250
3.880000E-8	0.003466
3.885000E-8	0.003822
3.890000E-8	0.004084
3.895000E-8	0.004297
3.900000E-8	0.004316
3.905000E-8	0.004247
3.910000E-8	0.003928
3.915000E-8	0.003638
3.920000E-8	0.003181
3.925000E-8	0.002759
3.930000E-8	0.002181
3.935000E-8	0.001766
3.940000E-8	0.001316
3.945000E-8	0.000984
3.950000E-8	0.000638
3.955000E-8	0.000541
3.960000E-8	0.000612
3.965000E-8	0.000634
3.970000E-8	0.000750
3.975000E-8	0.001044
3.980000E-8	0.001316
3.985000E-8	0.001763
3.990000E-8	0.002175
3.995000E-8	0.002622
4.000000E-8	0.003025
4.005000E-8	0.003381
4.010000E-8	0.003638
4.015000E-8	0.003962
4.020000E-8	0.004125
4.025000E-8	0.004166
4.030000E-8	0.003934
4.035000E-8	0.003906
4.040000E-8	0.003525
4.045000E-8	0.003191
4.050000E-8	0.002813
4.055000E-8	0.002422
4.060000E-8	0.001916
4.065000E-8	0.001541
4.070000E-8	0.001191
4.075000E-8	0.001006
4.080000E-8	0.000734
4.085000E-8	0.000769
4.090000E-8	0.000825
4.095000E-8	0.001028
4.100000E-8	0.001275
4.105000E-8	0.001612
4.110000E-8	0.001934
4.115000E-8	0.002313
4.120000E-8	0.002725
4.125000E-8	0.003103
4.130000E-8	0.003359
4.135000E-8	0.003622
4.140000E-8	0.003797
4.145000E-8	0.004112
4.150000E-8	0.004178
4.155000E-8	0.004222
4.160000E-8	0.004147
4.165000E-8	0.003978
4.170000E-8	0.003678
4.175000E-8	0.003322
4.180000E-8	0.002906
4.185000E-8	0.002572
4.190000E-8	0.002091
4.195000E-8	0.001650
4.200000E-8	0.001288
4.205000E-8	0.000850
4.210000E-8	0.000694
4.215000E-8	0.000638
4.220000E-8	0.000594
4.225000E-8	0.000963
4.230000E-8	0.001184
4.235000E-8	0.001550
4.240000E-8	0.001909
4.245000E-8	0.002300
4.250000E-8	0.002669
4.255000E-8	0.002994
4.260000E-8	0.003253
4.265000E-8	0.003472
4.270000E-8	0.003659
4.275000E-8	0.003703
4.280000E-8	0.003666
4.285000E-8	0.003606
4.290000E-8	0.003369
4.295000E-8	0.003178
4.300000E-8	0.002994
4.305000E-8	0.002691
4.310000E-8	0.002253
4.315000E-8	0.001975
4.320000E-8	0.001653
4.325000E-8	0.001388
4.330000E-8	0.001150
4.335000E-8	0.001025
4.340000E-8	0.000853
4.345000E-8	0.000975
4.350000E-8	0.000978
4.355000E-8	0.001313
4.360000E-8	0.001556
4.365000E-8	0.001959
4.370000E-8	0.002297
4.375000E-8	0.002769
4.380000E-8	0.003094
4.385000E-8	0.003512
4.390000E-8	0.003769
4.395000E-8	0.004009
4.400000E-8	0.004069
4.405000E-8	0.003984
4.410000E-8	0.003725
4.415000E-8	0.003509
4.420000E-8	0.003050
4.425000E-8	0.002759
4.430000E-8	0.002234
4.435000E-8	0.001834
4.440000E-8	0.001513
4.445000E-8	0.001269
4.450000E-8	0.001075
4.455000E-8	0.001003
4.460000E-8	0.000925
4.465000E-8	0.001056
4.470000E-8	0.001109
4.475000E-8	0.001369
4.480000E-8	0.001591
4.485000E-8	0.001838
4.490000E-8	0.002091
4.495000E-8	0.002484
4.500000E-8	0.002888
4.505000E-8	0.003169
4.510000E-8	0.003406
4.515000E-8	0.003644
4.520000E-8	0.003822
4.525000E-8	0.003781
4.530000E-8	0.003697
4.535000E-8	0.003575
4.540000E-8	0.003381
4.545000E-8	0.003156
4.550000E-8	0.003016
4.555000E-8	0.002781
4.560000E-8	0.002300
4.565000E-8	0.002056
4.570000E-8	0.001713
4.575000E-8	0.001641
4.580000E-8	0.001544
4.585000E-8	0.001541
4.590000E-8	0.001403
4.595000E-8	0.001553
4.600000E-8	0.001547
4.605000E-8	0.001819
4.610000E-8	0.002053
4.615000E-8	0.002316
4.620000E-8	0.002563
4.625000E-8	0.002934
4.630000E-8	0.003150
4.635000E-8	0.003409
4.640000E-8	0.003675
4.645000E-8	0.003791
4.650000E-8	0.003813
4.655000E-8	0.003888
4.660000E-8	0.003694
4.665000E-8	0.003613
4.670000E-8	0.003347
4.675000E-8	0.003116
4.680000E-8	0.002734
4.685000E-8	0.002397
4.690000E-8	0.001966
4.695000E-8	0.001687
4.700000E-8	0.001303
4.705000E-8	0.001072
4.710000E-8	0.000922
4.715000E-8	0.000909
4.720000E-8	0.000947
4.725000E-8	0.001009
4.730000E-8	0.001119
4.735000E-8	0.001475
4.740000E-8	0.001766
4.745000E-8	0.002191
4.750000E-8	0.002553
4.755000E-8	0.002872
4.760000E-8	0.003175
4.765000E-8	0.003553
4.770000E-8	0.003803
4.775000E-8	0.003900
4.780000E-8	0.003863
4.785000E-8	0.003791
4.790000E-8	0.003569
4.795000E-8	0.003388
4.800000E-8	0.003059
4.805000E-8	0.002781
4.810000E-8	0.002338
4.815000E-8	0.001891
4.820000E-8	0.001597
4.825000E-8	0.001419
4.830000E-8	0.001075
4.835000E-8	0.001028
4.840000E-8	0.000978
4.845000E-8	0.001138
4.850000E-8	0.001222
4.855000E-8	0.001456
4.860000E-8	0.001534
4.865000E-8	0.001828
4.870000E-8	0.002194
4.875000E-8	0.002563
4.880000E-8	0.002813
4.885000E-8	0.003078
4.890000E-8	0.003278
4.895000E-8	0.003441
4.900000E-8	0.003694
4.905000E-8	0.003784
4.910000E-8	0.003597
4.915000E-8	0.003581
4.920000E-8	0.003344
4.925000E-8	0.003113
4.930000E-8	0.002884
4.935000E-8	0.002578
4.940000E-8	0.002197
4.945000E-8	0.001888
4.950000E-8	0.001603
4.955000E-8	0.001425
4.960000E-8	0.001300
4.965000E-8	0.001147
4.970000E-8	0.001094
4.975000E-8	0.001291
4.980000E-8	0.001388
4.985000E-8	0.001656
4.990000E-8	0.001806
4.995000E-8	0.002066
5.000000E-8	0.002353
5.005000E-8	0.002750
5.010000E-8	0.002931
5.015000E-8	0.003206
5.020000E-8	0.003356
5.025000E-8	0.003603
5.030000E-8	0.003556
5.035000E-8	0.003506
5.040000E-8	0.003250
5.045000E-8	0.002988
5.050000E-8	0.002684
5.055000E-8	0.002428
5.060000E-8	0.002022
5.065000E-8	0.001791
5.070000E-8	0.001356
5.075000E-8	0.001222
5.080000E-8	0.001081
5.085000E-8	0.000931
5.090000E-8	0.000869
5.095000E-8	0.000975
5.100000E-8	0.001134
5.105000E-8	0.001413
5.110000E-8	0.001713
5.115000E-8	0.002094
5.120000E-8	0.002441
5.125000E-8	0.002869
5.130000E-8	0.003144
5.135000E-8	0.003459
5.140000E-8	0.003709
5.145000E-8	0.004044
5.150000E-8	0.004038
5.155000E-8	0.004059
5.160000E-8	0.003897
5.165000E-8	0.003819
5.170000E-8	0.003525
5.175000E-8	0.003288
5.180000E-8	0.002850
5.185000E-8	0.002600
5.190000E-8	0.002250
5.195000E-8	0.001972
5.200000E-8	0.001678
5.205000E-8	0.001544
5.210000E-8	0.001347
5.215000E-8	0.001306
5.220000E-8	0.001203
5.225000E-8	0.001431
5.230000E-8	0.001594
5.235000E-8	0.001772
5.240000E-8	0.001991
5.245000E-8	0.002237
5.250000E-8	0.002591
5.255000E-8	0.002813
5.260000E-8	0.003103
5.265000E-8	0.003303
5.270000E-8	0.003425
5.275000E-8	0.003466
5.280000E-8	0.003459
5.285000E-8	0.003378
5.290000E-8	0.003184
5.295000E-8	0.003116
5.300000E-8	0.002784
5.305000E-8	0.002644
5.310000E-8	0.002509
5.315000E-8	0.002303
5.320000E-8	0.002103
5.325000E-8	0.001884
5.330000E-8	0.001716
5.335000E-8	0.001563
5.340000E-8	0.001572
5.345000E-8	0.001466
5.350000E-8	0.001472
5.355000E-8	0.001631
5.360000E-8	0.001709
5.365000E-8	0.002038
5.370000E-8	0.002263
5.375000E-8	0.002466
5.380000E-8	0.002856
5.385000E-8	0.003203
5.390000E-8	0.003484
5.395000E-8	0.003766
5.400000E-8	0.003819
5.405000E-8	0.003884
5.410000E-8	0.003850
5.415000E-8	0.003678
5.420000E-8	0.003531
5.425000E-8	0.003416
5.430000E-8	0.002919
5.435000E-8	0.002694
5.440000E-8	0.002394
5.445000E-8	0.002309
5.450000E-8	0.001934
5.455000E-8	0.001778
5.460000E-8	0.001697
5.465000E-8	0.001628
5.470000E-8	0.001666
5.475000E-8	0.001750
5.480000E-8	0.001809
5.485000E-8	0.001953
5.490000E-8	0.002178
5.495000E-8	0.002437
5.500000E-8	0.002713
5.505000E-8	0.003050
5.510000E-8	0.003188
5.515000E-8	0.003341
5.520000E-8	0.003447
5.525000E-8	0.003563
5.530000E-8	0.003497
5.535000E-8	0.003534
5.540000E-8	0.003391
5.545000E-8	0.003194
5.550000E-8	0.002975
5.555000E-8	0.002737
5.560000E-8	0.002456
5.565000E-8	0.002253
5.570000E-8	0.001994
5.575000E-8	0.001813
5.580000E-8	0.001616
5.585000E-8	0.001509
5.590000E-8	0.001288
5.595000E-8	0.001300
5.600000E-8	0.001378
5.605000E-8	0.001478
5.610000E-8	0.001528
5.615000E-8	0.001691
5.620000E-8	0.001922
5.625000E-8	0.002219
5.630000E-8	0.002506
5.635000E-8	0.002769
5.640000E-8	0.002819
5.645000E-8	0.002950
5.650000E-8	0.003084
5.655000E-8	0.003231
5.660000E-8	0.003063
5.665000E-8	0.003075
5.670000E-8	0.002944
5.675000E-8	0.002847
5.680000E-8	0.002666
5.685000E-8	0.002503
5.690000E-8	0.002297
5.695000E-8	0.002044
5.700000E-8	0.001903
5.705000E-8	0.001641
5.710000E-8	0.001406
5.715000E-8	0.001375
5.720000E-8	0.001344
5.725000E-8	0.001331
5.730000E-8	0.001447
5.735000E-8	0.001619
5.740000E-8	0.001747
5.745000E-8	0.002056
5.750000E-8	0.002297
5.755000E-8	0.002678
5.760000E-8	0.002928
5.765000E-8	0.003222
5.770000E-8	0.003453
5.775000E-8	0.003659
5.780000E-8	0.003713
5.785000E-8	0.003875
5.790000E-8	0.003794
5.795000E-8	0.003619
5.800000E-8	0.003397
5.805000E-8	0.003078
5.810000E-8	0.002834
5.815000E-8	0.002662
5.820000E-8	0.002413
5.825000E-8	0.002225
5.830000E-8	0.002053
5.835000E-8	0.001903
5.840000E-8	0.001784
5.845000E-8	0.001691
5.850000E-8	0.001678
5.855000E-8	0.001800
5.860000E-8	0.001831
5.865000E-8	0.001947
5.870000E-8	0.002078
5.875000E-8	0.002359
5.880000E-8	0.002531
5.885000E-8	0.002737
5.890000E-8	0.002919
5.895000E-8	0.003094
5.900000E-8	0.003228
5.905000E-8	0.003269
5.910000E-8	0.003316
5.915000E-8	0.003213
5.920000E-8	0.003028
5.925000E-8	0.002856
5.930000E-8	0.002563
5.935000E-8	0.002406
5.940000E-8	0.002194
5.945000E-8	0.002034
5.950000E-8	0.001738
5.955000E-8	0.001609
5.960000E-8	0.001575
5.965000E-8	0.001672
5.970000E-8	0.001566
5.975000E-8	0.001553
5.980000E-8	0.001638
5.985000E-8	0.001769
5.990000E-8	0.001937
5.995000E-8	0.002134
6.000000E-8	0.002388
6.005000E-8	0.002569
6.010000E-8	0.002731
6.015000E-8	0.002978
6.020000E-8	0.003081
6.025000E-8	0.003244
6.030000E-8	0.003178
6.035000E-8	0.003344
6.040000E-8	0.003278
6.045000E-8	0.003128
6.050000E-8	0.003016
6.055000E-8	0.002966
6.060000E-8	0.002784
6.065000E-8	0.002622
6.070000E-8	0.002388
6.075000E-8	0.002297
6.080000E-8	0.002016
6.085000E-8	0.001881
6.090000E-8	0.001597
6.095000E-8	0.001669
6.100000E-8	0.001625
6.105000E-8	0.001669
6.110000E-8	0.001894
6.115000E-8	0.002081
6.120000E-8	0.002275
6.125000E-8	0.002625
6.130000E-8	0.002981
6.135000E-8	0.003209
6.140000E-8	0.003388
6.145000E-8	0.003616
6.150000E-8	0.003603
6.155000E-8	0.003653
6.160000E-8	0.003603
6.165000E-8	0.003553
6.170000E-8	0.003341
6.175000E-8	0.003194
6.180000E-8	0.002928
6.185000E-8	0.002778
6.190000E-8	0.002534
6.195000E-8	0.002381
6.200000E-8	0.002284
6.205000E-8	0.002119
6.210000E-8	0.001881
6.215000E-8	0.001806
6.220000E-8	0.001719
6.225000E-8	0.001803
6.230000E-8	0.001644
6.235000E-8	0.001772
6.240000E-8	0.001794
6.245000E-8	0.002028
6.250000E-8	0.002250
6.255000E-8	0.002500
6.260000E-8	0.002797
6.265000E-8	0.003091
6.270000E-8	0.003119
6.275000E-8	0.003422
6.280000E-8	0.003494
6.285000E-8	0.003547
6.290000E-8	0.003444
6.295000E-8	0.003394
6.300000E-8	0.003341
6.305000E-8	0.003141
6.310000E-8	0.002913
6.315000E-8	0.002775
6.320000E-8	0.002516
6.325000E-8	0.002278
6.330000E-8	0.002025
6.335000E-8	0.001872
6.340000E-8	0.001641
6.345000E-8	0.001547
6.350000E-8	0.001484
6.355000E-8	0.001647
6.360000E-8	0.001709
6.365000E-8	0.001856
6.370000E-8	0.001888
6.375000E-8	0.002147
6.380000E-8	0.002281
6.385000E-8	0.002591
6.390000E-8	0.002591
6.395000E-8	0.002903
6.400000E-8	0.002959
6.405000E-8	0.003084
6.410000E-8	0.003053
6.415000E-8	0.003075
6.420000E-8	0.002913
6.425000E-8	0.003025
6.430000E-8	0.002903
6.435000E-8	0.002788
6.440000E-8	0.002622
6.445000E-8	0.002481
6.450000E-8	0.002203
6.455000E-8	0.002072
6.460000E-8	0.001922
6.465000E-8	0.001828
6.470000E-8	0.001744
6.475000E-8	0.001694
6.480000E-8	0.001641
6.485000E-8	0.001722
6.490000E-8	0.001775
6.495000E-8	0.001981
6.500000E-8	0.002169
6.505000E-8	0.002659
6.510000E-8	0.002816
6.515000E-8	0.002978
6.520000E-8	0.003134
6.525000E-8	0.003275
6.530000E-8	0.003309
6.535000E-8	0.003350
6.540000E-8	0.003319
6.545000E-8	0.003294
6.550000E-8	0.003000
6.555000E-8	0.002894
6.560000E-8	0.002691
6.565000E-8	0.002378
6.570000E-8	0.002134
6.575000E-8	0.001975
6.580000E-8	0.001769
6.585000E-8	0.001741
6.590000E-8	0.001666
6.595000E-8	0.001628
6.600000E-8	0.001647
6.605000E-8	0.001728
6.610000E-8	0.001828
6.615000E-8	0.001906
6.620000E-8	0.002144
6.625000E-8	0.002356
6.630000E-8	0.002422
6.635000E-8	0.002584
6.640000E-8	0.002744
6.645000E-8	0.002900
6.650000E-8	0.002959
6.655000E-8	0.003138
6.660000E-8	0.003172
6.665000E-8	0.003250
6.670000E-8	0.003172
6.675000E-8	0.003119
6.680000E-8	0.003012
6.685000E-8	0.002913
6.690000E-8	0.002756
6.695000E-8	0.002603
6.700000E-8	0.002456
6.705000E-8	0.002278
6.710000E-8	0.002109
6.715000E-8	0.002059
6.720000E-8	0.001900
6.725000E-8	0.001881
6.730000E-8	0.001900
6.735000E-8	0.002022
6.740000E-8	0.002103
6.745000E-8	0.002300
6.750000E-8	0.002406
6.755000E-8	0.002600
6.760000E-8	0.002662
6.765000E-8	0.002809
6.770000E-8	0.002922
6.775000E-8	0.003050
6.780000E-8	0.003113
6.785000E-8	0.003131
6.790000E-8	0.003134
6.795000E-8	0.003138
6.800000E-8	0.002906
6.805000E-8	0.003031
6.810000E-8	0.002838
6.815000E-8	0.002716
6.820000E-8	0.002394
6.825000E-8	0.002300
6.830000E-8	0.002178
6.835000E-8	0.001894
6.840000E-8	0.001728
6.845000E-8	0.001725
6.850000E-8	0.001722
6.855000E-8	0.001728
6.860000E-8	0.001853
6.865000E-8	0.001984
6.870000E-8	0.002075
6.875000E-8	0.002203
6.880000E-8	0.002428
6.885000E-8	0.002609
6.890000E-8	0.002922
6.895000E-8	0.003066
6.900000E-8	0.003184
6.905000E-8	0.003200
6.910000E-8	0.003269
6.915000E-8	0.003075
6.920000E-8	0.003012
6.925000E-8	0.002875
6.930000E-8	0.002750
6.935000E-8	0.002647
6.940000E-8	0.002459
6.945000E-8	0.002309
6.950000E-8	0.002156
6.955000E-8	0.002144
6.960000E-8	0.001969
6.965000E-8	0.002019
6.970000E-8	0.001928
6.975000E-8	0.001978
6.980000E-8	0.002056
6.985000E-8	0.002044
6.990000E-8	0.002075
6.995000E-8	0.002106
7.000000E-8	0.002234
7.005000E-8	0.002384
7.010000E-8	0.002444
7.015000E-8	0.002675
7.020000E-8	0.002753
7.025000E-8	0.003009
7.030000E-8	0.003269
7.035000E-8	0.003475
7.040000E-8	0.003616
7.045000E-8	0.003666
7.050000E-8	0.003541
7.055000E-8	0.003516
7.060000E-8	0.003400
7.065000E-8	0.003222
7.070000E-8	0.002956
7.075000E-8	0.002706
7.080000E-8	0.002478
7.085000E-8	0.002344
7.090000E-8	0.002153
7.095000E-8	0.002034
7.100000E-8	0.002072
7.105000E-8	0.002016
7.110000E-8	0.002128
7.115000E-8	0.002234
7.120000E-8	0.002369
7.125000E-8	0.002519
7.130000E-8	0.002688
7.135000E-8	0.002884
7.140000E-8	0.003000
7.145000E-8	0.003253
7.150000E-8	0.003225
7.155000E-8	0.003359
7.160000E-8	0.003378
7.165000E-8	0.003394
7.170000E-8	0.003381
7.175000E-8	0.003216
7.180000E-8	0.003022
7.185000E-8	0.002994
7.190000E-8	0.002741
7.195000E-8	0.002647
7.200000E-8	0.002441
7.205000E-8	0.002338
7.210000E-8	0.002113
7.215000E-8	0.002134
7.220000E-8	0.002091
7.225000E-8	0.002044
7.230000E-8	0.002084
7.235000E-8	0.002234
7.240000E-8	0.002172
7.245000E-8	0.002269
7.250000E-8	0.002328
7.255000E-8	0.002406
7.260000E-8	0.002569
7.265000E-8	0.002791
7.270000E-8	0.002875
7.275000E-8	0.003028
7.280000E-8	0.003075
7.285000E-8	0.003206
7.290000E-8	0.003241
7.295000E-8	0.003350
7.300000E-8	0.003291
7.305000E-8	0.003241
7.310000E-8	0.002963
7.315000E-8	0.002997
7.320000E-8	0.002809
7.325000E-8	0.002591
7.330000E-8	0.002353
7.335000E-8	0.002247
7.340000E-8	0.002181
7.345000E-8	0.002169
7.350000E-8	0.002097
7.355000E-8	0.001959
7.360000E-8	0.001934
7.365000E-8	0.002081
7.370000E-8	0.002141
7.375000E-8	0.002250
7.380000E-8	0.002250
7.385000E-8	0.002497
7.390000E-8	0.002581
7.395000E-8	0.002638
7.400000E-8	0.002719
7.405000E-8	0.002819
7.410000E-8	0.002806
7.415000E-8	0.002809
7.420000E-8	0.002872
7.425000E-8	0.002916
7.430000E-8	0.002822
7.435000E-8	0.002872
7.440000E-8	0.002825
7.445000E-8	0.002684
7.450000E-8	0.002591
7.455000E-8	0.002563
7.460000E-8	0.002437
7.465000E-8	0.002300
7.470000E-8	0.002175
7.475000E-8	0.002147
7.480000E-8	0.001988
7.485000E-8	0.002047
7.490000E-8	0.002119
7.495000E-8	0.002319
7.500000E-8	0.002234
7.505000E-8	0.002422
7.510000E-8	0.002381
7.515000E-8	0.002497
7.520000E-8	0.002659
7.525000E-8	0.002825
7.530000E-8	0.002822
7.535000E-8	0.002931
7.540000E-8	0.002953
7.545000E-8	0.002997
7.550000E-8	0.003022
7.555000E-8	0.002997
7.560000E-8	0.002950
7.565000E-8	0.002806
7.570000E-8	0.002662
7.575000E-8	0.002522
7.580000E-8	0.002416
7.585000E-8	0.002425
7.590000E-8	0.002216
7.595000E-8	0.002150
7.600000E-8	0.002009
7.605000E-8	0.002050
7.610000E-8	0.002053
7.615000E-8	0.002144
7.620000E-8	0.001928
7.625000E-8	0.002084
7.630000E-8	0.002097
7.635000E-8	0.002322
7.640000E-8	0.002306
7.645000E-8	0.002444
7.650000E-8	0.002572
7.655000E-8	0.002672
7.660000E-8	0.002778
7.665000E-8	0.002906
7.670000E-8	0.002875
7.675000E-8	0.002963
7.680000E-8	0.003103
7.685000E-8	0.003097
7.690000E-8	0.003009
7.695000E-8	0.003034
7.700000E-8	0.002809
7.705000E-8	0.002741
7.710000E-8	0.002572
7.715000E-8	0.002544
7.720000E-8	0.002400
7.725000E-8	0.002363
7.730000E-8	0.002366
7.735000E-8	0.002278
7.740000E-8	0.002353
7.745000E-8	0.002444
7.750000E-8	0.002591
7.755000E-8	0.002737
7.760000E-8	0.002884
7.765000E-8	0.003066
7.770000E-8	0.003119
7.775000E-8	0.003250
7.780000E-8	0.003219
7.785000E-8	0.003222
7.790000E-8	0.003156
7.795000E-8	0.003066
7.800000E-8	0.003019
7.805000E-8	0.002884
7.810000E-8	0.002797
7.815000E-8	0.002734
7.820000E-8	0.002650
7.825000E-8	0.002563
7.830000E-8	0.002494
7.835000E-8	0.002425
7.840000E-8	0.002400
7.845000E-8	0.002297
7.850000E-8	0.002203
7.855000E-8	0.002141
7.860000E-8	0.002138
7.865000E-8	0.002197
7.870000E-8	0.002138
7.875000E-8	0.002206
7.880000E-8	0.002313
7.885000E-8	0.002394
7.890000E-8	0.002547
7.895000E-8	0.002575
7.900000E-8	0.002769
7.905000E-8	0.002869
7.910000E-8	0.002947
7.915000E-8	0.003006
7.920000E-8	0.003069
7.925000E-8	0.003100
7.930000E-8	0.002897
7.935000E-8	0.003128
7.940000E-8	0.002841
7.945000E-8	0.002694
7.950000E-8	0.002559
7.955000E-8	0.002441
7.960000E-8	0.002209
7.965000E-8	0.002050
7.970000E-8	0.001975
7.975000E-8	0.001922
7.980000E-8	0.001847
7.985000E-8	0.001900
7.990000E-8	0.002019
7.995000E-8	0.002003
8.000000E-8	0.002263
8.005000E-8	0.002428
8.010000E-8	0.002622
8.015000E-8	0.002922
8.020000E-8	0.002938
8.025000E-8	0.003162
8.030000E-8	0.003316
8.035000E-8	0.003306
8.040000E-8	0.003178
8.045000E-8	0.003050
8.050000E-8	0.002878
8.055000E-8	0.002750
8.060000E-8	0.002622
8.065000E-8	0.002563
8.070000E-8	0.002294
8.075000E-8	0.002175
8.080000E-8	0.002100
8.085000E-8	0.002116
8.090000E-8	0.002034
8.095000E-8	0.002087
8.100000E-8	0.002047
8.105000E-8	0.002069
8.110000E-8	0.002116
8.115000E-8	0.002063
8.120000E-8	0.002091
8.125000E-8	0.002178
8.130000E-8	0.002191
8.135000E-8	0.002331
8.140000E-8	0.002369
8.145000E-8	0.002591
8.150000E-8	0.002488
8.155000E-8	0.002641
8.160000E-8	0.002781
8.165000E-8	0.002963
8.170000E-8	0.002916
8.175000E-8	0.002819
8.180000E-8	0.002822
8.185000E-8	0.002838
8.190000E-8	0.002731
8.195000E-8	0.002703
8.200000E-8	0.002434
8.205000E-8	0.002381
8.210000E-8	0.002244
8.215000E-8	0.002144
8.220000E-8	0.002047
8.225000E-8	0.002162
8.230000E-8	0.002006
8.235000E-8	0.002063
8.240000E-8	0.002169
8.245000E-8	0.002397
8.250000E-8	0.002512
8.255000E-8	0.002625
8.260000E-8	0.002741
8.265000E-8	0.002863
8.270000E-8	0.003034
8.275000E-8	0.003122
8.280000E-8	0.003097
8.285000E-8	0.003041
8.290000E-8	0.003097
8.295000E-8	0.003044
8.300000E-8	0.003038
8.305000E-8	0.002938
8.310000E-8	0.002763
8.315000E-8	0.002694
8.320000E-8	0.002553
8.325000E-8	0.002509
8.330000E-8	0.002313
8.335000E-8	0.002209
8.340000E-8	0.002178
8.345000E-8	0.002072
8.350000E-8	0.001944
8.355000E-8	0.002003
8.360000E-8	0.002094
8.365000E-8	0.002087
8.370000E-8	0.002162
8.375000E-8	0.002281
8.380000E-8	0.002284
8.385000E-8	0.002466
8.390000E-8	0.002541
8.395000E-8	0.002647
8.400000E-8	0.002606
8.405000E-8	0.002800
8.410000E-8	0.002741
8.415000E-8	0.002825
8.420000E-8	0.002919
8.425000E-8	0.002994
8.430000E-8	0.002994
8.435000E-8	0.002972
8.440000E-8	0.002872
8.445000E-8	0.002856
8.450000E-8	0.002763
8.455000E-8	0.002456
8.460000E-8	0.002328
8.465000E-8	0.002116
8.470000E-8	0.002012
8.475000E-8	0.001881
8.480000E-8	0.001784
8.485000E-8	0.001750
8.490000E-8	0.001731
8.495000E-8	0.001788
8.500000E-8	0.001988
8.505000E-8	0.002234
8.510000E-8	0.002372
8.515000E-8	0.002522
8.520000E-8	0.002672
8.525000E-8	0.002803
8.530000E-8	0.002831
8.535000E-8	0.002888
8.540000E-8	0.002909
8.545000E-8	0.003038
8.550000E-8	0.002950
8.555000E-8	0.003038
8.560000E-8	0.002891
8.565000E-8	0.002791
8.570000E-8	0.002681
8.575000E-8	0.002531
8.580000E-8	0.002447
8.585000E-8	0.002397
8.590000E-8	0.002294
8.595000E-8	0.002200
8.600000E-8	0.002144
8.605000E-8	0.002234
8.610000E-8	0.002213
8.615000E-8	0.002353
8.620000E-8	0.002397
8.625000E-8	0.002488
8.630000E-8	0.002587
8.635000E-8	0.002600
8.640000E-8	0.002647
8.645000E-8	0.002734
8.650000E-8	0.002703
8.655000E-8	0.002753
8.660000E-8	0.002781
8.665000E-8	0.002844
8.670000E-8	0.002903
8.675000E-8	0.002950
8.680000E-8	0.002747
8.685000E-8	0.002850
8.690000E-8	0.002909
8.695000E-8	0.002909
8.700000E-8	0.002813
8.705000E-8	0.002831
8.710000E-8	0.002709
8.715000E-8	0.002631
8.720000E-8	0.002531
8.725000E-8	0.002572
8.730000E-8	0.002409
8.735000E-8	0.002328
8.740000E-8	0.002231
8.745000E-8	0.002269
8.750000E-8	0.002253
8.755000E-8	0.002338
8.760000E-8	0.002400
8.765000E-8	0.002609
8.770000E-8	0.002744
8.775000E-8	0.002856
8.780000E-8	0.002872
8.785000E-8	0.002934
8.790000E-8	0.002869
8.795000E-8	0.002953
8.800000E-8	0.002916
8.805000E-8	0.002878
8.810000E-8	0.002806
8.815000E-8	0.002806
8.820000E-8	0.002716
8.825000E-8	0.002675
8.830000E-8	0.002641
8.835000E-8	0.002541
8.840000E-8	0.002484
8.845000E-8	0.002400
8.850000E-8	0.002319
8.855000E-8	0.002363
8.860000E-8	0.002372
8.865000E-8	0.002369
8.870000E-8	0.002409
8.875000E-8	0.002428
8.880000E-8	0.002491
8.885000E-8	0.002475
8.890000E-8	0.002512
8.895000E-8	0.002628
8.900000E-8	0.002606
8.905000E-8	0.002781
8.910000E-8	0.002884
8.915000E-8	0.002991
8.920000E-8	0.003162
8.925000E-8	0.003222
8.930000E-8	0.003331
8.935000E-8	0.003278
8.940000E-8	0.003234
8.945000E-8	0.003197
8.950000E-8	0.003113
8.955000E-8	0.003031
8.960000E-8	0.002713
8.965000E-8	0.002737
8.970000E-8	0.002594
8.975000E-8	0.002594
8.980000E-8	0.002594
8.985000E-8	0.002616
8.990000E-8	0.002644
8.995000E-8	0.002659
9.000000E-8	0.002694
9.005000E-8	0.002759
9.010000E-8	0.002797
9.015000E-8	0.002791
9.020000E-8	0.002775
9.025000E-8	0.002872
9.030000E-8	0.002841
9.035000E-8	0.002803
9.040000E-8	0.002863
9.045000E-8	0.002953
9.050000E-8	0.002944
9.055000E-8	0.002900
9.060000E-8	0.002806
9.065000E-8	0.002894
9.070000E-8	0.002819
9.075000E-8	0.002741
9.080000E-8	0.002659
9.085000E-8	0.002609
9.090000E-8	0.002491
9.095000E-8	0.002463
9.100000E-8	0.002406
9.105000E-8	0.002437
9.110000E-8	0.002403
9.115000E-8	0.002503
9.120000E-8	0.002594
9.125000E-8	0.002675
9.130000E-8	0.002741
9.135000E-8	0.002844
9.140000E-8	0.002963
9.145000E-8	0.003003
9.150000E-8	0.002950
9.155000E-8	0.002978
9.160000E-8	0.003006
9.165000E-8	0.003050
9.170000E-8	0.002838
9.175000E-8	0.002806
9.180000E-8	0.002797
9.185000E-8	0.002894
9.190000E-8	0.002725
9.195000E-8	0.002678
9.200000E-8	0.002625
9.205000E-8	0.002628
9.210000E-8	0.002578
9.215000E-8	0.002575
9.220000E-8	0.002541
9.225000E-8	0.002694
9.230000E-8	0.002622
9.235000E-8	0.002747
9.240000E-8	0.002563
9.245000E-8	0.002603
9.250000E-8	0.002597
9.255000E-8	0.002631
9.260000E-8	0.002631
9.265000E-8	0.002541
9.270000E-8	0.002597
9.275000E-8	0.002625
9.280000E-8	0.002684
9.285000E-8	0.002894
9.290000E-8	0.002897
9.295000E-8	0.003022
9.300000E-8	0.002972
9.305000E-8	0.003038
9.310000E-8	0.003009
9.315000E-8	0.002894
9.320000E-8	0.002766
9.325000E-8	0.002678
9.330000E-8	0.002425
9.335000E-8	0.002400
9.340000E-8	0.002244
9.345000E-8	0.002219
9.350000E-8	0.002181
9.355000E-8	0.002091
9.360000E-8	0.002044
9.365000E-8	0.002138
9.370000E-8	0.002197
9.375000E-8	0.002294
9.380000E-8	0.002409
9.385000E-8	0.002509
9.390000E-8	0.002575
9.395000E-8	0.002722
9.400000E-8	0.002625
9.405000E-8	0.002600
9.410000E-8	0.002581
9.415000E-8	0.002591
9.420000E-8	0.002503
9.425000E-8	0.002566
9.430000E-8	0.002575
9.435000E-8	0.002594
9.440000E-8	0.002450
9.445000E-8	0.002444
9.450000E-8	0.002413
9.455000E-8	0.002359
9.460000E-8	0.002394
9.465000E-8	0.002403
9.470000E-8	0.002406
9.475000E-8	0.002331
9.480000E-8	0.002366
9.485000E-8	0.002338
9.490000E-8	0.002328
9.495000E-8	0.002444
9.500000E-8	0.002578
9.505000E-8	0.002662
9.510000E-8	0.002697
9.515000E-8	0.002728
9.520000E-8	0.002803
9.525000E-8	0.002903
9.530000E-8	0.002725
9.535000E-8	0.002716
9.540000E-8	0.002666
9.545000E-8	0.002706
9.550000E-8	0.002681
9.555000E-8	0.002559
9.560000E-8	0.002419
9.565000E-8	0.002484
9.570000E-8	0.002356
9.575000E-8	0.002334
9.580000E-8	0.002375
9.585000E-8	0.002441
9.590000E-8	0.002409
9.595000E-8	0.002309
9.600000E-8	0.002259
9.605000E-8	0.002422
9.610000E-8	0.002397
9.615000E-8	0.002341
9.620000E-8	0.002234
9.625000E-8	0.002381
9.630000E-8	0.002425
9.635000E-8	0.002559
9.640000E-8	0.002472
9.645000E-8	0.002600
9.650000E-8	0.002731
9.655000E-8	0.002844
9.660000E-8	0.002844
9.665000E-8	0.002925
9.670000E-8	0.002984
9.675000E-8	0.003006
9.680000E-8	0.002825
9.685000E-8	0.002806
9.690000E-8	0.002675
9.695000E-8	0.002606
9.700000E-8	0.002484
9.705000E-8	0.002534
9.710000E-8	0.002441
9.715000E-8	0.002428
9.720000E-8	0.002381
9.725000E-8	0.002394
9.730000E-8	0.002344
9.735000E-8	0.002284
9.740000E-8	0.002372
9.745000E-8	0.002422
9.750000E-8	0.002388
9.755000E-8	0.002541
9.760000E-8	0.002372
9.765000E-8	0.002459
9.770000E-8	0.002378
9.775000E-8	0.002494
9.780000E-8	0.002563
9.785000E-8	0.002716
9.790000E-8	0.002678
9.795000E-8	0.002669
9.800000E-8	0.002628
9.805000E-8	0.002547
9.810000E-8	0.002463
9.815000E-8	0.002437
9.820000E-8	0.002350
9.825000E-8	0.002294
9.830000E-8	0.002244
9.835000E-8	0.002219
9.840000E-8	0.002266
9.845000E-8	0.002250
9.850000E-8	0.002219
9.855000E-8	0.002447
9.860000E-8	0.002403
9.865000E-8	0.002472
9.870000E-8	0.002538
9.875000E-8	0.002559
9.880000E-8	0.002572
9.885000E-8	0.002472
9.890000E-8	0.002506
9.895000E-8	0.002553
9.900000E-8	0.002525
9.905000E-8	0.002656
9.910000E-8	0.002566
9.915000E-8	0.002619
9.920000E-8	0.002566
9.925000E-8	0.002769
9.930000E-8	0.002734
9.935000E-8	0.002759
9.940000E-8	0.002731
9.945000E-8	0.002641
9.950000E-8	0.002622
9.955000E-8	0.002538
9.960000E-8	0.002450
9.965000E-8	0.002463
9.970000E-8	0.002328
9.975000E-8	0.002437
9.980000E-8	0.002216
9.985000E-8	0.002409
9.990000E-8	0.002347
9.995000E-8	0.002413
