LabVIEW Measurement	
Writer_Version	2
Reader_Version	2
Separator	Tab
Decimal_Separator	.
Multi_Headings	No
X_Columns	Multi
Time_Pref	Relative
Operator	TG lab
Date	2015/03/06
Time	19:31:50.9009661674499511719
***End_of_Header***	
	
Channels	1	
Samples	2000	
Date	2015/03/06	
Time	19:31:50.9009661674499511719	
X_Dimension	Time	
X0	0.0000000000000000E+0	
Delta_X	5.000000E-11	
***End_of_Header***		
X_Value	Untitled	Comment
0.000000	0.003416
5.000000E-11	0.003403
1.000000E-10	0.003313
1.500000E-10	0.003297
2.000000E-10	0.003166
2.500000E-10	0.003084
3.000000E-10	0.003103
3.500000E-10	0.003184
4.000000E-10	0.002978
4.500000E-10	0.003156
5.000000E-10	0.003084
5.500000E-10	0.003200
6.000000E-10	0.003175
6.500000E-10	0.003141
7.000000E-10	0.003022
7.500000E-10	0.003100
8.000000E-10	0.002994
8.500000E-10	0.002994
9.000000E-10	0.002906
9.500000E-10	0.003038
1.000000E-9	0.002928
1.050000E-9	0.002878
1.100000E-9	0.002909
1.150000E-9	0.003022
1.200000E-9	0.002959
1.250000E-9	0.003031
1.300000E-9	0.002959
1.350000E-9	0.002941
1.400000E-9	0.002872
1.450000E-9	0.002869
1.500000E-9	0.002809
1.550000E-9	0.002922
1.600000E-9	0.002803
1.650000E-9	0.002797
1.700000E-9	0.002650
1.750000E-9	0.002713
1.800000E-9	0.002713
1.850000E-9	0.002772
1.900000E-9	0.002788
1.950000E-9	0.002803
2.000000E-9	0.002831
2.050000E-9	0.002769
2.100000E-9	0.002669
2.150000E-9	0.002725
2.200000E-9	0.002678
2.250000E-9	0.002734
2.300000E-9	0.002609
2.350000E-9	0.002597
2.400000E-9	0.002509
2.450000E-9	0.002463
2.500000E-9	0.002559
2.550000E-9	0.002509
2.600000E-9	0.002425
2.650000E-9	0.002456
2.700000E-9	0.002375
2.750000E-9	0.002497
2.800000E-9	0.002338
2.850000E-9	0.002381
2.900000E-9	0.002350
2.950000E-9	0.002328
3.000000E-9	0.002353
3.050000E-9	0.002313
3.100000E-9	0.002272
3.150000E-9	0.002356
3.200000E-9	0.002394
3.250000E-9	0.002306
3.300000E-9	0.002191
3.350000E-9	0.002213
3.400000E-9	0.002103
3.450000E-9	0.002203
3.500000E-9	0.002072
3.550000E-9	0.002106
3.600000E-9	0.001978
3.650000E-9	0.001941
3.700000E-9	0.001856
3.750000E-9	0.001966
3.800000E-9	0.001781
3.850000E-9	0.001719
3.900000E-9	0.001663
3.950000E-9	0.001619
4.000000E-9	0.001534
4.050000E-9	0.001728
4.100000E-9	0.001675
4.150000E-9	0.001819
4.200000E-9	0.001694
4.250000E-9	0.001841
4.300000E-9	0.001631
4.350000E-9	0.001675
4.400000E-9	0.001597
4.450000E-9	0.001550
4.500000E-9	0.001409
4.550000E-9	0.001166
4.600000E-9	0.000841
4.650000E-9	0.000622
4.700000E-9	0.000200
4.750000E-9	-0.000231
4.800000E-9	-0.000906
4.850000E-9	-0.001694
4.900000E-9	-0.002978
4.950000E-9	-0.004278
5.000000E-9	-0.005981
5.050000E-9	-0.007900
5.100000E-9	-0.010244
5.150000E-9	-0.012556
5.200000E-9	-0.015153
5.250000E-9	-0.017628
5.300000E-9	-0.020091
5.350000E-9	-0.022341
5.400000E-9	-0.024222
5.450000E-9	-0.025916
5.500000E-9	-0.027347
5.550000E-9	-0.028303
5.600000E-9	-0.028988
5.650000E-9	-0.029181
5.700000E-9	-0.029084
5.750000E-9	-0.028678
5.800000E-9	-0.027816
5.850000E-9	-0.026716
5.900000E-9	-0.025428
5.950000E-9	-0.023841
6.000000E-9	-0.022181
6.050000E-9	-0.020381
6.100000E-9	-0.018819
6.150000E-9	-0.017237
6.200000E-9	-0.015931
6.250000E-9	-0.014938
6.300000E-9	-0.014472
6.350000E-9	-0.014122
6.400000E-9	-0.014278
6.450000E-9	-0.014541
6.500000E-9	-0.015291
6.550000E-9	-0.015919
6.600000E-9	-0.016769
6.650000E-9	-0.017444
6.700000E-9	-0.018081
6.750000E-9	-0.018641
6.800000E-9	-0.019097
6.850000E-9	-0.019334
6.900000E-9	-0.019331
6.950000E-9	-0.019050
7.000000E-9	-0.018513
7.050000E-9	-0.017894
7.100000E-9	-0.016991
7.150000E-9	-0.015891
7.200000E-9	-0.014741
7.250000E-9	-0.013381
7.300000E-9	-0.012019
7.350000E-9	-0.010759
7.400000E-9	-0.009584
7.450000E-9	-0.008425
7.500000E-9	-0.007509
7.550000E-9	-0.006825
7.600000E-9	-0.006447
7.650000E-9	-0.006434
7.700000E-9	-0.006694
7.750000E-9	-0.007159
7.800000E-9	-0.007862
7.850000E-9	-0.008644
7.900000E-9	-0.009713
7.950000E-9	-0.010597
8.000000E-9	-0.011431
8.050000E-9	-0.012078
8.100000E-9	-0.012425
8.150000E-9	-0.012609
8.200000E-9	-0.012634
8.250000E-9	-0.012347
8.300000E-9	-0.011794
8.350000E-9	-0.011000
8.400000E-9	-0.010044
8.450000E-9	-0.008950
8.500000E-9	-0.007625
8.550000E-9	-0.006253
8.600000E-9	-0.005131
8.650000E-9	-0.003925
8.700000E-9	-0.002944
8.750000E-9	-0.002209
8.800000E-9	-0.001569
8.850000E-9	-0.001425
8.900000E-9	-0.001450
8.950000E-9	-0.001750
9.000000E-9	-0.002350
9.050000E-9	-0.003134
9.100000E-9	-0.004109
9.150000E-9	-0.005034
9.200000E-9	-0.006225
9.250000E-9	-0.007256
9.300000E-9	-0.008175
9.350000E-9	-0.008728
9.400000E-9	-0.009131
9.450000E-9	-0.009206
9.500000E-9	-0.009134
9.550000E-9	-0.008625
9.600000E-9	-0.008028
9.650000E-9	-0.007125
9.700000E-9	-0.005972
9.750000E-9	-0.004731
9.800000E-9	-0.003522
9.850000E-9	-0.002313
9.900000E-9	-0.001250
9.950000E-9	-0.000309
1.000000E-8	0.000416
1.005000E-8	0.000828
1.010000E-8	0.001034
1.015000E-8	0.001016
1.020000E-8	0.000647
1.025000E-8	0.000222
1.030000E-8	-0.000669
1.035000E-8	-0.001572
1.040000E-8	-0.002628
1.045000E-8	-0.003519
1.050000E-8	-0.004419
1.055000E-8	-0.005219
1.060000E-8	-0.005909
1.065000E-8	-0.006278
1.070000E-8	-0.006506
1.075000E-8	-0.006359
1.080000E-8	-0.006038
1.085000E-8	-0.005397
1.090000E-8	-0.004588
1.095000E-8	-0.003547
1.100000E-8	-0.002534
1.105000E-8	-0.001328
1.110000E-8	-0.000169
1.115000E-8	0.000966
1.120000E-8	0.001719
1.125000E-8	0.002475
1.130000E-8	0.002966
1.135000E-8	0.003150
1.140000E-8	0.003003
1.145000E-8	0.002678
1.150000E-8	0.002075
1.155000E-8	0.001241
1.160000E-8	0.000391
1.165000E-8	-0.000681
1.170000E-8	-0.001753
1.175000E-8	-0.002656
1.180000E-8	-0.003534
1.185000E-8	-0.004256
1.190000E-8	-0.004856
1.195000E-8	-0.005103
1.200000E-8	-0.005200
1.205000E-8	-0.004844
1.210000E-8	-0.004237
1.215000E-8	-0.003438
1.220000E-8	-0.002531
1.225000E-8	-0.001509
1.230000E-8	-0.000566
1.235000E-8	0.000653
1.240000E-8	0.001766
1.245000E-8	0.002522
1.250000E-8	0.003231
1.255000E-8	0.003603
1.260000E-8	0.003681
1.265000E-8	0.003603
1.270000E-8	0.003278
1.275000E-8	0.002725
1.280000E-8	0.001900
1.285000E-8	0.000953
1.290000E-8	-9.375000E-5
1.295000E-8	-0.001063
1.300000E-8	-0.001925
1.305000E-8	-0.002694
1.310000E-8	-0.003378
1.315000E-8	-0.003772
1.320000E-8	-0.003913
1.325000E-8	-0.003791
1.330000E-8	-0.003453
1.335000E-8	-0.002800
1.340000E-8	-0.002153
1.345000E-8	-0.001063
1.350000E-8	-0.000138
1.355000E-8	0.001031
1.360000E-8	0.002009
1.365000E-8	0.002947
1.370000E-8	0.003697
1.375000E-8	0.004425
1.380000E-8	0.004844
1.385000E-8	0.005088
1.390000E-8	0.005016
1.395000E-8	0.004791
1.400000E-8	0.004219
1.405000E-8	0.003413
1.410000E-8	0.002569
1.415000E-8	0.001491
1.420000E-8	0.000438
1.425000E-8	-0.000644
1.430000E-8	-0.001478
1.435000E-8	-0.002066
1.440000E-8	-0.002737
1.445000E-8	-0.003059
1.450000E-8	-0.003038
1.455000E-8	-0.002822
1.460000E-8	-0.002259
1.465000E-8	-0.001434
1.470000E-8	-0.000513
1.475000E-8	0.000581
1.480000E-8	0.001497
1.485000E-8	0.002463
1.490000E-8	0.003428
1.495000E-8	0.004262
1.500000E-8	0.004900
1.505000E-8	0.005387
1.510000E-8	0.005488
1.515000E-8	0.005425
1.520000E-8	0.005022
1.525000E-8	0.004469
1.530000E-8	0.003688
1.535000E-8	0.002853
1.540000E-8	0.001916
1.545000E-8	0.000988
1.550000E-8	8.437500E-5
1.555000E-8	-0.000788
1.560000E-8	-0.001475
1.565000E-8	-0.002000
1.570000E-8	-0.002266
1.575000E-8	-0.002272
1.580000E-8	-0.001959
1.585000E-8	-0.001516
1.590000E-8	-0.000809
1.595000E-8	6.250000E-6
1.600000E-8	0.001025
1.605000E-8	0.002138
1.610000E-8	0.003284
1.615000E-8	0.004206
1.620000E-8	0.004962
1.625000E-8	0.005616
1.630000E-8	0.006041
1.635000E-8	0.006263
1.640000E-8	0.006084
1.645000E-8	0.005725
1.650000E-8	0.005169
1.655000E-8	0.004453
1.660000E-8	0.003572
1.665000E-8	0.002634
1.670000E-8	0.001675
1.675000E-8	0.000931
1.680000E-8	3.125000E-6
1.685000E-8	-0.000572
1.690000E-8	-0.001031
1.695000E-8	-0.001256
1.700000E-8	-0.001350
1.705000E-8	-0.001178
1.710000E-8	-0.000800
1.715000E-8	-0.000131
1.720000E-8	0.000497
1.725000E-8	0.001350
1.730000E-8	0.002256
1.735000E-8	0.003206
1.740000E-8	0.004122
1.745000E-8	0.004953
1.750000E-8	0.005606
1.755000E-8	0.005991
1.760000E-8	0.006100
1.765000E-8	0.006044
1.770000E-8	0.005728
1.775000E-8	0.005284
1.780000E-8	0.004484
1.785000E-8	0.003728
1.790000E-8	0.002794
1.795000E-8	0.001972
1.800000E-8	0.000891
1.805000E-8	0.000172
1.810000E-8	-0.000484
1.815000E-8	-0.000888
1.820000E-8	-0.001169
1.825000E-8	-0.001116
1.830000E-8	-0.000944
1.835000E-8	-0.000559
1.840000E-8	9.375000E-5
1.845000E-8	0.000847
1.850000E-8	0.001631
1.855000E-8	0.002553
1.860000E-8	0.003391
1.865000E-8	0.004103
1.870000E-8	0.004863
1.875000E-8	0.005450
1.880000E-8	0.005659
1.885000E-8	0.005900
1.890000E-8	0.005884
1.895000E-8	0.005550
1.900000E-8	0.005038
1.905000E-8	0.004597
1.910000E-8	0.003797
1.915000E-8	0.003022
1.920000E-8	0.002047
1.925000E-8	0.001213
1.930000E-8	0.000466
1.935000E-8	-0.000197
1.940000E-8	-0.000672
1.945000E-8	-0.000909
1.950000E-8	-0.001084
1.955000E-8	-0.000884
1.960000E-8	-0.000522
1.965000E-8	0.000144
1.970000E-8	0.000803
1.975000E-8	0.001716
1.980000E-8	0.002622
1.985000E-8	0.003653
1.990000E-8	0.004481
1.995000E-8	0.005319
2.000000E-8	0.005759
2.005000E-8	0.006316
2.010000E-8	0.006366
2.015000E-8	0.006319
2.020000E-8	0.006047
2.025000E-8	0.005547
2.030000E-8	0.004972
2.035000E-8	0.004166
2.040000E-8	0.003303
2.045000E-8	0.002475
2.050000E-8	0.001616
2.055000E-8	0.000906
2.060000E-8	0.000200
2.065000E-8	-0.000181
2.070000E-8	-0.000622
2.075000E-8	-0.000684
2.080000E-8	-0.000591
2.085000E-8	-0.000269
2.090000E-8	0.000216
2.095000E-8	0.000813
2.100000E-8	0.001603
2.105000E-8	0.002528
2.110000E-8	0.003369
2.115000E-8	0.004272
2.120000E-8	0.005100
2.125000E-8	0.005781
2.130000E-8	0.006188
2.135000E-8	0.006384
2.140000E-8	0.006237
2.145000E-8	0.005966
2.150000E-8	0.005481
2.155000E-8	0.004734
2.160000E-8	0.003913
2.165000E-8	0.003091
2.170000E-8	0.002338
2.175000E-8	0.001559
2.180000E-8	0.000809
2.185000E-8	0.000319
2.190000E-8	-2.812500E-5
2.195000E-8	-0.000100
2.200000E-8	-0.000163
2.205000E-8	-7.187500E-5
2.210000E-8	0.000219
2.215000E-8	0.000716
2.220000E-8	0.001206
2.225000E-8	0.001853
2.230000E-8	0.002625
2.235000E-8	0.003300
2.240000E-8	0.004087
2.245000E-8	0.004775
2.250000E-8	0.005241
2.255000E-8	0.005675
2.260000E-8	0.006069
2.265000E-8	0.006078
2.270000E-8	0.005913
2.275000E-8	0.005694
2.280000E-8	0.005259
2.285000E-8	0.004672
2.290000E-8	0.003969
2.295000E-8	0.003100
2.300000E-8	0.002253
2.305000E-8	0.001591
2.310000E-8	0.000778
2.315000E-8	0.000322
2.320000E-8	-8.750000E-5
2.325000E-8	-0.000378
2.330000E-8	-0.000334
2.335000E-8	-8.750000E-5
2.340000E-8	0.000213
2.345000E-8	0.001053
2.350000E-8	0.001756
2.355000E-8	0.002606
2.360000E-8	0.003356
2.365000E-8	0.004172
2.370000E-8	0.004847
2.375000E-8	0.005469
2.380000E-8	0.005734
2.385000E-8	0.005919
2.390000E-8	0.005972
2.395000E-8	0.005856
2.400000E-8	0.005456
2.405000E-8	0.004925
2.410000E-8	0.004328
2.415000E-8	0.003700
2.420000E-8	0.002844
2.425000E-8	0.002188
2.430000E-8	0.001419
2.435000E-8	0.000850
2.440000E-8	0.000297
2.445000E-8	-4.687500E-5
2.450000E-8	-0.000275
2.455000E-8	-4.062500E-5
2.460000E-8	0.000181
2.465000E-8	0.000644
2.470000E-8	0.001206
2.475000E-8	0.001994
2.480000E-8	0.002597
2.485000E-8	0.003322
2.490000E-8	0.003956
2.495000E-8	0.004728
2.500000E-8	0.005194
2.505000E-8	0.005544
2.510000E-8	0.005797
2.515000E-8	0.005706
2.520000E-8	0.005694
2.525000E-8	0.005350
2.530000E-8	0.004853
2.535000E-8	0.004397
2.540000E-8	0.003697
2.545000E-8	0.003059
2.550000E-8	0.002234
2.555000E-8	0.001563
2.560000E-8	0.000959
2.565000E-8	0.000606
2.570000E-8	0.000338
2.575000E-8	0.000141
2.580000E-8	0.000209
2.585000E-8	0.000444
2.590000E-8	0.000819
2.595000E-8	0.001328
2.600000E-8	0.001956
2.605000E-8	0.002563
2.610000E-8	0.003303
2.615000E-8	0.003988
2.620000E-8	0.004681
2.625000E-8	0.005256
2.630000E-8	0.005491
2.635000E-8	0.005700
2.640000E-8	0.005597
2.645000E-8	0.005481
2.650000E-8	0.005203
2.655000E-8	0.004691
2.660000E-8	0.004153
2.665000E-8	0.003541
2.670000E-8	0.002963
2.675000E-8	0.002372
2.680000E-8	0.001659
2.685000E-8	0.001191
2.690000E-8	0.000759
2.695000E-8	0.000519
2.700000E-8	0.000331
2.705000E-8	0.000569
2.710000E-8	0.000791
2.715000E-8	0.001100
2.720000E-8	0.001494
2.725000E-8	0.002150
2.730000E-8	0.002797
2.735000E-8	0.003372
2.740000E-8	0.004094
2.745000E-8	0.004628
2.750000E-8	0.005078
2.755000E-8	0.005516
2.760000E-8	0.005756
2.765000E-8	0.005687
2.770000E-8	0.005594
2.775000E-8	0.005356
2.780000E-8	0.004909
2.785000E-8	0.004459
2.790000E-8	0.003872
2.795000E-8	0.003294
2.800000E-8	0.002584
2.805000E-8	0.002031
2.810000E-8	0.001478
2.815000E-8	0.001047
2.820000E-8	0.000666
2.825000E-8	0.000544
2.830000E-8	0.000447
2.835000E-8	0.000659
2.840000E-8	0.000822
2.845000E-8	0.001259
2.850000E-8	0.001738
2.855000E-8	0.002278
2.860000E-8	0.002975
2.865000E-8	0.003691
2.870000E-8	0.004266
2.875000E-8	0.004888
2.880000E-8	0.005256
2.885000E-8	0.005609
2.890000E-8	0.005694
2.895000E-8	0.005534
2.900000E-8	0.005441
2.905000E-8	0.005056
2.910000E-8	0.004594
2.915000E-8	0.003994
2.920000E-8	0.003388
2.925000E-8	0.002788
2.930000E-8	0.002144
2.935000E-8	0.001494
2.940000E-8	0.000931
2.945000E-8	0.000578
2.950000E-8	0.000384
2.955000E-8	0.000331
2.960000E-8	0.000363
2.965000E-8	0.000575
2.970000E-8	0.000856
2.975000E-8	0.001600
2.980000E-8	0.002237
2.985000E-8	0.002825
2.990000E-8	0.003456
2.995000E-8	0.004219
3.000000E-8	0.004725
3.005000E-8	0.005034
3.010000E-8	0.005163
3.015000E-8	0.005241
3.020000E-8	0.005181
3.025000E-8	0.005116
3.030000E-8	0.004662
3.035000E-8	0.004247
3.040000E-8	0.003597
3.045000E-8	0.002947
3.050000E-8	0.002303
3.055000E-8	0.001731
3.060000E-8	0.001156
3.065000E-8	0.000734
3.070000E-8	0.000363
3.075000E-8	0.000306
3.080000E-8	0.000406
3.085000E-8	0.000491
3.090000E-8	0.000731
3.095000E-8	0.001316
3.100000E-8	0.001847
3.105000E-8	0.002506
3.110000E-8	0.003069
3.115000E-8	0.003631
3.120000E-8	0.004106
3.125000E-8	0.004588
3.130000E-8	0.004894
3.135000E-8	0.005237
3.140000E-8	0.005297
3.145000E-8	0.005281
3.150000E-8	0.005047
3.155000E-8	0.004744
3.160000E-8	0.004416
3.165000E-8	0.003950
3.170000E-8	0.003450
3.175000E-8	0.002981
3.180000E-8	0.002416
3.185000E-8	0.001841
3.190000E-8	0.001437
3.195000E-8	0.001153
3.200000E-8	0.000831
3.205000E-8	0.000759
3.210000E-8	0.000763
3.215000E-8	0.000938
3.220000E-8	0.001225
3.225000E-8	0.001731
3.230000E-8	0.002197
3.235000E-8	0.002756
3.240000E-8	0.003266
3.245000E-8	0.003831
3.250000E-8	0.004384
3.255000E-8	0.004775
3.260000E-8	0.005138
3.265000E-8	0.005266
3.270000E-8	0.005200
3.275000E-8	0.005153
3.280000E-8	0.004756
3.285000E-8	0.004347
3.290000E-8	0.003791
3.295000E-8	0.003256
3.300000E-8	0.002575
3.305000E-8	0.002041
3.310000E-8	0.001381
3.315000E-8	0.001000
3.320000E-8	0.000622
3.325000E-8	0.000441
3.330000E-8	0.000472
3.335000E-8	0.000659
3.340000E-8	0.000934
3.345000E-8	0.001384
3.350000E-8	0.001872
3.355000E-8	0.002541
3.360000E-8	0.003012
3.365000E-8	0.003681
3.370000E-8	0.004216
3.375000E-8	0.004581
3.380000E-8	0.004769
3.385000E-8	0.004997
3.390000E-8	0.004969
3.395000E-8	0.004847
3.400000E-8	0.004644
3.405000E-8	0.004478
3.410000E-8	0.004072
3.415000E-8	0.003778
3.420000E-8	0.003456
3.425000E-8	0.002950
3.430000E-8	0.002491
3.435000E-8	0.002184
3.440000E-8	0.001734
3.445000E-8	0.001534
3.450000E-8	0.001187
3.455000E-8	0.001163
3.460000E-8	0.001088
3.465000E-8	0.001297
3.470000E-8	0.001647
3.475000E-8	0.002069
3.480000E-8	0.002563
3.485000E-8	0.003125
3.490000E-8	0.003719
3.495000E-8	0.004344
3.500000E-8	0.004653
3.505000E-8	0.005125
3.510000E-8	0.005450
3.515000E-8	0.005519
3.520000E-8	0.005428
3.525000E-8	0.005338
3.530000E-8	0.005109
3.535000E-8	0.004700
3.540000E-8	0.004222
3.545000E-8	0.003788
3.550000E-8	0.003284
3.555000E-8	0.002750
3.560000E-8	0.002288
3.565000E-8	0.001913
3.570000E-8	0.001584
3.575000E-8	0.001419
3.580000E-8	0.001450
3.585000E-8	0.001213
3.590000E-8	0.001391
3.595000E-8	0.001656
3.600000E-8	0.001916
3.605000E-8	0.002381
3.610000E-8	0.002703
3.615000E-8	0.003172
3.620000E-8	0.003594
3.625000E-8	0.004013
3.630000E-8	0.004291
3.635000E-8	0.004625
3.640000E-8	0.004759
3.645000E-8	0.004850
3.650000E-8	0.004825
3.655000E-8	0.004556
3.660000E-8	0.004216
3.665000E-8	0.003978
3.670000E-8	0.003512
3.675000E-8	0.003044
3.680000E-8	0.002597
3.685000E-8	0.002272
3.690000E-8	0.001844
3.695000E-8	0.001453
3.700000E-8	0.001216
3.705000E-8	0.001153
3.710000E-8	0.001031
3.715000E-8	0.001119
3.720000E-8	0.001394
3.725000E-8	0.001719
3.730000E-8	0.002141
3.735000E-8	0.002666
3.740000E-8	0.003203
3.745000E-8	0.003709
3.750000E-8	0.004125
3.755000E-8	0.004550
3.760000E-8	0.004891
3.765000E-8	0.005169
3.770000E-8	0.005219
3.775000E-8	0.005163
3.780000E-8	0.005003
3.785000E-8	0.004734
3.790000E-8	0.004322
3.795000E-8	0.004003
3.800000E-8	0.003450
3.805000E-8	0.002997
3.810000E-8	0.002481
3.815000E-8	0.002200
3.820000E-8	0.001828
3.825000E-8	0.001681
3.830000E-8	0.001544
3.835000E-8	0.001528
3.840000E-8	0.001700
3.845000E-8	0.002016
3.850000E-8	0.002347
3.855000E-8	0.002706
3.860000E-8	0.003084
3.865000E-8	0.003547
3.870000E-8	0.003766
3.875000E-8	0.004056
3.880000E-8	0.004213
3.885000E-8	0.004428
3.890000E-8	0.004563
3.895000E-8	0.004609
3.900000E-8	0.004594
3.905000E-8	0.004456
3.910000E-8	0.004188
3.915000E-8	0.004066
3.920000E-8	0.003697
3.925000E-8	0.003453
3.930000E-8	0.002941
3.935000E-8	0.002512
3.940000E-8	0.002081
3.945000E-8	0.001719
3.950000E-8	0.001378
3.955000E-8	0.001228
3.960000E-8	0.001106
3.965000E-8	0.001072
3.970000E-8	0.001253
3.975000E-8	0.001609
3.980000E-8	0.002031
3.985000E-8	0.002609
3.990000E-8	0.003075
3.995000E-8	0.003669
4.000000E-8	0.004019
4.005000E-8	0.004534
4.010000E-8	0.004763
4.015000E-8	0.004941
4.020000E-8	0.004931
4.025000E-8	0.004859
4.030000E-8	0.004703
4.035000E-8	0.004444
4.040000E-8	0.004006
4.045000E-8	0.003641
4.050000E-8	0.003188
4.055000E-8	0.002913
4.060000E-8	0.002516
4.065000E-8	0.002159
4.070000E-8	0.001828
4.075000E-8	0.001609
4.080000E-8	0.001428
4.085000E-8	0.001550
4.090000E-8	0.001425
4.095000E-8	0.001563
4.100000E-8	0.001831
4.105000E-8	0.002303
4.110000E-8	0.002622
4.115000E-8	0.003181
4.120000E-8	0.003575
4.125000E-8	0.004163
4.130000E-8	0.004597
4.135000E-8	0.005019
4.140000E-8	0.005100
4.145000E-8	0.005200
4.150000E-8	0.005156
4.155000E-8	0.005044
4.160000E-8	0.004619
4.165000E-8	0.004366
4.170000E-8	0.003913
4.175000E-8	0.003494
4.180000E-8	0.002916
4.185000E-8	0.002453
4.190000E-8	0.002050
4.195000E-8	0.001756
4.200000E-8	0.001450
4.205000E-8	0.001319
4.210000E-8	0.001269
4.215000E-8	0.001284
4.220000E-8	0.001375
4.225000E-8	0.001788
4.230000E-8	0.002091
4.235000E-8	0.002484
4.240000E-8	0.002866
4.245000E-8	0.003259
4.250000E-8	0.003669
4.255000E-8	0.004084
4.260000E-8	0.004313
4.265000E-8	0.004631
4.270000E-8	0.004716
4.275000E-8	0.004766
4.280000E-8	0.004666
4.285000E-8	0.004444
4.290000E-8	0.004128
4.295000E-8	0.003759
4.300000E-8	0.003397
4.305000E-8	0.002947
4.310000E-8	0.002509
4.315000E-8	0.002172
4.320000E-8	0.001703
4.325000E-8	0.001472
4.330000E-8	0.001294
4.335000E-8	0.001181
4.340000E-8	0.001300
4.345000E-8	0.001481
4.350000E-8	0.001794
4.355000E-8	0.002147
4.360000E-8	0.002563
4.365000E-8	0.002916
4.370000E-8	0.003394
4.375000E-8	0.003916
4.380000E-8	0.004247
4.385000E-8	0.004559
4.390000E-8	0.004803
4.395000E-8	0.004781
4.400000E-8	0.004741
4.405000E-8	0.004675
4.410000E-8	0.004384
4.415000E-8	0.004181
4.420000E-8	0.003756
4.425000E-8	0.003397
4.430000E-8	0.002931
4.435000E-8	0.002625
4.440000E-8	0.002297
4.445000E-8	0.002063
4.450000E-8	0.001891
4.455000E-8	0.001822
4.460000E-8	0.001581
4.465000E-8	0.001691
4.470000E-8	0.001675
4.475000E-8	0.001813
4.480000E-8	0.002028
4.485000E-8	0.002266
4.490000E-8	0.002456
4.495000E-8	0.002891
4.500000E-8	0.003272
4.505000E-8	0.003722
4.510000E-8	0.004019
4.515000E-8	0.004375
4.520000E-8	0.004475
4.525000E-8	0.004694
4.530000E-8	0.004647
4.535000E-8	0.004519
4.540000E-8	0.004309
4.545000E-8	0.003984
4.550000E-8	0.003572
4.555000E-8	0.003169
4.560000E-8	0.002625
4.565000E-8	0.002206
4.570000E-8	0.001809
4.575000E-8	0.001659
4.580000E-8	0.001391
4.585000E-8	0.001359
4.590000E-8	0.001344
4.595000E-8	0.001313
4.600000E-8	0.001675
4.605000E-8	0.001988
4.610000E-8	0.002253
4.615000E-8	0.002622
4.620000E-8	0.003006
4.625000E-8	0.003369
4.630000E-8	0.003734
4.635000E-8	0.004034
4.640000E-8	0.004262
4.645000E-8	0.004466
4.650000E-8	0.004456
4.655000E-8	0.004484
4.660000E-8	0.004300
4.665000E-8	0.004119
4.670000E-8	0.003903
4.675000E-8	0.003675
4.680000E-8	0.003250
4.685000E-8	0.002803
4.690000E-8	0.002419
4.695000E-8	0.002150
4.700000E-8	0.001956
4.705000E-8	0.001916
4.710000E-8	0.001813
4.715000E-8	0.001981
4.720000E-8	0.002116
4.725000E-8	0.002384
4.730000E-8	0.002778
4.735000E-8	0.003041
4.740000E-8	0.003234
4.745000E-8	0.003606
4.750000E-8	0.003831
4.755000E-8	0.004009
4.760000E-8	0.004128
4.765000E-8	0.004275
4.770000E-8	0.004300
4.775000E-8	0.004372
4.780000E-8	0.004413
4.785000E-8	0.004297
4.790000E-8	0.004231
4.795000E-8	0.003997
4.800000E-8	0.003709
4.805000E-8	0.003563
4.810000E-8	0.003128
4.815000E-8	0.002816
4.820000E-8	0.002503
4.825000E-8	0.002413
4.830000E-8	0.002047
4.835000E-8	0.001937
4.840000E-8	0.001925
4.845000E-8	0.001906
4.850000E-8	0.001975
4.855000E-8	0.002303
4.860000E-8	0.002603
4.865000E-8	0.002856
4.870000E-8	0.003144
4.875000E-8	0.003563
4.880000E-8	0.003844
4.885000E-8	0.004106
4.890000E-8	0.004231
4.895000E-8	0.004303
4.900000E-8	0.004309
4.905000E-8	0.004216
4.910000E-8	0.003922
4.915000E-8	0.003853
4.920000E-8	0.003672
4.925000E-8	0.003334
4.930000E-8	0.003006
4.935000E-8	0.002844
4.940000E-8	0.002509
4.945000E-8	0.002347
4.950000E-8	0.002100
4.955000E-8	0.002056
4.960000E-8	0.002012
4.965000E-8	0.002250
4.970000E-8	0.002263
4.975000E-8	0.002466
4.980000E-8	0.002597
4.985000E-8	0.002784
4.990000E-8	0.002978
4.995000E-8	0.003397
5.000000E-8	0.003672
5.005000E-8	0.004044
5.010000E-8	0.004128
5.015000E-8	0.004428
5.020000E-8	0.004563
5.025000E-8	0.004572
5.030000E-8	0.004544
5.035000E-8	0.004441
5.040000E-8	0.004131
5.045000E-8	0.003913
5.050000E-8	0.003541
5.055000E-8	0.003231
5.060000E-8	0.002825
5.065000E-8	0.002534
5.070000E-8	0.002272
5.075000E-8	0.002056
5.080000E-8	0.001966
5.085000E-8	0.001894
5.090000E-8	0.001834
5.095000E-8	0.001928
5.100000E-8	0.002194
5.105000E-8	0.002369
5.110000E-8	0.002553
5.115000E-8	0.002934
5.120000E-8	0.003244
5.125000E-8	0.003544
5.130000E-8	0.003841
5.135000E-8	0.004125
5.140000E-8	0.004213
5.145000E-8	0.004313
5.150000E-8	0.004334
5.155000E-8	0.004231
5.160000E-8	0.004028
5.165000E-8	0.003866
5.170000E-8	0.003531
5.175000E-8	0.003278
5.180000E-8	0.002956
5.185000E-8	0.002737
5.190000E-8	0.002587
5.195000E-8	0.002494
5.200000E-8	0.002372
5.205000E-8	0.002406
5.210000E-8	0.002206
5.215000E-8	0.002247
5.220000E-8	0.002384
5.225000E-8	0.002463
5.230000E-8	0.002522
5.235000E-8	0.002641
5.240000E-8	0.002859
5.245000E-8	0.003172
5.250000E-8	0.003331
5.255000E-8	0.003759
5.260000E-8	0.003981
5.265000E-8	0.004141
5.270000E-8	0.004241
5.275000E-8	0.004369
5.280000E-8	0.004391
5.285000E-8	0.004369
5.290000E-8	0.004250
5.295000E-8	0.004084
5.300000E-8	0.003781
5.305000E-8	0.003600
5.310000E-8	0.003275
5.315000E-8	0.002956
5.320000E-8	0.002594
5.325000E-8	0.002375
5.330000E-8	0.002119
5.335000E-8	0.001919
5.340000E-8	0.001916
5.345000E-8	0.001975
5.350000E-8	0.002041
5.355000E-8	0.002322
5.360000E-8	0.002428
5.365000E-8	0.002844
5.370000E-8	0.003116
5.375000E-8	0.003397
5.380000E-8	0.003634
5.385000E-8	0.003909
5.390000E-8	0.003947
5.395000E-8	0.004125
5.400000E-8	0.004081
5.405000E-8	0.003947
5.410000E-8	0.003809
5.415000E-8	0.003659
5.420000E-8	0.003450
5.425000E-8	0.003250
5.430000E-8	0.002997
5.435000E-8	0.002769
5.440000E-8	0.002575
5.445000E-8	0.002419
5.450000E-8	0.002253
5.455000E-8	0.002153
5.460000E-8	0.002063
5.465000E-8	0.002087
5.470000E-8	0.002094
5.475000E-8	0.002266
5.480000E-8	0.002322
5.485000E-8	0.002516
5.490000E-8	0.002675
5.495000E-8	0.002916
5.500000E-8	0.003144
5.505000E-8	0.003391
5.510000E-8	0.003678
5.515000E-8	0.003841
5.520000E-8	0.004059
5.525000E-8	0.004078
5.530000E-8	0.004131
5.535000E-8	0.004144
5.540000E-8	0.004131
5.545000E-8	0.003913
5.550000E-8	0.003697
5.555000E-8	0.003428
5.560000E-8	0.003141
5.565000E-8	0.002956
5.570000E-8	0.002609
5.575000E-8	0.002575
5.580000E-8	0.002197
5.585000E-8	0.002153
5.590000E-8	0.002228
5.595000E-8	0.002325
5.600000E-8	0.002350
5.605000E-8	0.002541
5.610000E-8	0.002719
5.615000E-8	0.002959
5.620000E-8	0.003128
5.625000E-8	0.003463
5.630000E-8	0.003628
5.635000E-8	0.003847
5.640000E-8	0.003778
5.645000E-8	0.003909
5.650000E-8	0.003856
5.655000E-8	0.003900
5.660000E-8	0.003828
5.665000E-8	0.003741
5.670000E-8	0.003572
5.675000E-8	0.003409
5.680000E-8	0.003178
5.685000E-8	0.003122
5.690000E-8	0.002797
5.695000E-8	0.002631
5.700000E-8	0.002353
5.705000E-8	0.002288
5.710000E-8	0.002206
5.715000E-8	0.002278
5.720000E-8	0.002316
5.725000E-8	0.002431
5.730000E-8	0.002503
5.735000E-8	0.002750
5.740000E-8	0.003122
5.745000E-8	0.003303
5.750000E-8	0.003509
5.755000E-8	0.003803
5.760000E-8	0.004016
5.765000E-8	0.004172
5.770000E-8	0.004309
5.775000E-8	0.004378
5.780000E-8	0.004297
5.785000E-8	0.004237
5.790000E-8	0.004106
5.795000E-8	0.004009
5.800000E-8	0.003716
5.805000E-8	0.003584
5.810000E-8	0.003269
5.815000E-8	0.003113
5.820000E-8	0.002791
5.825000E-8	0.002737
5.830000E-8	0.002613
5.835000E-8	0.002534
5.840000E-8	0.002478
5.845000E-8	0.002497
5.850000E-8	0.002338
5.855000E-8	0.002494
5.860000E-8	0.002597
5.865000E-8	0.002834
5.870000E-8	0.003038
5.875000E-8	0.003269
5.880000E-8	0.003422
5.885000E-8	0.003644
5.890000E-8	0.003769
5.895000E-8	0.003838
5.900000E-8	0.003853
5.905000E-8	0.003875
5.910000E-8	0.003788
5.915000E-8	0.003753
5.920000E-8	0.003556
5.925000E-8	0.003463
5.930000E-8	0.003309
5.935000E-8	0.003066
5.940000E-8	0.002894
5.945000E-8	0.002650
5.950000E-8	0.002528
5.955000E-8	0.002325
5.960000E-8	0.002203
5.965000E-8	0.002203
5.970000E-8	0.002300
5.975000E-8	0.002447
5.980000E-8	0.002541
5.985000E-8	0.002769
5.990000E-8	0.002947
5.995000E-8	0.003131
6.000000E-8	0.003319
6.005000E-8	0.003553
6.010000E-8	0.003697
6.015000E-8	0.003969
6.020000E-8	0.003831
6.025000E-8	0.003972
6.030000E-8	0.004100
6.035000E-8	0.004016
6.040000E-8	0.003994
6.045000E-8	0.003863
6.050000E-8	0.003706
6.055000E-8	0.003534
6.060000E-8	0.003172
6.065000E-8	0.003019
6.070000E-8	0.002759
6.075000E-8	0.002444
6.080000E-8	0.002228
6.085000E-8	0.002094
6.090000E-8	0.002131
6.095000E-8	0.002150
6.100000E-8	0.002306
6.105000E-8	0.002478
6.110000E-8	0.002616
6.115000E-8	0.002944
6.120000E-8	0.003131
6.125000E-8	0.003353
6.130000E-8	0.003506
6.135000E-8	0.003722
6.140000E-8	0.003853
6.145000E-8	0.003988
6.150000E-8	0.004047
6.155000E-8	0.004097
6.160000E-8	0.004069
6.165000E-8	0.003959
6.170000E-8	0.003775
6.175000E-8	0.003741
6.180000E-8	0.003425
6.185000E-8	0.003138
6.190000E-8	0.002772
6.195000E-8	0.002547
6.200000E-8	0.002175
6.205000E-8	0.001928
6.210000E-8	0.001838
6.215000E-8	0.001850
6.220000E-8	0.001725
6.225000E-8	0.001947
6.230000E-8	0.002072
6.235000E-8	0.002306
6.240000E-8	0.002522
6.245000E-8	0.002756
6.250000E-8	0.002997
6.255000E-8	0.003281
6.260000E-8	0.003528
6.265000E-8	0.003716
6.270000E-8	0.004003
6.275000E-8	0.004063
6.280000E-8	0.004200
6.285000E-8	0.004350
6.290000E-8	0.004219
6.295000E-8	0.004059
6.300000E-8	0.003919
6.305000E-8	0.003672
6.310000E-8	0.003456
6.315000E-8	0.003119
6.320000E-8	0.002828
6.325000E-8	0.002606
6.330000E-8	0.002503
6.335000E-8	0.002372
6.340000E-8	0.002403
6.345000E-8	0.002453
6.350000E-8	0.002506
6.355000E-8	0.002650
6.360000E-8	0.002834
6.365000E-8	0.003116
6.370000E-8	0.003241
6.375000E-8	0.003488
6.380000E-8	0.003653
6.385000E-8	0.003781
6.390000E-8	0.003797
6.395000E-8	0.003938
6.400000E-8	0.003966
6.405000E-8	0.003975
6.410000E-8	0.003816
6.415000E-8	0.003847
6.420000E-8	0.003644
6.425000E-8	0.003603
6.430000E-8	0.003372
6.435000E-8	0.003200
6.440000E-8	0.003009
6.445000E-8	0.002828
6.450000E-8	0.002547
6.455000E-8	0.002375
6.460000E-8	0.002181
6.465000E-8	0.002138
6.470000E-8	0.002109
6.475000E-8	0.002225
6.480000E-8	0.002203
6.485000E-8	0.002356
6.490000E-8	0.002569
6.495000E-8	0.002769
6.500000E-8	0.003075
6.505000E-8	0.003284
6.510000E-8	0.003388
6.515000E-8	0.003656
6.520000E-8	0.003797
6.525000E-8	0.003850
6.530000E-8	0.003831
6.535000E-8	0.003900
6.540000E-8	0.003850
6.545000E-8	0.003603
6.550000E-8	0.003441
6.555000E-8	0.003366
6.560000E-8	0.003059
6.565000E-8	0.002963
6.570000E-8	0.002778
6.575000E-8	0.002634
6.580000E-8	0.002481
6.585000E-8	0.002328
6.590000E-8	0.002200
6.595000E-8	0.002266
6.600000E-8	0.002188
6.605000E-8	0.002256
6.610000E-8	0.002309
6.615000E-8	0.002472
6.620000E-8	0.002566
6.625000E-8	0.002919
6.630000E-8	0.003209
6.635000E-8	0.003416
6.640000E-8	0.003659
6.645000E-8	0.003822
6.650000E-8	0.003872
6.655000E-8	0.003941
6.660000E-8	0.003903
6.665000E-8	0.003953
6.670000E-8	0.003741
6.675000E-8	0.003544
6.680000E-8	0.003238
6.685000E-8	0.002956
6.690000E-8	0.002631
6.695000E-8	0.002422
6.700000E-8	0.002266
6.705000E-8	0.002094
6.710000E-8	0.002128
6.715000E-8	0.002222
6.720000E-8	0.002181
6.725000E-8	0.002378
6.730000E-8	0.002463
6.735000E-8	0.002700
6.740000E-8	0.002816
6.745000E-8	0.003128
6.750000E-8	0.003184
6.755000E-8	0.003350
6.760000E-8	0.003384
6.765000E-8	0.003528
6.770000E-8	0.003684
6.775000E-8	0.003716
6.780000E-8	0.003663
6.785000E-8	0.003631
6.790000E-8	0.003616
6.795000E-8	0.003497
6.800000E-8	0.003344
6.805000E-8	0.003209
6.810000E-8	0.003038
6.815000E-8	0.002822
6.820000E-8	0.002638
6.825000E-8	0.002616
6.830000E-8	0.002506
6.835000E-8	0.002403
6.840000E-8	0.002297
6.845000E-8	0.002391
6.850000E-8	0.002491
6.855000E-8	0.002587
6.860000E-8	0.002634
6.865000E-8	0.002756
6.870000E-8	0.002809
6.875000E-8	0.003159
6.880000E-8	0.003234
6.885000E-8	0.003438
6.890000E-8	0.003528
6.895000E-8	0.003697
6.900000E-8	0.003669
6.905000E-8	0.003794
6.910000E-8	0.003784
6.915000E-8	0.003784
6.920000E-8	0.003653
6.925000E-8	0.003628
6.930000E-8	0.003431
6.935000E-8	0.003250
6.940000E-8	0.003003
6.945000E-8	0.002897
6.950000E-8	0.002788
6.955000E-8	0.002628
6.960000E-8	0.002506
6.965000E-8	0.002400
6.970000E-8	0.002531
6.975000E-8	0.002544
6.980000E-8	0.002575
6.985000E-8	0.002778
6.990000E-8	0.002909
6.995000E-8	0.003012
7.000000E-8	0.003059
7.005000E-8	0.003184
7.010000E-8	0.003231
7.015000E-8	0.003303
7.020000E-8	0.003300
7.025000E-8	0.003397
7.030000E-8	0.003391
7.035000E-8	0.003409
7.040000E-8	0.003325
7.045000E-8	0.003397
7.050000E-8	0.003213
7.055000E-8	0.003259
7.060000E-8	0.003166
7.065000E-8	0.003041
7.070000E-8	0.002897
7.075000E-8	0.002859
7.080000E-8	0.002713
7.085000E-8	0.002525
7.090000E-8	0.002584
7.095000E-8	0.002547
7.100000E-8	0.002547
7.105000E-8	0.002684
7.110000E-8	0.002750
7.115000E-8	0.002803
7.120000E-8	0.003003
7.125000E-8	0.003181
7.130000E-8	0.003325
7.135000E-8	0.003650
7.140000E-8	0.003700
7.145000E-8	0.003834
7.150000E-8	0.003844
7.155000E-8	0.004097
7.160000E-8	0.004072
7.165000E-8	0.003934
7.170000E-8	0.003828
7.175000E-8	0.003716
7.180000E-8	0.003466
7.185000E-8	0.003372
7.190000E-8	0.003147
7.195000E-8	0.003022
7.200000E-8	0.002800
7.205000E-8	0.002697
7.210000E-8	0.002463
7.215000E-8	0.002319
7.220000E-8	0.002303
7.225000E-8	0.002472
7.230000E-8	0.002363
7.235000E-8	0.002575
7.240000E-8	0.002775
7.245000E-8	0.002913
7.250000E-8	0.003075
7.255000E-8	0.003328
7.260000E-8	0.003425
7.265000E-8	0.003581
7.270000E-8	0.003700
7.275000E-8	0.003791
7.280000E-8	0.003678
7.285000E-8	0.003744
7.290000E-8	0.003709
7.295000E-8	0.003553
7.300000E-8	0.003381
7.305000E-8	0.003241
7.310000E-8	0.003206
7.315000E-8	0.003034
7.320000E-8	0.002831
7.325000E-8	0.002728
7.330000E-8	0.002459
7.335000E-8	0.002444
7.340000E-8	0.002325
7.345000E-8	0.002300
7.350000E-8	0.002237
7.355000E-8	0.002316
7.360000E-8	0.002431
7.365000E-8	0.002634
7.370000E-8	0.002781
7.375000E-8	0.002959
7.380000E-8	0.003175
7.385000E-8	0.003322
7.390000E-8	0.003569
7.395000E-8	0.003741
7.400000E-8	0.003834
7.405000E-8	0.003903
7.410000E-8	0.003863
7.415000E-8	0.003769
7.420000E-8	0.003609
7.425000E-8	0.003484
7.430000E-8	0.003159
7.435000E-8	0.003241
7.440000E-8	0.003006
7.445000E-8	0.002813
7.450000E-8	0.002731
7.455000E-8	0.002672
7.460000E-8	0.002691
7.465000E-8	0.002753
7.470000E-8	0.002769
7.475000E-8	0.002866
7.480000E-8	0.003006
7.485000E-8	0.003059
7.490000E-8	0.003122
7.495000E-8	0.003306
7.500000E-8	0.003341
7.505000E-8	0.003516
7.510000E-8	0.003647
7.515000E-8	0.003791
7.520000E-8	0.003825
7.525000E-8	0.003891
7.530000E-8	0.004022
7.535000E-8	0.003981
7.540000E-8	0.003788
7.545000E-8	0.003744
7.550000E-8	0.003572
7.555000E-8	0.003541
7.560000E-8	0.003209
7.565000E-8	0.003100
7.570000E-8	0.002956
7.575000E-8	0.002869
7.580000E-8	0.002756
7.585000E-8	0.002662
7.590000E-8	0.002456
7.595000E-8	0.002525
7.600000E-8	0.002541
7.605000E-8	0.002500
7.610000E-8	0.002466
7.615000E-8	0.002456
7.620000E-8	0.002591
7.625000E-8	0.002775
7.630000E-8	0.002850
7.635000E-8	0.003150
7.640000E-8	0.003172
7.645000E-8	0.003434
7.650000E-8	0.003425
7.655000E-8	0.003544
7.660000E-8	0.003544
7.665000E-8	0.003456
7.670000E-8	0.003272
7.675000E-8	0.003244
7.680000E-8	0.003128
7.685000E-8	0.003075
7.690000E-8	0.002809
7.695000E-8	0.002700
7.700000E-8	0.002625
7.705000E-8	0.002597
7.710000E-8	0.002444
7.715000E-8	0.002431
7.720000E-8	0.002406
7.725000E-8	0.002400
7.730000E-8	0.002509
7.735000E-8	0.002603
7.740000E-8	0.002722
7.745000E-8	0.002797
7.750000E-8	0.002938
7.755000E-8	0.003128
7.760000E-8	0.003203
7.765000E-8	0.003306
7.770000E-8	0.003241
7.775000E-8	0.003328
7.780000E-8	0.003272
7.785000E-8	0.003278
7.790000E-8	0.003409
7.795000E-8	0.003434
7.800000E-8	0.003469
7.805000E-8	0.003406
7.810000E-8	0.003341
7.815000E-8	0.003431
7.820000E-8	0.003225
7.825000E-8	0.003219
7.830000E-8	0.003178
7.835000E-8	0.003109
7.840000E-8	0.003063
7.845000E-8	0.003122
7.850000E-8	0.003050
7.855000E-8	0.003019
7.860000E-8	0.003159
7.865000E-8	0.003150
7.870000E-8	0.003194
7.875000E-8	0.003359
7.880000E-8	0.003441
7.885000E-8	0.003538
7.890000E-8	0.003622
7.895000E-8	0.003634
7.900000E-8	0.003569
7.905000E-8	0.003697
7.910000E-8	0.003634
7.915000E-8	0.003522
7.920000E-8	0.003372
7.925000E-8	0.003259
7.930000E-8	0.003162
7.935000E-8	0.003181
7.940000E-8	0.002975
7.945000E-8	0.003006
7.950000E-8	0.002884
7.955000E-8	0.002878
7.960000E-8	0.002741
7.965000E-8	0.002666
7.970000E-8	0.002563
7.975000E-8	0.002631
7.980000E-8	0.002506
7.985000E-8	0.002603
7.990000E-8	0.002528
7.995000E-8	0.002622
8.000000E-8	0.002750
8.005000E-8	0.002806
8.010000E-8	0.002881
8.015000E-8	0.002959
8.020000E-8	0.002941
8.025000E-8	0.003072
8.030000E-8	0.003106
8.035000E-8	0.003300
8.040000E-8	0.003359
8.045000E-8	0.003381
8.050000E-8	0.003366
8.055000E-8	0.003406
8.060000E-8	0.003288
8.065000E-8	0.003291
8.070000E-8	0.003162
8.075000E-8	0.003066
8.080000E-8	0.002997
8.085000E-8	0.002900
8.090000E-8	0.002625
8.095000E-8	0.002731
8.100000E-8	0.002569
8.105000E-8	0.002697
8.110000E-8	0.002734
8.115000E-8	0.002841
8.120000E-8	0.002934
8.125000E-8	0.003147
8.130000E-8	0.003213
8.135000E-8	0.003372
8.140000E-8	0.003556
8.145000E-8	0.003694
8.150000E-8	0.003656
8.155000E-8	0.003656
8.160000E-8	0.003694
8.165000E-8	0.003688
8.170000E-8	0.003566
8.175000E-8	0.003388
8.180000E-8	0.003325
8.185000E-8	0.003166
8.190000E-8	0.003009
8.195000E-8	0.002888
8.200000E-8	0.002756
8.205000E-8	0.002662
8.210000E-8	0.002572
8.215000E-8	0.002638
8.220000E-8	0.002741
8.225000E-8	0.002844
8.230000E-8	0.003034
8.235000E-8	0.003184
8.240000E-8	0.003366
8.245000E-8	0.003459
8.250000E-8	0.003644
8.255000E-8	0.003806
8.260000E-8	0.003722
8.265000E-8	0.003634
8.270000E-8	0.003622
8.275000E-8	0.003600
8.280000E-8	0.003472
8.285000E-8	0.003391
8.290000E-8	0.003369
8.295000E-8	0.003322
8.300000E-8	0.003378
8.305000E-8	0.003416
8.310000E-8	0.003291
8.315000E-8	0.003347
8.320000E-8	0.003291
8.325000E-8	0.003356
8.330000E-8	0.003219
8.335000E-8	0.003197
8.340000E-8	0.003128
8.345000E-8	0.002956
8.350000E-8	0.002931
8.355000E-8	0.002928
8.360000E-8	0.002834
8.365000E-8	0.002800
8.370000E-8	0.002834
8.375000E-8	0.002950
8.380000E-8	0.002944
8.385000E-8	0.003084
8.390000E-8	0.003025
8.395000E-8	0.003078
8.400000E-8	0.003216
8.405000E-8	0.003400
8.410000E-8	0.003313
8.415000E-8	0.003512
8.420000E-8	0.003391
8.425000E-8	0.003581
8.430000E-8	0.003503
8.435000E-8	0.003466
8.440000E-8	0.003281
8.445000E-8	0.003247
8.450000E-8	0.003100
8.455000E-8	0.003078
8.460000E-8	0.002988
8.465000E-8	0.002966
8.470000E-8	0.002881
8.475000E-8	0.002938
8.480000E-8	0.002903
8.485000E-8	0.003081
8.490000E-8	0.003031
8.495000E-8	0.003166
8.500000E-8	0.003147
8.505000E-8	0.003238
8.510000E-8	0.003228
8.515000E-8	0.003263
8.520000E-8	0.003244
8.525000E-8	0.003222
8.530000E-8	0.003153
8.535000E-8	0.003303
8.540000E-8	0.003428
8.545000E-8	0.003391
8.550000E-8	0.003381
8.555000E-8	0.003394
8.560000E-8	0.003344
8.565000E-8	0.003319
8.570000E-8	0.003306
8.575000E-8	0.003325
8.580000E-8	0.003109
8.585000E-8	0.002956
8.590000E-8	0.002847
8.595000E-8	0.002891
8.600000E-8	0.002659
8.605000E-8	0.002888
8.610000E-8	0.002894
8.615000E-8	0.003053
8.620000E-8	0.003197
8.625000E-8	0.003413
8.630000E-8	0.003653
8.635000E-8	0.003669
8.640000E-8	0.003803
8.645000E-8	0.003875
8.650000E-8	0.003897
8.655000E-8	0.004006
8.660000E-8	0.003984
8.665000E-8	0.003988
8.670000E-8	0.003753
8.675000E-8	0.003800
8.680000E-8	0.003609
8.685000E-8	0.003447
8.690000E-8	0.003213
8.695000E-8	0.003209
8.700000E-8	0.002994
8.705000E-8	0.002856
8.710000E-8	0.002725
8.715000E-8	0.002741
8.720000E-8	0.002688
8.725000E-8	0.002678
8.730000E-8	0.002584
8.735000E-8	0.002744
8.740000E-8	0.002747
8.745000E-8	0.002909
8.750000E-8	0.002944
8.755000E-8	0.003006
8.760000E-8	0.003009
8.765000E-8	0.003012
8.770000E-8	0.003191
8.775000E-8	0.003297
8.780000E-8	0.003228
8.785000E-8	0.003206
8.790000E-8	0.003153
8.795000E-8	0.003181
8.800000E-8	0.003075
8.805000E-8	0.003078
8.810000E-8	0.003097
8.815000E-8	0.002938
8.820000E-8	0.002950
8.825000E-8	0.002841
8.830000E-8	0.002891
8.835000E-8	0.002950
8.840000E-8	0.002984
8.845000E-8	0.002950
8.850000E-8	0.002881
8.855000E-8	0.002994
8.860000E-8	0.002891
8.865000E-8	0.002881
8.870000E-8	0.002875
8.875000E-8	0.002878
8.880000E-8	0.002938
8.885000E-8	0.003003
8.890000E-8	0.003012
8.895000E-8	0.003194
8.900000E-8	0.003128
8.905000E-8	0.003241
8.910000E-8	0.003197
8.915000E-8	0.003219
8.920000E-8	0.003172
8.925000E-8	0.003203
8.930000E-8	0.003053
8.935000E-8	0.002988
8.940000E-8	0.002731
8.945000E-8	0.002700
8.950000E-8	0.002519
8.955000E-8	0.002563
8.960000E-8	0.002519
8.965000E-8	0.002531
8.970000E-8	0.002478
8.975000E-8	0.002675
8.980000E-8	0.002816
8.985000E-8	0.002903
8.990000E-8	0.003059
8.995000E-8	0.003138
9.000000E-8	0.003222
9.005000E-8	0.003331
9.010000E-8	0.003275
9.015000E-8	0.003322
9.020000E-8	0.003394
9.025000E-8	0.003294
9.030000E-8	0.003231
9.035000E-8	0.003253
9.040000E-8	0.003247
9.045000E-8	0.003228
9.050000E-8	0.003188
9.055000E-8	0.003338
9.060000E-8	0.003241
9.065000E-8	0.003272
9.070000E-8	0.003219
9.075000E-8	0.003191
9.080000E-8	0.003087
9.085000E-8	0.002950
9.090000E-8	0.002813
9.095000E-8	0.002866
9.100000E-8	0.002806
9.105000E-8	0.002737
9.110000E-8	0.002809
9.115000E-8	0.002816
9.120000E-8	0.002903
9.125000E-8	0.003066
9.130000E-8	0.003041
9.135000E-8	0.003213
9.140000E-8	0.003384
9.145000E-8	0.003447
9.150000E-8	0.003447
9.155000E-8	0.003447
9.160000E-8	0.003309
9.165000E-8	0.003331
9.170000E-8	0.003244
9.175000E-8	0.003131
9.180000E-8	0.003050
9.185000E-8	0.003053
9.190000E-8	0.003006
9.195000E-8	0.003141
9.200000E-8	0.003006
9.205000E-8	0.003009
9.210000E-8	0.003091
9.215000E-8	0.003050
9.220000E-8	0.002938
9.225000E-8	0.002953
9.230000E-8	0.002928
9.235000E-8	0.003012
9.240000E-8	0.002947
9.245000E-8	0.003006
9.250000E-8	0.003075
9.255000E-8	0.003269
9.260000E-8	0.003244
9.265000E-8	0.003366
9.270000E-8	0.003347
9.275000E-8	0.003594
9.280000E-8	0.003581
9.285000E-8	0.003581
9.290000E-8	0.003512
9.295000E-8	0.003466
9.300000E-8	0.003322
9.305000E-8	0.003238
9.310000E-8	0.003144
9.315000E-8	0.002894
9.320000E-8	0.002775
9.325000E-8	0.002662
9.330000E-8	0.002472
9.335000E-8	0.002544
9.340000E-8	0.002597
9.345000E-8	0.002691
9.350000E-8	0.002647
9.355000E-8	0.002766
9.360000E-8	0.002900
9.365000E-8	0.003091
9.370000E-8	0.003081
9.375000E-8	0.003028
9.380000E-8	0.003094
9.385000E-8	0.003094
9.390000E-8	0.003116
9.395000E-8	0.003191
9.400000E-8	0.003269
9.405000E-8	0.003413
9.410000E-8	0.003419
9.415000E-8	0.003416
9.420000E-8	0.003456
9.425000E-8	0.003472
9.430000E-8	0.003353
9.435000E-8	0.003466
9.440000E-8	0.003422
9.445000E-8	0.003384
9.450000E-8	0.003191
9.455000E-8	0.003072
9.460000E-8	0.002956
9.465000E-8	0.002966
9.470000E-8	0.002872
9.475000E-8	0.002844
9.480000E-8	0.002741
9.485000E-8	0.002859
9.490000E-8	0.002844
9.495000E-8	0.002881
9.500000E-8	0.003044
9.505000E-8	0.003203
9.510000E-8	0.003325
9.515000E-8	0.003481
9.520000E-8	0.003447
9.525000E-8	0.003400
9.530000E-8	0.003481
9.535000E-8	0.003600
9.540000E-8	0.003409
9.545000E-8	0.003338
9.550000E-8	0.003428
9.555000E-8	0.003391
9.560000E-8	0.003219
9.565000E-8	0.003153
9.570000E-8	0.003178
9.575000E-8	0.003150
9.580000E-8	0.002988
9.585000E-8	0.003025
9.590000E-8	0.002981
9.595000E-8	0.002931
9.600000E-8	0.002934
9.605000E-8	0.002903
9.610000E-8	0.002825
9.615000E-8	0.002828
9.620000E-8	0.002763
9.625000E-8	0.002838
9.630000E-8	0.002925
9.635000E-8	0.003059
9.640000E-8	0.003109
9.645000E-8	0.003244
9.650000E-8	0.003291
9.655000E-8	0.003453
9.660000E-8	0.003372
9.665000E-8	0.003359
9.670000E-8	0.003256
9.675000E-8	0.003209
9.680000E-8	0.003153
9.685000E-8	0.003191
9.690000E-8	0.003150
9.695000E-8	0.003213
9.700000E-8	0.003106
9.705000E-8	0.003044
9.710000E-8	0.003028
9.715000E-8	0.003134
9.720000E-8	0.003175
9.725000E-8	0.003256
9.730000E-8	0.003188
9.735000E-8	0.003375
9.740000E-8	0.003256
9.745000E-8	0.003284
9.750000E-8	0.003263
9.755000E-8	0.003300
9.760000E-8	0.003150
9.765000E-8	0.003119
9.770000E-8	0.003069
9.775000E-8	0.003128
9.780000E-8	0.003116
9.785000E-8	0.003234
9.790000E-8	0.003303
9.795000E-8	0.003481
9.800000E-8	0.003525
9.805000E-8	0.003578
9.810000E-8	0.003613
9.815000E-8	0.003475
9.820000E-8	0.003397
9.825000E-8	0.003331
9.830000E-8	0.003250
9.835000E-8	0.003153
9.840000E-8	0.003016
9.845000E-8	0.002984
9.850000E-8	0.002963
9.855000E-8	0.003038
9.860000E-8	0.003019
9.865000E-8	0.003016
9.870000E-8	0.002984
9.875000E-8	0.003081
9.880000E-8	0.003116
9.885000E-8	0.003150
9.890000E-8	0.003200
9.895000E-8	0.003225
9.900000E-8	0.003322
9.905000E-8	0.003547
9.910000E-8	0.003494
9.915000E-8	0.003522
9.920000E-8	0.003516
9.925000E-8	0.003497
9.930000E-8	0.003416
9.935000E-8	0.003253
9.940000E-8	0.003194
9.945000E-8	0.003141
9.950000E-8	0.003181
9.955000E-8	0.003084
9.960000E-8	0.003091
9.965000E-8	0.002991
9.970000E-8	0.002969
9.975000E-8	0.002897
9.980000E-8	0.002913
9.985000E-8	0.002906
9.990000E-8	0.002956
9.995000E-8	0.003063
