LabVIEW Measurement	
Writer_Version	2
Reader_Version	2
Separator	Tab
Decimal_Separator	.
Multi_Headings	No
X_Columns	Multi
Time_Pref	Relative
Operator	TG lab
Date	2015/03/06
Time	19:02:01.1645994186401367187
***End_of_Header***	
	
Channels	1	
Samples	2000	
Date	2015/03/06	
Time	19:02:01.1645994186401367187	
X_Dimension	Time	
X0	0.0000000000000000E+0	
Delta_X	5.000000E-11	
***End_of_Header***		
X_Value	Untitled	Comment
0.000000	0.001600
5.000000E-11	0.001738
1.000000E-10	0.001753
1.500000E-10	0.001678
2.000000E-10	0.001678
2.500000E-10	0.001591
3.000000E-10	0.001669
3.500000E-10	0.001750
4.000000E-10	0.001622
4.500000E-10	0.001794
5.000000E-10	0.001916
5.500000E-10	0.001978
6.000000E-10	0.001900
6.500000E-10	0.001847
7.000000E-10	0.001716
7.500000E-10	0.001716
8.000000E-10	0.001625
8.500000E-10	0.001466
9.000000E-10	0.001291
9.500000E-10	0.001281
1.000000E-9	0.001209
1.050000E-9	0.001241
1.100000E-9	0.001350
1.150000E-9	0.001472
1.200000E-9	0.001513
1.250000E-9	0.001525
1.300000E-9	0.001678
1.350000E-9	0.001797
1.400000E-9	0.001825
1.450000E-9	0.001847
1.500000E-9	0.001772
1.550000E-9	0.001766
1.600000E-9	0.001772
1.650000E-9	0.001597
1.700000E-9	0.001522
1.750000E-9	0.001484
1.800000E-9	0.001469
1.850000E-9	0.001434
1.900000E-9	0.001322
1.950000E-9	0.001397
2.000000E-9	0.001441
2.050000E-9	0.001463
2.100000E-9	0.001538
2.150000E-9	0.001578
2.200000E-9	0.001478
2.250000E-9	0.001453
2.300000E-9	0.001459
2.350000E-9	0.001506
2.400000E-9	0.001331
2.450000E-9	0.001444
2.500000E-9	0.001494
2.550000E-9	0.001441
2.600000E-9	0.001378
2.650000E-9	0.001509
2.700000E-9	0.001522
2.750000E-9	0.001594
2.800000E-9	0.001687
2.850000E-9	0.001703
2.900000E-9	0.001534
2.950000E-9	0.001441
3.000000E-9	0.001466
3.050000E-9	0.001388
3.100000E-9	0.001325
3.150000E-9	0.001350
3.200000E-9	0.001225
3.250000E-9	0.001241
3.300000E-9	0.001225
3.350000E-9	0.001325
3.400000E-9	0.001303
3.450000E-9	0.001319
3.500000E-9	0.001213
3.550000E-9	0.001259
3.600000E-9	0.001222
3.650000E-9	0.001316
3.700000E-9	0.001362
3.750000E-9	0.001350
3.800000E-9	0.001369
3.850000E-9	0.001416
3.900000E-9	0.001516
3.950000E-9	0.001622
4.000000E-9	0.001591
4.050000E-9	0.001641
4.100000E-9	0.001538
4.150000E-9	0.001647
4.200000E-9	0.001638
4.250000E-9	0.001644
4.300000E-9	0.001687
4.350000E-9	0.001816
4.400000E-9	0.001831
4.450000E-9	0.001909
4.500000E-9	0.001928
4.550000E-9	0.002094
4.600000E-9	0.002213
4.650000E-9	0.002338
4.700000E-9	0.002328
4.750000E-9	0.002428
4.800000E-9	0.002359
4.850000E-9	0.002162
4.900000E-9	0.001769
4.950000E-9	0.001313
5.000000E-9	0.000544
5.050000E-9	-0.000344
5.100000E-9	-0.001697
5.150000E-9	-0.003091
5.200000E-9	-0.004794
5.250000E-9	-0.006778
5.300000E-9	-0.008803
5.350000E-9	-0.010756
5.400000E-9	-0.012731
5.450000E-9	-0.014388
5.500000E-9	-0.015825
5.550000E-9	-0.016916
5.600000E-9	-0.017647
5.650000E-9	-0.018022
5.700000E-9	-0.018069
5.750000E-9	-0.017778
5.800000E-9	-0.017328
5.850000E-9	-0.016534
5.900000E-9	-0.015697
5.950000E-9	-0.014609
6.000000E-9	-0.013597
6.050000E-9	-0.012553
6.100000E-9	-0.011500
6.150000E-9	-0.010769
6.200000E-9	-0.010088
6.250000E-9	-0.009550
6.300000E-9	-0.009338
6.350000E-9	-0.009213
6.400000E-9	-0.009328
6.450000E-9	-0.009553
6.500000E-9	-0.009819
6.550000E-9	-0.010313
6.600000E-9	-0.010794
6.650000E-9	-0.011228
6.700000E-9	-0.011713
6.750000E-9	-0.012053
6.800000E-9	-0.012303
6.850000E-9	-0.012353
6.900000E-9	-0.012472
6.950000E-9	-0.012138
7.000000E-9	-0.011916
7.050000E-9	-0.011500
7.100000E-9	-0.010947
7.150000E-9	-0.010266
7.200000E-9	-0.009575
7.250000E-9	-0.008712
7.300000E-9	-0.007950
7.350000E-9	-0.006997
7.400000E-9	-0.006103
7.450000E-9	-0.005406
7.500000E-9	-0.004931
7.550000E-9	-0.004522
7.600000E-9	-0.004350
7.650000E-9	-0.004334
7.700000E-9	-0.004469
7.750000E-9	-0.004716
7.800000E-9	-0.005150
7.850000E-9	-0.005603
7.900000E-9	-0.006122
7.950000E-9	-0.006634
8.000000E-9	-0.007213
8.050000E-9	-0.007594
8.100000E-9	-0.007878
8.150000E-9	-0.007981
8.200000E-9	-0.007925
8.250000E-9	-0.007731
8.300000E-9	-0.007416
8.350000E-9	-0.006938
8.400000E-9	-0.006338
8.450000E-9	-0.005566
8.500000E-9	-0.004766
8.550000E-9	-0.004022
8.600000E-9	-0.003363
8.650000E-9	-0.002747
8.700000E-9	-0.002250
8.750000E-9	-0.001894
8.800000E-9	-0.001644
8.850000E-9	-0.001384
8.900000E-9	-0.001459
8.950000E-9	-0.001744
9.000000E-9	-0.002025
9.050000E-9	-0.002447
9.100000E-9	-0.002869
9.150000E-9	-0.003384
9.200000E-9	-0.003991
9.250000E-9	-0.004509
9.300000E-9	-0.004959
9.350000E-9	-0.005441
9.400000E-9	-0.005709
9.450000E-9	-0.005841
9.500000E-9	-0.005941
9.550000E-9	-0.005728
9.600000E-9	-0.005375
9.650000E-9	-0.004928
9.700000E-9	-0.004328
9.750000E-9	-0.003522
9.800000E-9	-0.002781
9.850000E-9	-0.001953
9.900000E-9	-0.001316
9.950000E-9	-0.000569
1.000000E-8	-0.000119
1.005000E-8	0.000303
1.010000E-8	0.000544
1.015000E-8	0.000603
1.020000E-8	0.000484
1.025000E-8	0.000178
1.030000E-8	-0.000297
1.035000E-8	-0.000972
1.040000E-8	-0.001609
1.045000E-8	-0.002206
1.050000E-8	-0.002803
1.055000E-8	-0.003338
1.060000E-8	-0.003825
1.065000E-8	-0.004197
1.070000E-8	-0.004447
1.075000E-8	-0.004384
1.080000E-8	-0.004275
1.085000E-8	-0.003988
1.090000E-8	-0.003509
1.095000E-8	-0.002756
1.100000E-8	-0.002097
1.105000E-8	-0.001356
1.110000E-8	-0.000663
1.115000E-8	-1.875000E-5
1.120000E-8	0.000531
1.125000E-8	0.001047
1.130000E-8	0.001469
1.135000E-8	0.001659
1.140000E-8	0.001559
1.145000E-8	0.001591
1.150000E-8	0.001184
1.155000E-8	0.000825
1.160000E-8	0.000303
1.165000E-8	-0.000338
1.170000E-8	-0.001009
1.175000E-8	-0.001653
1.180000E-8	-0.002353
1.185000E-8	-0.002881
1.190000E-8	-0.003259
1.195000E-8	-0.003453
1.200000E-8	-0.003597
1.205000E-8	-0.003478
1.210000E-8	-0.003203
1.215000E-8	-0.002784
1.220000E-8	-0.002206
1.225000E-8	-0.001534
1.230000E-8	-0.000884
1.235000E-8	-0.000191
1.240000E-8	0.000447
1.245000E-8	0.000981
1.250000E-8	0.001525
1.255000E-8	0.001869
1.260000E-8	0.002131
1.265000E-8	0.002269
1.270000E-8	0.002150
1.275000E-8	0.001853
1.280000E-8	0.001400
1.285000E-8	0.000991
1.290000E-8	0.000353
1.295000E-8	-0.000316
1.300000E-8	-0.000844
1.305000E-8	-0.001356
1.310000E-8	-0.001794
1.315000E-8	-0.002047
1.320000E-8	-0.002338
1.325000E-8	-0.002447
1.330000E-8	-0.002356
1.335000E-8	-0.002122
1.340000E-8	-0.001738
1.345000E-8	-0.001331
1.350000E-8	-0.000737
1.355000E-8	-2.812500E-5
1.360000E-8	0.000653
1.365000E-8	0.001362
1.370000E-8	0.001944
1.375000E-8	0.002503
1.380000E-8	0.002872
1.385000E-8	0.003203
1.390000E-8	0.003138
1.395000E-8	0.003169
1.400000E-8	0.002791
1.405000E-8	0.002325
1.410000E-8	0.001769
1.415000E-8	0.001063
1.420000E-8	0.000478
1.425000E-8	-0.000150
1.430000E-8	-0.000809
1.435000E-8	-0.001434
1.440000E-8	-0.001838
1.445000E-8	-0.001994
1.450000E-8	-0.002253
1.455000E-8	-0.002222
1.460000E-8	-0.002028
1.465000E-8	-0.001578
1.470000E-8	-0.001138
1.475000E-8	-0.000578
1.480000E-8	6.250000E-5
1.485000E-8	0.000688
1.490000E-8	0.001372
1.495000E-8	0.001850
1.500000E-8	0.002375
1.505000E-8	0.002816
1.510000E-8	0.003006
1.515000E-8	0.003078
1.520000E-8	0.002947
1.525000E-8	0.002800
1.530000E-8	0.002466
1.535000E-8	0.002122
1.540000E-8	0.001466
1.545000E-8	0.000856
1.550000E-8	0.000369
1.555000E-8	-0.000325
1.560000E-8	-0.000881
1.565000E-8	-0.001225
1.570000E-8	-0.001406
1.575000E-8	-0.001625
1.580000E-8	-0.001641
1.585000E-8	-0.001503
1.590000E-8	-0.001256
1.595000E-8	-0.000766
1.600000E-8	-0.000272
1.605000E-8	0.000331
1.610000E-8	0.000872
1.615000E-8	0.001547
1.620000E-8	0.002044
1.625000E-8	0.002544
1.630000E-8	0.002913
1.635000E-8	0.003200
1.640000E-8	0.003244
1.645000E-8	0.003194
1.650000E-8	0.003025
1.655000E-8	0.002716
1.660000E-8	0.002178
1.665000E-8	0.001831
1.670000E-8	0.001263
1.675000E-8	0.000766
1.680000E-8	0.000184
1.685000E-8	-0.000231
1.690000E-8	-0.000688
1.695000E-8	-0.000988
1.700000E-8	-0.001138
1.705000E-8	-0.001213
1.710000E-8	-0.001044
1.715000E-8	-0.000766
1.720000E-8	-0.000419
1.725000E-8	-9.375000E-6
1.730000E-8	0.000609
1.735000E-8	0.001381
1.740000E-8	0.002041
1.745000E-8	0.002581
1.750000E-8	0.002994
1.755000E-8	0.003425
1.760000E-8	0.003512
1.765000E-8	0.003559
1.770000E-8	0.003566
1.775000E-8	0.003316
1.780000E-8	0.002947
1.785000E-8	0.002434
1.790000E-8	0.001919
1.795000E-8	0.001350
1.800000E-8	0.000841
1.805000E-8	0.000175
1.810000E-8	-0.000397
1.815000E-8	-0.000713
1.820000E-8	-0.000953
1.825000E-8	-0.001153
1.830000E-8	-0.001388
1.835000E-8	-0.001169
1.840000E-8	-0.000922
1.845000E-8	-0.000378
1.850000E-8	5.312500E-5
1.855000E-8	0.000578
1.860000E-8	0.001159
1.865000E-8	0.001759
1.870000E-8	0.002259
1.875000E-8	0.002794
1.880000E-8	0.003197
1.885000E-8	0.003503
1.890000E-8	0.003597
1.895000E-8	0.003503
1.900000E-8	0.003231
1.905000E-8	0.002909
1.910000E-8	0.002566
1.915000E-8	0.002009
1.920000E-8	0.001528
1.925000E-8	0.001066
1.930000E-8	0.000556
1.935000E-8	0.000216
1.940000E-8	-7.187500E-5
1.945000E-8	-0.000331
1.950000E-8	-0.000397
1.955000E-8	-0.000375
1.960000E-8	-0.000347
1.965000E-8	-9.375000E-5
1.970000E-8	0.000134
1.975000E-8	0.000578
1.980000E-8	0.000984
1.985000E-8	0.001531
1.990000E-8	0.002075
1.995000E-8	0.002534
2.000000E-8	0.002897
2.005000E-8	0.003269
2.010000E-8	0.003441
2.015000E-8	0.003425
2.020000E-8	0.003403
2.025000E-8	0.003275
2.030000E-8	0.002950
2.035000E-8	0.002616
2.040000E-8	0.002209
2.045000E-8	0.001741
2.050000E-8	0.001187
2.055000E-8	0.000775
2.060000E-8	0.000297
2.065000E-8	-0.000150
2.070000E-8	-0.000519
2.075000E-8	-0.000647
2.080000E-8	-0.000663
2.085000E-8	-0.000647
2.090000E-8	-0.000378
2.095000E-8	-2.187500E-5
2.100000E-8	0.000381
2.105000E-8	0.001016
2.110000E-8	0.001425
2.115000E-8	0.002075
2.120000E-8	0.002606
2.125000E-8	0.003053
2.130000E-8	0.003422
2.135000E-8	0.003725
2.140000E-8	0.003725
2.145000E-8	0.003634
2.150000E-8	0.003422
2.155000E-8	0.003250
2.160000E-8	0.002888
2.165000E-8	0.002391
2.170000E-8	0.001819
2.175000E-8	0.001375
2.180000E-8	0.000944
2.185000E-8	0.000500
2.190000E-8	0.000150
2.195000E-8	-0.000181
2.200000E-8	-0.000409
2.205000E-8	-0.000431
2.210000E-8	-0.000459
2.215000E-8	-0.000247
2.220000E-8	5.625000E-5
2.225000E-8	0.000466
2.230000E-8	0.000897
2.235000E-8	0.001456
2.240000E-8	0.002047
2.245000E-8	0.002584
2.250000E-8	0.002950
2.255000E-8	0.003344
2.260000E-8	0.003587
2.265000E-8	0.003678
2.270000E-8	0.003647
2.275000E-8	0.003503
2.280000E-8	0.003206
2.285000E-8	0.002928
2.290000E-8	0.002472
2.295000E-8	0.001963
2.300000E-8	0.001531
2.305000E-8	0.001038
2.310000E-8	0.000622
2.315000E-8	0.000331
2.320000E-8	-3.125000E-6
2.325000E-8	-0.000144
2.330000E-8	-0.000266
2.335000E-8	-0.000113
2.340000E-8	0.000000
2.345000E-8	0.000341
2.350000E-8	0.000556
2.355000E-8	0.001103
2.360000E-8	0.001644
2.365000E-8	0.002069
2.370000E-8	0.002437
2.375000E-8	0.002850
2.380000E-8	0.003128
2.385000E-8	0.003363
2.390000E-8	0.003569
2.395000E-8	0.003581
2.400000E-8	0.003381
2.405000E-8	0.003138
2.410000E-8	0.002806
2.415000E-8	0.002472
2.420000E-8	0.001941
2.425000E-8	0.001531
2.430000E-8	0.001081
2.435000E-8	0.000706
2.440000E-8	0.000322
2.445000E-8	-5.000000E-5
2.450000E-8	-0.000200
2.455000E-8	-0.000284
2.460000E-8	-0.000291
2.465000E-8	-7.812500E-5
2.470000E-8	0.000216
2.475000E-8	0.000503
2.480000E-8	0.000866
2.485000E-8	0.001303
2.490000E-8	0.001709
2.495000E-8	0.002078
2.500000E-8	0.002534
2.505000E-8	0.002981
2.510000E-8	0.003281
2.515000E-8	0.003538
2.520000E-8	0.003653
2.525000E-8	0.003766
2.530000E-8	0.003544
2.535000E-8	0.003328
2.540000E-8	0.002947
2.545000E-8	0.002584
2.550000E-8	0.002078
2.555000E-8	0.001609
2.560000E-8	0.001100
2.565000E-8	0.000797
2.570000E-8	0.000397
2.575000E-8	0.000106
2.580000E-8	-2.187500E-5
2.585000E-8	-7.500000E-5
2.590000E-8	4.375000E-5
2.595000E-8	0.000353
2.600000E-8	0.000628
2.605000E-8	0.001031
2.610000E-8	0.001413
2.615000E-8	0.001834
2.620000E-8	0.002237
2.625000E-8	0.002666
2.630000E-8	0.002988
2.635000E-8	0.003288
2.640000E-8	0.003372
2.645000E-8	0.003444
2.650000E-8	0.003306
2.655000E-8	0.003200
2.660000E-8	0.002866
2.665000E-8	0.002609
2.670000E-8	0.002256
2.675000E-8	0.001853
2.680000E-8	0.001422
2.685000E-8	0.001109
2.690000E-8	0.000719
2.695000E-8	0.000569
2.700000E-8	0.000425
2.705000E-8	0.000275
2.710000E-8	0.000263
2.715000E-8	0.000313
2.720000E-8	0.000372
2.725000E-8	0.000559
2.730000E-8	0.000847
2.735000E-8	0.001231
2.740000E-8	0.001556
2.745000E-8	0.001969
2.750000E-8	0.002303
2.755000E-8	0.002647
2.760000E-8	0.002850
2.765000E-8	0.003234
2.770000E-8	0.003356
2.775000E-8	0.003313
2.780000E-8	0.003172
2.785000E-8	0.002900
2.790000E-8	0.002541
2.795000E-8	0.002100
2.800000E-8	0.001644
2.805000E-8	0.001297
2.810000E-8	0.000888
2.815000E-8	0.000619
2.820000E-8	0.000388
2.825000E-8	0.000113
2.830000E-8	7.812500E-5
2.835000E-8	0.000141
2.840000E-8	0.000341
2.845000E-8	0.000513
2.850000E-8	0.000763
2.855000E-8	0.001197
2.860000E-8	0.001484
2.865000E-8	0.002075
2.870000E-8	0.002416
2.875000E-8	0.002759
2.880000E-8	0.002881
2.885000E-8	0.003134
2.890000E-8	0.003313
2.895000E-8	0.003381
2.900000E-8	0.003359
2.905000E-8	0.003256
2.910000E-8	0.003019
2.915000E-8	0.002781
2.920000E-8	0.002434
2.925000E-8	0.001981
2.930000E-8	0.001531
2.935000E-8	0.001178
2.940000E-8	0.000897
2.945000E-8	0.000634
2.950000E-8	0.000287
2.955000E-8	0.000119
2.960000E-8	7.187500E-5
2.965000E-8	0.000147
2.970000E-8	0.000134
2.975000E-8	0.000334
2.980000E-8	0.000603
2.985000E-8	0.001028
2.990000E-8	0.001369
2.995000E-8	0.001906
3.000000E-8	0.002188
3.005000E-8	0.002619
3.010000E-8	0.002884
3.015000E-8	0.003025
3.020000E-8	0.003162
3.025000E-8	0.003281
3.030000E-8	0.003094
3.035000E-8	0.002844
3.040000E-8	0.002538
3.045000E-8	0.002225
3.050000E-8	0.001956
3.055000E-8	0.001634
3.060000E-8	0.001203
3.065000E-8	0.000863
3.070000E-8	0.000525
3.075000E-8	0.000412
3.080000E-8	0.000322
3.085000E-8	0.000291
3.090000E-8	0.000247
3.095000E-8	0.000416
3.100000E-8	0.000550
3.105000E-8	0.000922
3.110000E-8	0.001247
3.115000E-8	0.001691
3.120000E-8	0.001922
3.125000E-8	0.002325
3.130000E-8	0.002559
3.135000E-8	0.002825
3.140000E-8	0.002922
3.145000E-8	0.003016
3.150000E-8	0.003038
3.155000E-8	0.003022
3.160000E-8	0.002819
3.165000E-8	0.002619
3.170000E-8	0.002378
3.175000E-8	0.002237
3.180000E-8	0.001863
3.185000E-8	0.001556
3.190000E-8	0.001209
3.195000E-8	0.000869
3.200000E-8	0.000734
3.205000E-8	0.000506
3.210000E-8	0.000306
3.215000E-8	0.000266
3.220000E-8	0.000381
3.225000E-8	0.000600
3.230000E-8	0.000813
3.235000E-8	0.001091
3.240000E-8	0.001291
3.245000E-8	0.001581
3.250000E-8	0.001838
3.255000E-8	0.002247
3.260000E-8	0.002528
3.265000E-8	0.002725
3.270000E-8	0.002853
3.275000E-8	0.002875
3.280000E-8	0.002638
3.285000E-8	0.002609
3.290000E-8	0.002288
3.295000E-8	0.001956
3.300000E-8	0.001681
3.305000E-8	0.001331
3.310000E-8	0.000934
3.315000E-8	0.000656
3.320000E-8	0.000447
3.325000E-8	0.000169
3.330000E-8	0.000141
3.335000E-8	0.000178
3.340000E-8	0.000275
3.345000E-8	0.000441
3.350000E-8	0.000600
3.355000E-8	0.000822
3.360000E-8	0.001103
3.365000E-8	0.001441
3.370000E-8	0.001788
3.375000E-8	0.002122
3.380000E-8	0.002284
3.385000E-8	0.002584
3.390000E-8	0.002641
3.395000E-8	0.002778
3.400000E-8	0.002806
3.405000E-8	0.002681
3.410000E-8	0.002575
3.415000E-8	0.002447
3.420000E-8	0.002162
3.425000E-8	0.001966
3.430000E-8	0.001603
3.435000E-8	0.001244
3.440000E-8	0.000878
3.445000E-8	0.000684
3.450000E-8	0.000478
3.455000E-8	0.000322
3.460000E-8	0.000303
3.465000E-8	0.000300
3.470000E-8	0.000309
3.475000E-8	0.000481
3.480000E-8	0.000813
3.485000E-8	0.000947
3.490000E-8	0.001303
3.495000E-8	0.001525
3.500000E-8	0.001909
3.505000E-8	0.002300
3.510000E-8	0.002572
3.515000E-8	0.002916
3.520000E-8	0.002856
3.525000E-8	0.002888
3.530000E-8	0.002763
3.535000E-8	0.002719
3.540000E-8	0.002544
3.545000E-8	0.002313
3.550000E-8	0.002044
3.555000E-8	0.001888
3.560000E-8	0.001494
3.565000E-8	0.001197
3.570000E-8	0.001038
3.575000E-8	0.000934
3.580000E-8	0.000750
3.585000E-8	0.000750
3.590000E-8	0.000634
3.595000E-8	0.000675
3.600000E-8	0.000709
3.605000E-8	0.000884
3.610000E-8	0.001059
3.615000E-8	0.001369
3.620000E-8	0.001559
3.625000E-8	0.001834
3.630000E-8	0.002178
3.635000E-8	0.002431
3.640000E-8	0.002619
3.645000E-8	0.002806
3.650000E-8	0.002900
3.655000E-8	0.002966
3.660000E-8	0.002791
3.665000E-8	0.002688
3.670000E-8	0.002434
3.675000E-8	0.002059
3.680000E-8	0.001797
3.685000E-8	0.001553
3.690000E-8	0.001175
3.695000E-8	0.000969
3.700000E-8	0.000709
3.705000E-8	0.000553
3.710000E-8	0.000472
3.715000E-8	0.000500
3.720000E-8	0.000434
3.725000E-8	0.000634
3.730000E-8	0.000769
3.735000E-8	0.001103
3.740000E-8	0.001325
3.745000E-8	0.001666
3.750000E-8	0.001975
3.755000E-8	0.002309
3.760000E-8	0.002488
3.765000E-8	0.002672
3.770000E-8	0.002800
3.775000E-8	0.002959
3.780000E-8	0.002919
3.785000E-8	0.002784
3.790000E-8	0.002672
3.795000E-8	0.002500
3.800000E-8	0.002259
3.805000E-8	0.001978
3.810000E-8	0.001669
3.815000E-8	0.001494
3.820000E-8	0.001234
3.825000E-8	0.001094
3.830000E-8	0.000913
3.835000E-8	0.000894
3.840000E-8	0.000856
3.845000E-8	0.001000
3.850000E-8	0.000950
3.855000E-8	0.001022
3.860000E-8	0.001247
3.865000E-8	0.001528
3.870000E-8	0.001631
3.875000E-8	0.001972
3.880000E-8	0.002181
3.885000E-8	0.002391
3.890000E-8	0.002497
3.895000E-8	0.002688
3.900000E-8	0.002650
3.905000E-8	0.002856
3.910000E-8	0.002722
3.915000E-8	0.002606
3.920000E-8	0.002459
3.925000E-8	0.002266
3.930000E-8	0.002116
3.935000E-8	0.001859
3.940000E-8	0.001606
3.945000E-8	0.001250
3.950000E-8	0.001106
3.955000E-8	0.000903
3.960000E-8	0.000728
3.965000E-8	0.000603
3.970000E-8	0.000566
3.975000E-8	0.000691
3.980000E-8	0.000816
3.985000E-8	0.000969
3.990000E-8	0.001306
3.995000E-8	0.001569
4.000000E-8	0.001791
4.005000E-8	0.002081
4.010000E-8	0.002341
4.015000E-8	0.002575
4.020000E-8	0.002622
4.025000E-8	0.002634
4.030000E-8	0.002628
4.035000E-8	0.002719
4.040000E-8	0.002678
4.045000E-8	0.002484
4.050000E-8	0.002350
4.055000E-8	0.002241
4.060000E-8	0.001953
4.065000E-8	0.001550
4.070000E-8	0.001309
4.075000E-8	0.001006
4.080000E-8	0.000781
4.085000E-8	0.000625
4.090000E-8	0.000609
4.095000E-8	0.000634
4.100000E-8	0.000731
4.105000E-8	0.000938
4.110000E-8	0.001112
4.115000E-8	0.001394
4.120000E-8	0.001550
4.125000E-8	0.001769
4.130000E-8	0.002003
4.135000E-8	0.002128
4.140000E-8	0.002397
4.145000E-8	0.002512
4.150000E-8	0.002609
4.155000E-8	0.002634
4.160000E-8	0.002603
4.165000E-8	0.002563
4.170000E-8	0.002425
4.175000E-8	0.002203
4.180000E-8	0.001841
4.185000E-8	0.001634
4.190000E-8	0.001406
4.195000E-8	0.001194
4.200000E-8	0.000997
4.205000E-8	0.000931
4.210000E-8	0.000844
4.215000E-8	0.000728
4.220000E-8	0.000691
4.225000E-8	0.000766
4.230000E-8	0.000778
4.235000E-8	0.000941
4.240000E-8	0.001122
4.245000E-8	0.001391
4.250000E-8	0.001588
4.255000E-8	0.001819
4.260000E-8	0.002069
4.265000E-8	0.002206
4.270000E-8	0.002331
4.275000E-8	0.002506
4.280000E-8	0.002641
4.285000E-8	0.002625
4.290000E-8	0.002534
4.295000E-8	0.002534
4.300000E-8	0.002344
4.305000E-8	0.002219
4.310000E-8	0.001778
4.315000E-8	0.001722
4.320000E-8	0.001397
4.325000E-8	0.001259
4.330000E-8	0.000997
4.335000E-8	0.000800
4.340000E-8	0.000731
4.345000E-8	0.000806
4.350000E-8	0.000872
4.355000E-8	0.000847
4.360000E-8	0.001050
4.365000E-8	0.001225
4.370000E-8	0.001447
4.375000E-8	0.001691
4.380000E-8	0.001891
4.385000E-8	0.002069
4.390000E-8	0.002188
4.395000E-8	0.002500
4.400000E-8	0.002659
4.405000E-8	0.002644
4.410000E-8	0.002584
4.415000E-8	0.002581
4.420000E-8	0.002494
4.425000E-8	0.002378
4.430000E-8	0.002063
4.435000E-8	0.001931
4.440000E-8	0.001663
4.445000E-8	0.001334
4.450000E-8	0.001063
4.455000E-8	0.000878
4.460000E-8	0.000631
4.465000E-8	0.000428
4.470000E-8	0.000300
4.475000E-8	0.000416
4.480000E-8	0.000638
4.485000E-8	0.000778
4.490000E-8	0.000934
4.495000E-8	0.001247
4.500000E-8	0.001434
4.505000E-8	0.001759
4.510000E-8	0.001988
4.515000E-8	0.002225
4.520000E-8	0.002413
4.525000E-8	0.002497
4.530000E-8	0.002500
4.535000E-8	0.002563
4.540000E-8	0.002434
4.545000E-8	0.002356
4.550000E-8	0.002188
4.555000E-8	0.001972
4.560000E-8	0.001622
4.565000E-8	0.001334
4.570000E-8	0.001059
4.575000E-8	0.000934
4.580000E-8	0.000631
4.585000E-8	0.000606
4.590000E-8	0.000525
4.595000E-8	0.000566
4.600000E-8	0.000534
4.605000E-8	0.000719
4.610000E-8	0.000847
4.615000E-8	0.001050
4.620000E-8	0.001294
4.625000E-8	0.001588
4.630000E-8	0.001756
4.635000E-8	0.002063
4.640000E-8	0.002094
4.645000E-8	0.002231
4.650000E-8	0.002338
4.655000E-8	0.002347
4.660000E-8	0.002375
4.665000E-8	0.002303
4.670000E-8	0.002234
4.675000E-8	0.002209
4.680000E-8	0.002153
4.685000E-8	0.002072
4.690000E-8	0.001934
4.695000E-8	0.001806
4.700000E-8	0.001631
4.705000E-8	0.001547
4.710000E-8	0.001388
4.715000E-8	0.001372
4.720000E-8	0.001372
4.725000E-8	0.001406
4.730000E-8	0.001456
4.735000E-8	0.001500
4.740000E-8	0.001687
4.745000E-8	0.001784
4.750000E-8	0.001916
4.755000E-8	0.002125
4.760000E-8	0.002206
4.765000E-8	0.002325
4.770000E-8	0.002353
4.775000E-8	0.002456
4.780000E-8	0.002484
4.785000E-8	0.002459
4.790000E-8	0.002484
4.795000E-8	0.002456
4.800000E-8	0.002344
4.805000E-8	0.002275
4.810000E-8	0.002000
4.815000E-8	0.001725
4.820000E-8	0.001578
4.825000E-8	0.001375
4.830000E-8	0.001131
4.835000E-8	0.001044
4.840000E-8	0.000925
4.845000E-8	0.000806
4.850000E-8	0.000947
4.855000E-8	0.001059
4.860000E-8	0.001228
4.865000E-8	0.001403
4.870000E-8	0.001359
4.875000E-8	0.001687
4.880000E-8	0.001900
4.885000E-8	0.002063
4.890000E-8	0.002259
4.895000E-8	0.002366
4.900000E-8	0.002409
4.905000E-8	0.002525
4.910000E-8	0.002544
4.915000E-8	0.002644
4.920000E-8	0.002594
4.925000E-8	0.002481
4.930000E-8	0.002391
4.935000E-8	0.002384
4.940000E-8	0.002188
4.945000E-8	0.001984
4.950000E-8	0.001794
4.955000E-8	0.001594
4.960000E-8	0.001325
4.965000E-8	0.001219
4.970000E-8	0.001106
4.975000E-8	0.001088
4.980000E-8	0.001028
4.985000E-8	0.001006
4.990000E-8	0.001128
4.995000E-8	0.001250
5.000000E-8	0.001444
5.005000E-8	0.001694
5.010000E-8	0.001788
5.015000E-8	0.002056
5.020000E-8	0.002022
5.025000E-8	0.002194
5.030000E-8	0.002309
5.035000E-8	0.002250
5.040000E-8	0.002241
5.045000E-8	0.002250
5.050000E-8	0.002203
5.055000E-8	0.002184
5.060000E-8	0.002097
5.065000E-8	0.001819
5.070000E-8	0.001731
5.075000E-8	0.001619
5.080000E-8	0.001391
5.085000E-8	0.001278
5.090000E-8	0.001112
5.095000E-8	0.000956
5.100000E-8	0.000916
5.105000E-8	0.001019
5.110000E-8	0.001088
5.115000E-8	0.001175
5.120000E-8	0.001288
5.125000E-8	0.001397
5.130000E-8	0.001647
5.135000E-8	0.001922
5.140000E-8	0.002009
5.145000E-8	0.002200
5.150000E-8	0.002400
5.155000E-8	0.002500
5.160000E-8	0.002544
5.165000E-8	0.002544
5.170000E-8	0.002394
5.175000E-8	0.002341
5.180000E-8	0.002200
5.185000E-8	0.002016
5.190000E-8	0.001788
5.195000E-8	0.001644
5.200000E-8	0.001444
5.205000E-8	0.001303
5.210000E-8	0.001031
5.215000E-8	0.000988
5.220000E-8	0.000878
5.225000E-8	0.000909
5.230000E-8	0.001000
5.235000E-8	0.001038
5.240000E-8	0.001128
5.245000E-8	0.001275
5.250000E-8	0.001400
5.255000E-8	0.001503
5.260000E-8	0.001644
5.265000E-8	0.001906
5.270000E-8	0.002063
5.275000E-8	0.002178
5.280000E-8	0.002203
5.285000E-8	0.002219
5.290000E-8	0.002184
5.295000E-8	0.002131
5.300000E-8	0.002131
5.305000E-8	0.002119
5.310000E-8	0.001928
5.315000E-8	0.001853
5.320000E-8	0.001725
5.325000E-8	0.001581
5.330000E-8	0.001469
5.335000E-8	0.001306
5.340000E-8	0.001200
5.345000E-8	0.001125
5.350000E-8	0.001078
5.355000E-8	0.001112
5.360000E-8	0.001194
5.365000E-8	0.001241
5.370000E-8	0.001253
5.375000E-8	0.001359
5.380000E-8	0.001538
5.385000E-8	0.001728
5.390000E-8	0.001781
5.395000E-8	0.001997
5.400000E-8	0.002166
5.405000E-8	0.002347
5.410000E-8	0.002409
5.415000E-8	0.002494
5.420000E-8	0.002472
5.425000E-8	0.002422
5.430000E-8	0.002363
5.435000E-8	0.002275
5.440000E-8	0.002022
5.445000E-8	0.001828
5.450000E-8	0.001766
5.455000E-8	0.001700
5.460000E-8	0.001463
5.465000E-8	0.001234
5.470000E-8	0.001000
5.475000E-8	0.000919
5.480000E-8	0.000994
5.485000E-8	0.000975
5.490000E-8	0.001066
5.495000E-8	0.001328
5.500000E-8	0.001366
5.505000E-8	0.001516
5.510000E-8	0.001681
5.515000E-8	0.001863
5.520000E-8	0.001878
5.525000E-8	0.002125
5.530000E-8	0.002172
5.535000E-8	0.002237
5.540000E-8	0.002303
5.545000E-8	0.002313
5.550000E-8	0.002256
5.555000E-8	0.002241
5.560000E-8	0.002122
5.565000E-8	0.001991
5.570000E-8	0.001838
5.575000E-8	0.001678
5.580000E-8	0.001513
5.585000E-8	0.001313
5.590000E-8	0.001175
5.595000E-8	0.001112
5.600000E-8	0.001003
5.605000E-8	0.001022
5.610000E-8	0.001016
5.615000E-8	0.001200
5.620000E-8	0.001394
5.625000E-8	0.001362
5.630000E-8	0.001488
5.635000E-8	0.001659
5.640000E-8	0.001753
5.645000E-8	0.001888
5.650000E-8	0.001988
5.655000E-8	0.002106
5.660000E-8	0.002194
5.665000E-8	0.002209
5.670000E-8	0.002106
5.675000E-8	0.002119
5.680000E-8	0.002056
5.685000E-8	0.001894
5.690000E-8	0.001775
5.695000E-8	0.001756
5.700000E-8	0.001559
5.705000E-8	0.001447
5.710000E-8	0.001450
5.715000E-8	0.001341
5.720000E-8	0.001250
5.725000E-8	0.001247
5.730000E-8	0.001353
5.735000E-8	0.001488
5.740000E-8	0.001528
5.745000E-8	0.001672
5.750000E-8	0.001703
5.755000E-8	0.001869
5.760000E-8	0.001841
5.765000E-8	0.002072
5.770000E-8	0.002147
5.775000E-8	0.002272
5.780000E-8	0.002328
5.785000E-8	0.002491
5.790000E-8	0.002422
5.795000E-8	0.002425
5.800000E-8	0.002356
5.805000E-8	0.002384
5.810000E-8	0.002284
5.815000E-8	0.002159
5.820000E-8	0.002034
5.825000E-8	0.001781
5.830000E-8	0.001538
5.835000E-8	0.001509
5.840000E-8	0.001369
5.845000E-8	0.001278
5.850000E-8	0.001328
5.855000E-8	0.001338
5.860000E-8	0.001481
5.865000E-8	0.001491
5.870000E-8	0.001553
5.875000E-8	0.001713
5.880000E-8	0.001866
5.885000E-8	0.001953
5.890000E-8	0.002006
5.895000E-8	0.002138
5.900000E-8	0.002178
5.905000E-8	0.002169
5.910000E-8	0.002181
5.915000E-8	0.002181
5.920000E-8	0.002084
5.925000E-8	0.001994
5.930000E-8	0.001819
5.935000E-8	0.001719
5.940000E-8	0.001591
5.945000E-8	0.001522
5.950000E-8	0.001375
5.955000E-8	0.001419
5.960000E-8	0.001388
5.965000E-8	0.001331
5.970000E-8	0.001253
5.975000E-8	0.001266
5.980000E-8	0.001291
5.985000E-8	0.001375
5.990000E-8	0.001403
5.995000E-8	0.001506
6.000000E-8	0.001509
6.005000E-8	0.001516
6.010000E-8	0.001656
6.015000E-8	0.001819
6.020000E-8	0.001856
6.025000E-8	0.001941
6.030000E-8	0.002128
6.035000E-8	0.002350
6.040000E-8	0.002425
6.045000E-8	0.002403
6.050000E-8	0.002363
6.055000E-8	0.002406
6.060000E-8	0.002328
6.065000E-8	0.002188
6.070000E-8	0.002091
6.075000E-8	0.002091
6.080000E-8	0.001919
6.085000E-8	0.001759
6.090000E-8	0.001678
6.095000E-8	0.001556
6.100000E-8	0.001322
6.105000E-8	0.001191
6.110000E-8	0.001156
6.115000E-8	0.001112
6.120000E-8	0.001066
6.125000E-8	0.001231
6.130000E-8	0.001238
6.135000E-8	0.001416
6.140000E-8	0.001663
6.145000E-8	0.001766
6.150000E-8	0.001903
6.155000E-8	0.002063
6.160000E-8	0.002116
6.165000E-8	0.002206
6.170000E-8	0.002106
6.175000E-8	0.002081
6.180000E-8	0.001900
6.185000E-8	0.001800
6.190000E-8	0.001612
6.195000E-8	0.001453
6.200000E-8	0.001344
6.205000E-8	0.001241
6.210000E-8	0.001150
6.215000E-8	0.001178
6.220000E-8	0.001119
6.225000E-8	0.001159
6.230000E-8	0.001100
6.235000E-8	0.001178
6.240000E-8	0.001116
6.245000E-8	0.001153
6.250000E-8	0.001225
6.255000E-8	0.001362
6.260000E-8	0.001338
6.265000E-8	0.001650
6.270000E-8	0.001756
6.275000E-8	0.001863
6.280000E-8	0.001913
6.285000E-8	0.002059
6.290000E-8	0.002063
6.295000E-8	0.002250
6.300000E-8	0.002150
6.305000E-8	0.002128
6.310000E-8	0.002006
6.315000E-8	0.002034
6.320000E-8	0.001872
6.325000E-8	0.001847
6.330000E-8	0.001675
6.335000E-8	0.001456
6.340000E-8	0.001397
6.345000E-8	0.001319
6.350000E-8	0.001234
6.355000E-8	0.001197
6.360000E-8	0.001138
6.365000E-8	0.001209
6.370000E-8	0.001256
6.375000E-8	0.001331
6.380000E-8	0.001416
6.385000E-8	0.001681
6.390000E-8	0.001694
6.395000E-8	0.001925
6.400000E-8	0.002194
6.405000E-8	0.002328
6.410000E-8	0.002384
6.415000E-8	0.002559
6.420000E-8	0.002500
6.425000E-8	0.002300
6.430000E-8	0.002259
6.435000E-8	0.002153
6.440000E-8	0.001909
6.445000E-8	0.001713
6.450000E-8	0.001459
6.455000E-8	0.001469
6.460000E-8	0.001344
6.465000E-8	0.001231
6.470000E-8	0.001075
6.475000E-8	0.001153
6.480000E-8	0.001138
6.485000E-8	0.001272
6.490000E-8	0.001300
6.495000E-8	0.001381
6.500000E-8	0.001509
6.505000E-8	0.001519
6.510000E-8	0.001519
6.515000E-8	0.001522
6.520000E-8	0.001584
6.525000E-8	0.001741
6.530000E-8	0.001722
6.535000E-8	0.001834
6.540000E-8	0.001906
6.545000E-8	0.002006
6.550000E-8	0.002034
6.555000E-8	0.002087
6.560000E-8	0.002016
6.565000E-8	0.002000
6.570000E-8	0.001838
6.575000E-8	0.001869
6.580000E-8	0.001687
6.585000E-8	0.001625
6.590000E-8	0.001456
6.595000E-8	0.001397
6.600000E-8	0.001112
6.605000E-8	0.001056
6.610000E-8	0.001128
6.615000E-8	0.001150
6.620000E-8	0.001091
6.625000E-8	0.001288
6.630000E-8	0.001416
6.635000E-8	0.001584
6.640000E-8	0.001597
6.645000E-8	0.001828
6.650000E-8	0.001881
6.655000E-8	0.001981
6.660000E-8	0.002022
6.665000E-8	0.002222
6.670000E-8	0.002288
6.675000E-8	0.002191
6.680000E-8	0.002109
6.685000E-8	0.001994
6.690000E-8	0.001809
6.695000E-8	0.001706
6.700000E-8	0.001553
6.705000E-8	0.001419
6.710000E-8	0.001400
6.715000E-8	0.001359
6.720000E-8	0.001209
6.725000E-8	0.001166
6.730000E-8	0.001272
6.735000E-8	0.001303
6.740000E-8	0.001269
6.745000E-8	0.001266
6.750000E-8	0.001256
6.755000E-8	0.001397
6.760000E-8	0.001441
6.765000E-8	0.001525
6.770000E-8	0.001563
6.775000E-8	0.001634
6.780000E-8	0.001709
6.785000E-8	0.001791
6.790000E-8	0.001775
6.795000E-8	0.001803
6.800000E-8	0.001897
6.805000E-8	0.001869
6.810000E-8	0.002000
6.815000E-8	0.002053
6.820000E-8	0.001972
6.825000E-8	0.001884
6.830000E-8	0.001816
6.835000E-8	0.001703
6.840000E-8	0.001606
6.845000E-8	0.001575
6.850000E-8	0.001616
6.855000E-8	0.001709
6.860000E-8	0.001716
6.865000E-8	0.001700
6.870000E-8	0.001672
6.875000E-8	0.001819
6.880000E-8	0.001828
6.885000E-8	0.002028
6.890000E-8	0.001978
6.895000E-8	0.002087
6.900000E-8	0.002081
6.905000E-8	0.002222
6.910000E-8	0.002194
6.915000E-8	0.002237
6.920000E-8	0.002294
6.925000E-8	0.002359
6.930000E-8	0.002319
6.935000E-8	0.002281
6.940000E-8	0.002169
6.945000E-8	0.002100
6.950000E-8	0.001937
6.955000E-8	0.001744
6.960000E-8	0.001659
6.965000E-8	0.001550
6.970000E-8	0.001472
6.975000E-8	0.001484
6.980000E-8	0.001400
6.985000E-8	0.001541
6.990000E-8	0.001581
6.995000E-8	0.001631
7.000000E-8	0.001681
7.005000E-8	0.001778
7.010000E-8	0.001831
7.015000E-8	0.001881
7.020000E-8	0.001881
7.025000E-8	0.001953
7.030000E-8	0.002000
7.035000E-8	0.002006
7.040000E-8	0.001975
7.045000E-8	0.002038
7.050000E-8	0.002103
7.055000E-8	0.002147
7.060000E-8	0.002012
7.065000E-8	0.001891
7.070000E-8	0.001944
7.075000E-8	0.001900
7.080000E-8	0.001722
7.085000E-8	0.001556
7.090000E-8	0.001475
7.095000E-8	0.001303
7.100000E-8	0.001219
7.105000E-8	0.001172
7.110000E-8	0.001081
7.115000E-8	0.001156
7.120000E-8	0.001159
7.125000E-8	0.001231
7.130000E-8	0.001300
7.135000E-8	0.001556
7.140000E-8	0.001713
7.145000E-8	0.001834
7.150000E-8	0.001981
7.155000E-8	0.002144
7.160000E-8	0.002191
7.165000E-8	0.002128
7.170000E-8	0.002178
7.175000E-8	0.002241
7.180000E-8	0.002134
7.185000E-8	0.002087
7.190000E-8	0.002009
7.195000E-8	0.001916
7.200000E-8	0.001813
7.205000E-8	0.001681
7.210000E-8	0.001497
7.215000E-8	0.001528
7.220000E-8	0.001444
7.225000E-8	0.001466
7.230000E-8	0.001284
7.235000E-8	0.001397
7.240000E-8	0.001334
7.245000E-8	0.001419
7.250000E-8	0.001531
7.255000E-8	0.001687
7.260000E-8	0.001684
7.265000E-8	0.001878
7.270000E-8	0.001937
7.275000E-8	0.002025
7.280000E-8	0.001969
7.285000E-8	0.001994
7.290000E-8	0.001953
7.295000E-8	0.001884
7.300000E-8	0.001872
7.305000E-8	0.001900
7.310000E-8	0.001875
7.315000E-8	0.001881
7.320000E-8	0.001666
7.325000E-8	0.001647
7.330000E-8	0.001531
7.335000E-8	0.001413
7.340000E-8	0.001400
7.345000E-8	0.001281
7.350000E-8	0.001131
7.355000E-8	0.001028
7.360000E-8	0.000950
7.365000E-8	0.001053
7.370000E-8	0.001166
7.375000E-8	0.001159
7.380000E-8	0.001194
7.385000E-8	0.001300
7.390000E-8	0.001347
7.395000E-8	0.001519
7.400000E-8	0.001575
7.405000E-8	0.001722
7.410000E-8	0.001803
7.415000E-8	0.001928
7.420000E-8	0.001941
7.425000E-8	0.001963
7.430000E-8	0.001975
7.435000E-8	0.001925
7.440000E-8	0.001703
7.445000E-8	0.001631
7.450000E-8	0.001572
7.455000E-8	0.001447
7.460000E-8	0.001322
7.465000E-8	0.001228
7.470000E-8	0.001084
7.475000E-8	0.001122
7.480000E-8	0.001109
7.485000E-8	0.001159
7.490000E-8	0.001213
7.495000E-8	0.001313
7.500000E-8	0.001409
7.505000E-8	0.001513
7.510000E-8	0.001706
7.515000E-8	0.001791
7.520000E-8	0.001691
7.525000E-8	0.001766
7.530000E-8	0.001872
7.535000E-8	0.002003
7.540000E-8	0.002075
7.545000E-8	0.002100
7.550000E-8	0.002125
7.555000E-8	0.002069
7.560000E-8	0.001906
7.565000E-8	0.001784
7.570000E-8	0.001772
7.575000E-8	0.001719
7.580000E-8	0.001616
7.585000E-8	0.001553
7.590000E-8	0.001456
7.595000E-8	0.001403
7.600000E-8	0.001431
7.605000E-8	0.001394
7.610000E-8	0.001316
7.615000E-8	0.001413
7.620000E-8	0.001388
7.625000E-8	0.001372
7.630000E-8	0.001356
7.635000E-8	0.001463
7.640000E-8	0.001569
7.645000E-8	0.001541
7.650000E-8	0.001694
7.655000E-8	0.001803
7.660000E-8	0.001822
7.665000E-8	0.001844
7.670000E-8	0.001841
7.675000E-8	0.001928
7.680000E-8	0.001928
7.685000E-8	0.002031
7.690000E-8	0.001975
7.695000E-8	0.001944
7.700000E-8	0.001869
7.705000E-8	0.001806
7.710000E-8	0.001697
7.715000E-8	0.001622
7.720000E-8	0.001556
7.725000E-8	0.001584
7.730000E-8	0.001525
7.735000E-8	0.001563
7.740000E-8	0.001362
7.745000E-8	0.001341
7.750000E-8	0.001372
7.755000E-8	0.001400
7.760000E-8	0.001513
7.765000E-8	0.001653
7.770000E-8	0.001772
7.775000E-8	0.001828
7.780000E-8	0.001825
7.785000E-8	0.001894
7.790000E-8	0.001878
7.795000E-8	0.001944
7.800000E-8	0.001906
7.805000E-8	0.001934
7.810000E-8	0.001900
7.815000E-8	0.001934
7.820000E-8	0.001772
7.825000E-8	0.001641
7.830000E-8	0.001538
7.835000E-8	0.001516
7.840000E-8	0.001519
7.845000E-8	0.001566
7.850000E-8	0.001566
7.855000E-8	0.001566
7.860000E-8	0.001491
7.865000E-8	0.001481
7.870000E-8	0.001466
7.875000E-8	0.001437
7.880000E-8	0.001413
7.885000E-8	0.001472
7.890000E-8	0.001569
7.895000E-8	0.001709
7.900000E-8	0.001806
7.905000E-8	0.001872
7.910000E-8	0.001941
7.915000E-8	0.001950
7.920000E-8	0.001969
7.925000E-8	0.001991
7.930000E-8	0.001991
7.935000E-8	0.002016
7.940000E-8	0.001922
7.945000E-8	0.001888
7.950000E-8	0.001834
7.955000E-8	0.001794
7.960000E-8	0.001650
7.965000E-8	0.001672
7.970000E-8	0.001687
7.975000E-8	0.001581
7.980000E-8	0.001631
7.985000E-8	0.001572
7.990000E-8	0.001538
7.995000E-8	0.001475
8.000000E-8	0.001388
8.005000E-8	0.001488
8.010000E-8	0.001522
8.015000E-8	0.001528
8.020000E-8	0.001600
8.025000E-8	0.001781
8.030000E-8	0.001784
8.035000E-8	0.001825
8.040000E-8	0.001784
8.045000E-8	0.001794
8.050000E-8	0.001775
8.055000E-8	0.001756
8.060000E-8	0.001666
8.065000E-8	0.001600
8.070000E-8	0.001609
8.075000E-8	0.001584
8.080000E-8	0.001506
8.085000E-8	0.001616
8.090000E-8	0.001544
8.095000E-8	0.001606
8.100000E-8	0.001669
8.105000E-8	0.001631
8.110000E-8	0.001778
8.115000E-8	0.001841
8.120000E-8	0.001844
8.125000E-8	0.001816
8.130000E-8	0.001813
8.135000E-8	0.001738
8.140000E-8	0.001788
8.145000E-8	0.001850
8.150000E-8	0.001847
8.155000E-8	0.001803
8.160000E-8	0.001813
8.165000E-8	0.001738
8.170000E-8	0.001713
8.175000E-8	0.001769
8.180000E-8	0.001675
8.185000E-8	0.001816
8.190000E-8	0.001841
8.195000E-8	0.001825
8.200000E-8	0.001728
8.205000E-8	0.001797
8.210000E-8	0.001619
8.215000E-8	0.001541
8.220000E-8	0.001472
8.225000E-8	0.001447
8.230000E-8	0.001400
8.235000E-8	0.001366
8.240000E-8	0.001203
8.245000E-8	0.001391
8.250000E-8	0.001366
8.255000E-8	0.001409
8.260000E-8	0.001481
8.265000E-8	0.001653
8.270000E-8	0.001675
8.275000E-8	0.001813
8.280000E-8	0.001675
8.285000E-8	0.001766
8.290000E-8	0.001809
8.295000E-8	0.001947
8.300000E-8	0.001891
8.305000E-8	0.001841
8.310000E-8	0.001828
8.315000E-8	0.001822
8.320000E-8	0.001778
8.325000E-8	0.001728
8.330000E-8	0.001731
8.335000E-8	0.001731
8.340000E-8	0.001734
8.345000E-8	0.001687
8.350000E-8	0.001719
8.355000E-8	0.001694
8.360000E-8	0.001538
8.365000E-8	0.001600
8.370000E-8	0.001650
8.375000E-8	0.001619
8.380000E-8	0.001547
8.385000E-8	0.001581
8.390000E-8	0.001588
8.395000E-8	0.001584
8.400000E-8	0.001631
8.405000E-8	0.001734
8.410000E-8	0.001806
8.415000E-8	0.001853
8.420000E-8	0.001909
8.425000E-8	0.001941
8.430000E-8	0.001984
8.435000E-8	0.001959
8.440000E-8	0.002016
8.445000E-8	0.002000
8.450000E-8	0.001909
8.455000E-8	0.001963
8.460000E-8	0.001838
8.465000E-8	0.001838
8.470000E-8	0.001687
8.475000E-8	0.001622
8.480000E-8	0.001647
8.485000E-8	0.001641
8.490000E-8	0.001641
8.495000E-8	0.001672
8.500000E-8	0.001681
8.505000E-8	0.001731
8.510000E-8	0.001844
8.515000E-8	0.001847
8.520000E-8	0.001856
8.525000E-8	0.001847
8.530000E-8	0.001738
8.535000E-8	0.001794
8.540000E-8	0.001828
8.545000E-8	0.001709
8.550000E-8	0.001684
8.555000E-8	0.001763
8.560000E-8	0.001691
8.565000E-8	0.001650
8.570000E-8	0.001663
8.575000E-8	0.001784
8.580000E-8	0.001738
8.585000E-8	0.001831
8.590000E-8	0.001784
8.595000E-8	0.001756
8.600000E-8	0.001691
8.605000E-8	0.001728
8.610000E-8	0.001694
8.615000E-8	0.001719
8.620000E-8	0.001612
8.625000E-8	0.001534
8.630000E-8	0.001763
8.635000E-8	0.001716
8.640000E-8	0.001778
8.645000E-8	0.001866
8.650000E-8	0.001844
8.655000E-8	0.001956
8.660000E-8	0.001950
8.665000E-8	0.001931
8.670000E-8	0.001991
8.675000E-8	0.001875
8.680000E-8	0.001753
8.685000E-8	0.001778
8.690000E-8	0.001850
8.695000E-8	0.001941
8.700000E-8	0.001884
8.705000E-8	0.001763
8.710000E-8	0.001725
8.715000E-8	0.001653
8.720000E-8	0.001594
8.725000E-8	0.001463
8.730000E-8	0.001397
8.735000E-8	0.001313
8.740000E-8	0.001341
8.745000E-8	0.001388
8.750000E-8	0.001375
8.755000E-8	0.001472
8.760000E-8	0.001509
8.765000E-8	0.001650
8.770000E-8	0.001672
8.775000E-8	0.001825
8.780000E-8	0.001838
8.785000E-8	0.001950
8.790000E-8	0.001916
8.795000E-8	0.002081
8.800000E-8	0.002009
8.805000E-8	0.002147
8.810000E-8	0.002162
8.815000E-8	0.002097
8.820000E-8	0.001984
8.825000E-8	0.001950
8.830000E-8	0.001772
8.835000E-8	0.001822
8.840000E-8	0.001706
8.845000E-8	0.001650
8.850000E-8	0.001581
8.855000E-8	0.001591
8.860000E-8	0.001528
8.865000E-8	0.001638
8.870000E-8	0.001634
8.875000E-8	0.001547
8.880000E-8	0.001625
8.885000E-8	0.001663
8.890000E-8	0.001663
8.895000E-8	0.001766
8.900000E-8	0.001744
8.905000E-8	0.001816
8.910000E-8	0.001872
8.915000E-8	0.001913
8.920000E-8	0.001922
8.925000E-8	0.001959
8.930000E-8	0.001934
8.935000E-8	0.001931
8.940000E-8	0.001838
8.945000E-8	0.001863
8.950000E-8	0.001763
8.955000E-8	0.001703
8.960000E-8	0.001588
8.965000E-8	0.001572
8.970000E-8	0.001478
8.975000E-8	0.001488
8.980000E-8	0.001488
8.985000E-8	0.001488
8.990000E-8	0.001516
8.995000E-8	0.001631
9.000000E-8	0.001697
9.005000E-8	0.001806
9.010000E-8	0.001784
9.015000E-8	0.001791
9.020000E-8	0.001788
9.025000E-8	0.001778
9.030000E-8	0.001816
9.035000E-8	0.001825
9.040000E-8	0.001878
9.045000E-8	0.001928
9.050000E-8	0.001900
9.055000E-8	0.001800
9.060000E-8	0.001825
9.065000E-8	0.001856
9.070000E-8	0.001869
9.075000E-8	0.001816
9.080000E-8	0.001769
9.085000E-8	0.001725
9.090000E-8	0.001681
9.095000E-8	0.001794
9.100000E-8	0.001719
9.105000E-8	0.001756
9.110000E-8	0.001744
9.115000E-8	0.001756
9.120000E-8	0.001700
9.125000E-8	0.001788
9.130000E-8	0.001741
9.135000E-8	0.001834
9.140000E-8	0.001856
9.145000E-8	0.001859
9.150000E-8	0.001791
9.155000E-8	0.001913
9.160000E-8	0.001881
9.165000E-8	0.001825
9.170000E-8	0.001791
9.175000E-8	0.001963
9.180000E-8	0.001872
9.185000E-8	0.001913
9.190000E-8	0.001875
9.195000E-8	0.001941
9.200000E-8	0.001856
9.205000E-8	0.001847
9.210000E-8	0.001756
9.215000E-8	0.001703
9.220000E-8	0.001528
9.225000E-8	0.001503
9.230000E-8	0.001431
9.235000E-8	0.001409
9.240000E-8	0.001344
9.245000E-8	0.001419
9.250000E-8	0.001422
9.255000E-8	0.001488
9.260000E-8	0.001597
9.265000E-8	0.001675
9.270000E-8	0.001625
9.275000E-8	0.001725
9.280000E-8	0.001756
9.285000E-8	0.001644
9.290000E-8	0.001609
9.295000E-8	0.001578
9.300000E-8	0.001456
9.305000E-8	0.001397
9.310000E-8	0.001425
9.315000E-8	0.001506
9.320000E-8	0.001581
9.325000E-8	0.001559
9.330000E-8	0.001625
9.335000E-8	0.001653
9.340000E-8	0.001625
9.345000E-8	0.001669
9.350000E-8	0.001575
9.355000E-8	0.001563
9.360000E-8	0.001525
9.365000E-8	0.001350
9.370000E-8	0.001328
9.375000E-8	0.001388
9.380000E-8	0.001425
9.385000E-8	0.001431
9.390000E-8	0.001347
9.395000E-8	0.001519
9.400000E-8	0.001553
9.405000E-8	0.001734
9.410000E-8	0.001816
9.415000E-8	0.001853
9.420000E-8	0.001928
9.425000E-8	0.002003
9.430000E-8	0.002084
9.435000E-8	0.002116
9.440000E-8	0.002203
9.445000E-8	0.002091
9.450000E-8	0.002047
9.455000E-8	0.002156
9.460000E-8	0.001997
9.465000E-8	0.001963
9.470000E-8	0.001791
9.475000E-8	0.001719
9.480000E-8	0.001703
9.485000E-8	0.001619
9.490000E-8	0.001553
9.495000E-8	0.001431
9.500000E-8	0.001541
9.505000E-8	0.001569
9.510000E-8	0.001612
9.515000E-8	0.001538
9.520000E-8	0.001569
9.525000E-8	0.001569
9.530000E-8	0.001663
9.535000E-8	0.001684
9.540000E-8	0.001759
9.545000E-8	0.001869
9.550000E-8	0.001797
9.555000E-8	0.001928
9.560000E-8	0.001931
9.565000E-8	0.001800
9.570000E-8	0.001753
9.575000E-8	0.001791
9.580000E-8	0.001666
9.585000E-8	0.001612
9.590000E-8	0.001584
9.595000E-8	0.001581
9.600000E-8	0.001503
9.605000E-8	0.001569
9.610000E-8	0.001634
9.615000E-8	0.001703
9.620000E-8	0.001794
9.625000E-8	0.001813
9.630000E-8	0.001822
9.635000E-8	0.001825
9.640000E-8	0.001753
9.645000E-8	0.001791
9.650000E-8	0.001759
9.655000E-8	0.001603
9.660000E-8	0.001525
9.665000E-8	0.001616
9.670000E-8	0.001706
9.675000E-8	0.001594
9.680000E-8	0.001600
9.685000E-8	0.001638
9.690000E-8	0.001775
9.695000E-8	0.001847
9.700000E-8	0.001941
9.705000E-8	0.001978
9.710000E-8	0.001994
9.715000E-8	0.001978
9.720000E-8	0.001866
9.725000E-8	0.001778
9.730000E-8	0.001700
9.735000E-8	0.001641
9.740000E-8	0.001612
9.745000E-8	0.001447
9.750000E-8	0.001434
9.755000E-8	0.001394
9.760000E-8	0.001441
9.765000E-8	0.001497
9.770000E-8	0.001463
9.775000E-8	0.001638
9.780000E-8	0.001666
9.785000E-8	0.001759
9.790000E-8	0.001809
9.795000E-8	0.001875
9.800000E-8	0.001825
9.805000E-8	0.001859
9.810000E-8	0.001963
9.815000E-8	0.001903
9.820000E-8	0.001634
9.825000E-8	0.001738
9.830000E-8	0.001684
9.835000E-8	0.001703
9.840000E-8	0.001622
9.845000E-8	0.001641
9.850000E-8	0.001669
9.855000E-8	0.001766
9.860000E-8	0.001709
9.865000E-8	0.001850
9.870000E-8	0.001844
9.875000E-8	0.001847
9.880000E-8	0.001819
9.885000E-8	0.001869
9.890000E-8	0.001778
9.895000E-8	0.001794
9.900000E-8	0.001731
9.905000E-8	0.001728
9.910000E-8	0.001722
9.915000E-8	0.001703
9.920000E-8	0.001631
9.925000E-8	0.001659
9.930000E-8	0.001663
9.935000E-8	0.001694
9.940000E-8	0.001653
9.945000E-8	0.001666
9.950000E-8	0.001638
9.955000E-8	0.001644
9.960000E-8	0.001566
9.965000E-8	0.001566
9.970000E-8	0.001553
9.975000E-8	0.001572
9.980000E-8	0.001531
9.985000E-8	0.001594
9.990000E-8	0.001588
9.995000E-8	0.001741
