LabVIEW Measurement	
Writer_Version	2
Reader_Version	2
Separator	Tab
Decimal_Separator	.
Multi_Headings	No
X_Columns	Multi
Time_Pref	Relative
Operator	TG lab
Date	2015/03/06
Time	19:21:31.5585417747497558594
***End_of_Header***	
	
Channels	1	
Samples	2000	
Date	1903/12/31	
Time	19:00:00	
X_Dimension	Time	
X0	0.0000000000000000E+0	
Delta_X	5.000000E-11	
***End_of_Header***		
X_Value	Untitled	Comment
0.000000	0.001872
5.000000E-11	0.001844
1.000000E-10	0.001869
1.500000E-10	0.002050
2.000000E-10	0.002025
2.500000E-10	0.001978
3.000000E-10	0.001947
3.500000E-10	0.002078
4.000000E-10	0.002072
4.500000E-10	0.002100
5.000000E-10	0.002116
5.500000E-10	0.002094
6.000000E-10	0.001922
6.500000E-10	0.002084
7.000000E-10	0.002084
7.500000E-10	0.002156
8.000000E-10	0.002006
8.500000E-10	0.002000
9.000000E-10	0.001975
9.500000E-10	0.001994
1.000000E-9	0.001941
1.050000E-9	0.001956
1.100000E-9	0.001913
1.150000E-9	0.001900
1.200000E-9	0.001900
1.250000E-9	0.001956
1.300000E-9	0.001991
1.350000E-9	0.002022
1.400000E-9	0.002019
1.450000E-9	0.002066
1.500000E-9	0.002031
1.550000E-9	0.001934
1.600000E-9	0.001963
1.650000E-9	0.002000
1.700000E-9	0.001813
1.750000E-9	0.001841
1.800000E-9	0.001869
1.850000E-9	0.001872
1.900000E-9	0.001906
1.950000E-9	0.002094
2.000000E-9	0.002009
2.050000E-9	0.002119
2.100000E-9	0.002159
2.150000E-9	0.002197
2.200000E-9	0.002103
2.250000E-9	0.002162
2.300000E-9	0.002019
2.350000E-9	0.001978
2.400000E-9	0.001925
2.450000E-9	0.001863
2.500000E-9	0.001806
2.550000E-9	0.001875
2.600000E-9	0.001834
2.650000E-9	0.001847
2.700000E-9	0.001822
2.750000E-9	0.001881
2.800000E-9	0.001844
2.850000E-9	0.002022
2.900000E-9	0.001947
2.950000E-9	0.001856
3.000000E-9	0.001928
3.050000E-9	0.001834
3.100000E-9	0.001678
3.150000E-9	0.001584
3.200000E-9	0.001481
3.250000E-9	0.001478
3.300000E-9	0.001381
3.350000E-9	0.001350
3.400000E-9	0.001281
3.450000E-9	0.001231
3.500000E-9	0.001181
3.550000E-9	0.001266
3.600000E-9	0.001231
3.650000E-9	0.001222
3.700000E-9	0.001231
3.750000E-9	0.001359
3.800000E-9	0.001362
3.850000E-9	0.001341
3.900000E-9	0.001253
3.950000E-9	0.001456
4.000000E-9	0.001369
4.050000E-9	0.001322
4.100000E-9	0.001156
4.150000E-9	0.001219
4.200000E-9	0.001178
4.250000E-9	0.001175
4.300000E-9	0.001150
4.350000E-9	0.001159
4.400000E-9	0.001106
4.450000E-9	0.001134
4.500000E-9	0.001119
4.550000E-9	0.000925
4.600000E-9	0.000784
4.650000E-9	0.000753
4.700000E-9	0.000544
4.750000E-9	6.250000E-5
4.800000E-9	-0.000609
4.850000E-9	-0.001359
4.900000E-9	-0.002425
4.950000E-9	-0.003744
5.000000E-9	-0.005319
5.050000E-9	-0.006978
5.100000E-9	-0.009128
5.150000E-9	-0.011463
5.200000E-9	-0.013881
5.250000E-9	-0.016241
5.300000E-9	-0.018669
5.350000E-9	-0.020788
5.400000E-9	-0.022691
5.450000E-9	-0.024178
5.500000E-9	-0.025541
5.550000E-9	-0.026478
5.600000E-9	-0.027003
5.650000E-9	-0.027094
5.700000E-9	-0.027000
5.750000E-9	-0.026363
5.800000E-9	-0.025525
5.850000E-9	-0.024419
5.900000E-9	-0.023184
5.950000E-9	-0.021706
6.000000E-9	-0.020200
6.050000E-9	-0.018600
6.100000E-9	-0.017231
6.150000E-9	-0.015878
6.200000E-9	-0.014863
6.250000E-9	-0.014050
6.300000E-9	-0.013572
6.350000E-9	-0.013437
6.400000E-9	-0.013619
6.450000E-9	-0.014016
6.500000E-9	-0.014528
6.550000E-9	-0.015194
6.600000E-9	-0.015881
6.650000E-9	-0.016509
6.700000E-9	-0.017100
6.750000E-9	-0.017581
6.800000E-9	-0.017909
6.850000E-9	-0.018081
6.900000E-9	-0.018234
6.950000E-9	-0.017928
7.000000E-9	-0.017481
7.050000E-9	-0.016813
7.100000E-9	-0.015869
7.150000E-9	-0.014734
7.200000E-9	-0.013603
7.250000E-9	-0.012344
7.300000E-9	-0.011144
7.350000E-9	-0.009856
7.400000E-9	-0.008741
7.450000E-9	-0.007784
7.500000E-9	-0.007138
7.550000E-9	-0.006606
7.600000E-9	-0.006444
7.650000E-9	-0.006484
7.700000E-9	-0.006775
7.750000E-9	-0.007284
7.800000E-9	-0.007978
7.850000E-9	-0.008725
7.900000E-9	-0.009544
7.950000E-9	-0.010338
8.000000E-9	-0.010988
8.050000E-9	-0.011566
8.100000E-9	-0.012031
8.150000E-9	-0.012150
8.200000E-9	-0.012153
8.250000E-9	-0.011747
8.300000E-9	-0.011347
8.350000E-9	-0.010497
8.400000E-9	-0.009588
8.450000E-9	-0.008537
8.500000E-9	-0.007338
8.550000E-9	-0.006213
8.600000E-9	-0.005219
8.650000E-9	-0.004106
8.700000E-9	-0.003250
8.750000E-9	-0.002500
8.800000E-9	-0.002019
8.850000E-9	-0.001863
8.900000E-9	-0.001897
8.950000E-9	-0.002172
9.000000E-9	-0.002881
9.050000E-9	-0.003587
9.100000E-9	-0.004403
9.150000E-9	-0.005309
9.200000E-9	-0.006263
9.250000E-9	-0.007188
9.300000E-9	-0.007816
9.350000E-9	-0.008284
9.400000E-9	-0.008631
9.450000E-9	-0.008788
9.500000E-9	-0.008566
9.550000E-9	-0.008122
9.600000E-9	-0.007584
9.650000E-9	-0.006756
9.700000E-9	-0.005747
9.750000E-9	-0.004716
9.800000E-9	-0.003644
9.850000E-9	-0.002569
9.900000E-9	-0.001503
9.950000E-9	-0.000725
1.000000E-8	-5.312500E-5
1.005000E-8	0.000441
1.010000E-8	0.000428
1.015000E-8	0.000409
1.020000E-8	3.125000E-5
1.025000E-8	-0.000412
1.030000E-8	-0.001138
1.035000E-8	-0.001981
1.040000E-8	-0.002903
1.045000E-8	-0.003650
1.050000E-8	-0.004581
1.055000E-8	-0.005213
1.060000E-8	-0.005819
1.065000E-8	-0.006091
1.070000E-8	-0.006281
1.075000E-8	-0.006112
1.080000E-8	-0.005806
1.085000E-8	-0.005225
1.090000E-8	-0.004591
1.095000E-8	-0.003631
1.100000E-8	-0.002572
1.105000E-8	-0.001563
1.110000E-8	-0.000503
1.115000E-8	0.000509
1.120000E-8	0.001222
1.125000E-8	0.001953
1.130000E-8	0.002322
1.135000E-8	0.002500
1.140000E-8	0.002350
1.145000E-8	0.002000
1.150000E-8	0.001428
1.155000E-8	0.000628
1.160000E-8	-0.000234
1.165000E-8	-0.001156
1.170000E-8	-0.002150
1.175000E-8	-0.002994
1.180000E-8	-0.003775
1.185000E-8	-0.004400
1.190000E-8	-0.004853
1.195000E-8	-0.004834
1.200000E-8	-0.004841
1.205000E-8	-0.004434
1.210000E-8	-0.004003
1.215000E-8	-0.003181
1.220000E-8	-0.002416
1.225000E-8	-0.001578
1.230000E-8	-0.000709
1.235000E-8	0.000206
1.240000E-8	0.001119
1.245000E-8	0.001797
1.250000E-8	0.002381
1.255000E-8	0.002856
1.260000E-8	0.003009
1.265000E-8	0.002969
1.270000E-8	0.002553
1.275000E-8	0.002081
1.280000E-8	0.001456
1.285000E-8	0.000725
1.290000E-8	-0.000156
1.295000E-8	-0.001028
1.300000E-8	-0.001878
1.305000E-8	-0.002634
1.310000E-8	-0.003138
1.315000E-8	-0.003509
1.320000E-8	-0.003803
1.325000E-8	-0.003722
1.330000E-8	-0.003659
1.335000E-8	-0.003119
1.340000E-8	-0.002675
1.345000E-8	-0.001831
1.350000E-8	-0.000959
1.355000E-8	-1.875000E-5
1.360000E-8	0.000966
1.365000E-8	0.001881
1.370000E-8	0.002578
1.375000E-8	0.003316
1.380000E-8	0.003766
1.385000E-8	0.004028
1.390000E-8	0.004031
1.395000E-8	0.003838
1.400000E-8	0.003369
1.405000E-8	0.002688
1.410000E-8	0.001941
1.415000E-8	0.001022
1.420000E-8	2.812500E-5
1.425000E-8	-0.000853
1.430000E-8	-0.001891
1.435000E-8	-0.002538
1.440000E-8	-0.003075
1.445000E-8	-0.003259
1.450000E-8	-0.003356
1.455000E-8	-0.003075
1.460000E-8	-0.002778
1.465000E-8	-0.001981
1.470000E-8	-0.001294
1.475000E-8	-0.000306
1.480000E-8	0.000600
1.485000E-8	0.001591
1.490000E-8	0.002350
1.495000E-8	0.003091
1.500000E-8	0.003725
1.505000E-8	0.004072
1.510000E-8	0.004262
1.515000E-8	0.004344
1.520000E-8	0.004056
1.525000E-8	0.003594
1.530000E-8	0.002944
1.535000E-8	0.002188
1.540000E-8	0.001275
1.545000E-8	0.000325
1.550000E-8	-0.000456
1.555000E-8	-0.001222
1.560000E-8	-0.001769
1.565000E-8	-0.002237
1.570000E-8	-0.002534
1.575000E-8	-0.002497
1.580000E-8	-0.002234
1.585000E-8	-0.001713
1.590000E-8	-0.001213
1.595000E-8	-0.000478
1.600000E-8	0.000469
1.605000E-8	0.001391
1.610000E-8	0.002141
1.615000E-8	0.002900
1.620000E-8	0.003572
1.625000E-8	0.004219
1.630000E-8	0.004456
1.635000E-8	0.004856
1.640000E-8	0.004719
1.645000E-8	0.004525
1.650000E-8	0.004194
1.655000E-8	0.003525
1.660000E-8	0.002734
1.665000E-8	0.002006
1.670000E-8	0.001163
1.675000E-8	0.000287
1.680000E-8	-0.000488
1.685000E-8	-0.001112
1.690000E-8	-0.001678
1.695000E-8	-0.001775
1.700000E-8	-0.001838
1.705000E-8	-0.001638
1.710000E-8	-0.001259
1.715000E-8	-0.000759
1.720000E-8	-8.750000E-5
1.725000E-8	0.000666
1.730000E-8	0.001288
1.735000E-8	0.002050
1.740000E-8	0.002788
1.745000E-8	0.003447
1.750000E-8	0.003934
1.755000E-8	0.004338
1.760000E-8	0.004428
1.765000E-8	0.004387
1.770000E-8	0.004044
1.775000E-8	0.003653
1.780000E-8	0.003206
1.785000E-8	0.002662
1.790000E-8	0.002028
1.795000E-8	0.001241
1.800000E-8	0.000481
1.805000E-8	-0.000197
1.810000E-8	-0.000756
1.815000E-8	-0.001169
1.820000E-8	-0.001419
1.825000E-8	-0.001453
1.830000E-8	-0.001481
1.835000E-8	-0.001122
1.840000E-8	-0.000784
1.845000E-8	-0.000175
1.850000E-8	0.000384
1.855000E-8	0.001159
1.860000E-8	0.001888
1.865000E-8	0.002625
1.870000E-8	0.003300
1.875000E-8	0.003894
1.880000E-8	0.004175
1.885000E-8	0.004403
1.890000E-8	0.004425
1.895000E-8	0.004416
1.900000E-8	0.004013
1.905000E-8	0.003400
1.910000E-8	0.002828
1.915000E-8	0.002113
1.920000E-8	0.001356
1.925000E-8	0.000778
1.930000E-8	0.000109
1.935000E-8	-0.000384
1.940000E-8	-0.000753
1.945000E-8	-0.000947
1.950000E-8	-0.001063
1.955000E-8	-0.000966
1.960000E-8	-0.000725
1.965000E-8	-0.000353
1.970000E-8	0.000287
1.975000E-8	0.000859
1.980000E-8	0.001488
1.985000E-8	0.002150
1.990000E-8	0.002938
1.995000E-8	0.003491
2.000000E-8	0.003947
2.005000E-8	0.004503
2.010000E-8	0.004550
2.015000E-8	0.004622
2.020000E-8	0.004519
2.025000E-8	0.004159
2.030000E-8	0.003628
2.035000E-8	0.003181
2.040000E-8	0.002463
2.045000E-8	0.001791
2.050000E-8	0.001147
2.055000E-8	0.000406
2.060000E-8	-2.500000E-5
2.065000E-8	-0.000450
2.070000E-8	-0.000747
2.075000E-8	-0.000753
2.080000E-8	-0.000747
2.085000E-8	-0.000509
2.090000E-8	-0.000250
2.095000E-8	0.000316
2.100000E-8	0.000816
2.105000E-8	0.001559
2.110000E-8	0.002213
2.115000E-8	0.002819
2.120000E-8	0.003313
2.125000E-8	0.003825
2.130000E-8	0.004047
2.135000E-8	0.004266
2.140000E-8	0.004244
2.145000E-8	0.004241
2.150000E-8	0.004016
2.155000E-8	0.003584
2.160000E-8	0.003219
2.165000E-8	0.002650
2.170000E-8	0.002091
2.175000E-8	0.001472
2.180000E-8	0.000963
2.185000E-8	0.000566
2.190000E-8	6.875000E-5
2.195000E-8	-0.000188
2.200000E-8	-0.000278
2.205000E-8	-0.000300
2.210000E-8	-0.000113
2.215000E-8	0.000200
2.220000E-8	0.000663
2.225000E-8	0.001144
2.230000E-8	0.001728
2.235000E-8	0.002263
2.240000E-8	0.002956
2.245000E-8	0.003475
2.250000E-8	0.003994
2.255000E-8	0.004519
2.260000E-8	0.004766
2.265000E-8	0.004962
2.270000E-8	0.004916
2.275000E-8	0.004741
2.280000E-8	0.004409
2.285000E-8	0.003856
2.290000E-8	0.003222
2.295000E-8	0.002581
2.300000E-8	0.001828
2.305000E-8	0.001109
2.310000E-8	0.000481
2.315000E-8	0.000122
2.320000E-8	-0.000359
2.325000E-8	-0.000491
2.330000E-8	-0.000516
2.335000E-8	-0.000231
2.340000E-8	0.000106
2.345000E-8	0.000653
2.350000E-8	0.001181
2.355000E-8	0.001734
2.360000E-8	0.002394
2.365000E-8	0.002966
2.370000E-8	0.003559
2.375000E-8	0.003966
2.380000E-8	0.004334
2.385000E-8	0.004531
2.390000E-8	0.004531
2.395000E-8	0.004334
2.400000E-8	0.004100
2.405000E-8	0.003872
2.410000E-8	0.003275
2.415000E-8	0.002731
2.420000E-8	0.002122
2.425000E-8	0.001650
2.430000E-8	0.000981
2.435000E-8	0.000603
2.440000E-8	9.375000E-5
2.445000E-8	-0.000188
2.450000E-8	-0.000388
2.455000E-8	-0.000425
2.460000E-8	-0.000272
2.465000E-8	-3.437500E-5
2.470000E-8	0.000325
2.475000E-8	0.000859
2.480000E-8	0.001384
2.485000E-8	0.002094
2.490000E-8	0.002634
2.495000E-8	0.003325
2.500000E-8	0.003744
2.505000E-8	0.004309
2.510000E-8	0.004500
2.515000E-8	0.004709
2.520000E-8	0.004713
2.525000E-8	0.004606
2.530000E-8	0.004338
2.535000E-8	0.003919
2.540000E-8	0.003334
2.545000E-8	0.002769
2.550000E-8	0.002178
2.555000E-8	0.001597
2.560000E-8	0.001025
2.565000E-8	0.000572
2.570000E-8	0.000209
2.575000E-8	2.187500E-5
2.580000E-8	-0.000194
2.585000E-8	-2.500000E-5
2.590000E-8	0.000166
2.595000E-8	0.000534
2.600000E-8	0.000941
2.605000E-8	0.001531
2.610000E-8	0.001997
2.615000E-8	0.002653
2.620000E-8	0.003131
2.625000E-8	0.003663
2.630000E-8	0.004075
2.635000E-8	0.004356
2.640000E-8	0.004559
2.645000E-8	0.004572
2.650000E-8	0.004291
2.655000E-8	0.004100
2.660000E-8	0.003613
2.665000E-8	0.003253
2.670000E-8	0.002672
2.675000E-8	0.002078
2.680000E-8	0.001428
2.685000E-8	0.000969
2.690000E-8	0.000475
2.695000E-8	0.000128
2.700000E-8	3.437500E-5
2.705000E-8	5.312500E-5
2.710000E-8	0.000241
2.715000E-8	0.000438
2.720000E-8	0.000816
2.725000E-8	0.001422
2.730000E-8	0.001950
2.735000E-8	0.002497
2.740000E-8	0.003003
2.745000E-8	0.003369
2.750000E-8	0.003741
2.755000E-8	0.004019
2.760000E-8	0.004253
2.765000E-8	0.004269
2.770000E-8	0.004241
2.775000E-8	0.004247
2.780000E-8	0.004041
2.785000E-8	0.003631
2.790000E-8	0.003184
2.795000E-8	0.002750
2.800000E-8	0.002134
2.805000E-8	0.001619
2.810000E-8	0.000988
2.815000E-8	0.000603
2.820000E-8	0.000247
2.825000E-8	5.312500E-5
2.830000E-8	-5.625000E-5
2.835000E-8	2.187500E-5
2.840000E-8	0.000225
2.845000E-8	0.000550
2.850000E-8	0.000944
2.855000E-8	0.001600
2.860000E-8	0.002109
2.865000E-8	0.002744
2.870000E-8	0.003216
2.875000E-8	0.003603
2.880000E-8	0.003909
2.885000E-8	0.004144
2.890000E-8	0.004225
2.895000E-8	0.004244
2.900000E-8	0.004000
2.905000E-8	0.003838
2.910000E-8	0.003419
2.915000E-8	0.003053
2.920000E-8	0.002641
2.925000E-8	0.002284
2.930000E-8	0.001822
2.935000E-8	0.001409
2.940000E-8	0.001044
2.945000E-8	0.000788
2.950000E-8	0.000522
2.955000E-8	0.000438
2.960000E-8	0.000419
2.965000E-8	0.000497
2.970000E-8	0.000628
2.975000E-8	0.001041
2.980000E-8	0.001413
2.985000E-8	0.001934
2.990000E-8	0.002272
2.995000E-8	0.002856
3.000000E-8	0.003234
3.005000E-8	0.003653
3.010000E-8	0.003928
3.015000E-8	0.004184
3.020000E-8	0.004128
3.025000E-8	0.004169
3.030000E-8	0.003931
3.035000E-8	0.003675
3.040000E-8	0.003234
3.045000E-8	0.002759
3.050000E-8	0.002297
3.055000E-8	0.001769
3.060000E-8	0.001288
3.065000E-8	0.000966
3.070000E-8	0.000550
3.075000E-8	0.000250
3.080000E-8	0.000166
3.085000E-8	0.000322
3.090000E-8	0.000363
3.095000E-8	0.000597
3.100000E-8	0.000894
3.105000E-8	0.001356
3.110000E-8	0.001728
3.115000E-8	0.002172
3.120000E-8	0.002725
3.125000E-8	0.003069
3.130000E-8	0.003341
3.135000E-8	0.003744
3.140000E-8	0.003928
3.145000E-8	0.003991
3.150000E-8	0.003997
3.155000E-8	0.003791
3.160000E-8	0.003472
3.165000E-8	0.003166
3.170000E-8	0.002759
3.175000E-8	0.002469
3.180000E-8	0.001950
3.185000E-8	0.001538
3.190000E-8	0.001244
3.195000E-8	0.000888
3.200000E-8	0.000619
3.205000E-8	0.000659
3.210000E-8	0.000556
3.215000E-8	0.000784
3.220000E-8	0.000959
3.225000E-8	0.001194
3.230000E-8	0.001519
3.235000E-8	0.001925
3.240000E-8	0.002228
3.245000E-8	0.002769
3.250000E-8	0.003050
3.255000E-8	0.003403
3.260000E-8	0.003578
3.265000E-8	0.003763
3.270000E-8	0.003822
3.275000E-8	0.003741
3.280000E-8	0.003609
3.285000E-8	0.003453
3.290000E-8	0.003128
3.295000E-8	0.002706
3.300000E-8	0.002353
3.305000E-8	0.002012
3.310000E-8	0.001525
3.315000E-8	0.001069
3.320000E-8	0.000778
3.325000E-8	0.000491
3.330000E-8	0.000263
3.335000E-8	0.000256
3.340000E-8	0.000194
3.345000E-8	0.000334
3.350000E-8	0.000509
3.355000E-8	0.000897
3.360000E-8	0.001331
3.365000E-8	0.001872
3.370000E-8	0.002306
3.375000E-8	0.002681
3.380000E-8	0.003006
3.385000E-8	0.003266
3.390000E-8	0.003375
3.395000E-8	0.003488
3.400000E-8	0.003453
3.405000E-8	0.003359
3.410000E-8	0.003128
3.415000E-8	0.002909
3.420000E-8	0.002613
3.425000E-8	0.002419
3.430000E-8	0.001984
3.435000E-8	0.001697
3.440000E-8	0.001275
3.445000E-8	0.001072
3.450000E-8	0.000797
3.455000E-8	0.000678
3.460000E-8	0.000653
3.465000E-8	0.000725
3.470000E-8	0.000737
3.475000E-8	0.000994
3.480000E-8	0.001234
3.485000E-8	0.001603
3.490000E-8	0.001888
3.495000E-8	0.002325
3.500000E-8	0.002563
3.505000E-8	0.002938
3.510000E-8	0.003175
3.515000E-8	0.003453
3.520000E-8	0.003525
3.525000E-8	0.003728
3.530000E-8	0.003613
3.535000E-8	0.003672
3.540000E-8	0.003394
3.545000E-8	0.003175
3.550000E-8	0.002803
3.555000E-8	0.002531
3.560000E-8	0.002156
3.565000E-8	0.001847
3.570000E-8	0.001431
3.575000E-8	0.001213
3.580000E-8	0.001006
3.585000E-8	0.000756
3.590000E-8	0.000769
3.595000E-8	0.000913
3.600000E-8	0.001056
3.605000E-8	0.001331
3.610000E-8	0.001638
3.615000E-8	0.002213
3.620000E-8	0.002578
3.625000E-8	0.002994
3.630000E-8	0.003353
3.635000E-8	0.003603
3.640000E-8	0.003694
3.645000E-8	0.003719
3.650000E-8	0.003719
3.655000E-8	0.003522
3.660000E-8	0.003328
3.665000E-8	0.003016
3.670000E-8	0.002684
3.675000E-8	0.002294
3.680000E-8	0.001831
3.685000E-8	0.001563
3.690000E-8	0.001263
3.695000E-8	0.000884
3.700000E-8	0.000678
3.705000E-8	0.000547
3.710000E-8	0.000506
3.715000E-8	0.000650
3.720000E-8	0.000803
3.725000E-8	0.001066
3.730000E-8	0.001359
3.735000E-8	0.001706
3.740000E-8	0.002003
3.745000E-8	0.002391
3.750000E-8	0.002684
3.755000E-8	0.003072
3.760000E-8	0.003353
3.765000E-8	0.003594
3.770000E-8	0.003591
3.775000E-8	0.003666
3.780000E-8	0.003622
3.785000E-8	0.003506
3.790000E-8	0.003294
3.795000E-8	0.002872
3.800000E-8	0.002500
3.805000E-8	0.002103
3.810000E-8	0.001703
3.815000E-8	0.001469
3.820000E-8	0.001288
3.825000E-8	0.000997
3.830000E-8	0.000813
3.835000E-8	0.000916
3.840000E-8	0.000972
3.845000E-8	0.001100
3.850000E-8	0.001200
3.855000E-8	0.001606
3.860000E-8	0.001916
3.865000E-8	0.002344
3.870000E-8	0.002650
3.875000E-8	0.002959
3.880000E-8	0.003203
3.885000E-8	0.003472
3.890000E-8	0.003609
3.895000E-8	0.003844
3.900000E-8	0.003806
3.905000E-8	0.003713
3.910000E-8	0.003603
3.915000E-8	0.003338
3.920000E-8	0.002947
3.925000E-8	0.002619
3.930000E-8	0.002209
3.935000E-8	0.001903
3.940000E-8	0.001488
3.945000E-8	0.001116
3.950000E-8	0.000919
3.955000E-8	0.000750
3.960000E-8	0.000638
3.965000E-8	0.000625
3.970000E-8	0.000706
3.975000E-8	0.000956
3.980000E-8	0.001163
3.985000E-8	0.001603
3.990000E-8	0.001906
3.995000E-8	0.002431
4.000000E-8	0.002800
4.005000E-8	0.003206
4.010000E-8	0.003378
4.015000E-8	0.003597
4.020000E-8	0.003531
4.025000E-8	0.003616
4.030000E-8	0.003425
4.035000E-8	0.003372
4.040000E-8	0.003034
4.045000E-8	0.002875
4.050000E-8	0.002600
4.055000E-8	0.002359
4.060000E-8	0.002091
4.065000E-8	0.001844
4.070000E-8	0.001541
4.075000E-8	0.001294
4.080000E-8	0.001066
4.085000E-8	0.001009
4.090000E-8	0.001066
4.095000E-8	0.001141
4.100000E-8	0.001328
4.105000E-8	0.001541
4.110000E-8	0.001716
4.115000E-8	0.002047
4.120000E-8	0.002384
4.125000E-8	0.002719
4.130000E-8	0.002950
4.135000E-8	0.003297
4.140000E-8	0.003509
4.145000E-8	0.003775
4.150000E-8	0.003753
4.155000E-8	0.003775
4.160000E-8	0.003650
4.165000E-8	0.003522
4.170000E-8	0.003203
4.175000E-8	0.002903
4.180000E-8	0.002400
4.185000E-8	0.002150
4.190000E-8	0.001719
4.195000E-8	0.001288
4.200000E-8	0.000909
4.205000E-8	0.000828
4.210000E-8	0.000694
4.215000E-8	0.000634
4.220000E-8	0.000653
4.225000E-8	0.000956
4.230000E-8	0.001112
4.235000E-8	0.001278
4.240000E-8	0.001631
4.245000E-8	0.002016
4.250000E-8	0.002300
4.255000E-8	0.002684
4.260000E-8	0.002941
4.265000E-8	0.003141
4.270000E-8	0.003284
4.275000E-8	0.003419
4.280000E-8	0.003372
4.285000E-8	0.003159
4.290000E-8	0.002978
4.295000E-8	0.002672
4.300000E-8	0.002300
4.305000E-8	0.002006
4.310000E-8	0.001675
4.315000E-8	0.001394
4.320000E-8	0.001119
4.325000E-8	0.000903
4.330000E-8	0.000728
4.335000E-8	0.000775
4.340000E-8	0.000841
4.345000E-8	0.001025
4.350000E-8	0.001187
4.355000E-8	0.001391
4.360000E-8	0.001769
4.365000E-8	0.002234
4.370000E-8	0.002613
4.375000E-8	0.002875
4.380000E-8	0.003050
4.385000E-8	0.003350
4.390000E-8	0.003512
4.395000E-8	0.003594
4.400000E-8	0.003547
4.405000E-8	0.003441
4.410000E-8	0.003281
4.415000E-8	0.003181
4.420000E-8	0.002894
4.425000E-8	0.002578
4.430000E-8	0.002247
4.435000E-8	0.002006
4.440000E-8	0.001775
4.445000E-8	0.001544
4.450000E-8	0.001178
4.455000E-8	0.000994
4.460000E-8	0.000928
4.465000E-8	0.000888
4.470000E-8	0.000822
4.475000E-8	0.001088
4.480000E-8	0.001256
4.485000E-8	0.001441
4.490000E-8	0.001694
4.495000E-8	0.002047
4.500000E-8	0.002297
4.505000E-8	0.002713
4.510000E-8	0.002847
4.515000E-8	0.003097
4.520000E-8	0.003191
4.525000E-8	0.003231
4.530000E-8	0.003319
4.535000E-8	0.003159
4.540000E-8	0.003044
4.545000E-8	0.002913
4.550000E-8	0.002753
4.555000E-8	0.002497
4.560000E-8	0.002044
4.565000E-8	0.001834
4.570000E-8	0.001466
4.575000E-8	0.001362
4.580000E-8	0.001244
4.585000E-8	0.001228
4.590000E-8	0.001178
4.595000E-8	0.001181
4.600000E-8	0.001209
4.605000E-8	0.001397
4.610000E-8	0.001659
4.615000E-8	0.001828
4.620000E-8	0.002106
4.625000E-8	0.002475
4.630000E-8	0.002653
4.635000E-8	0.003016
4.640000E-8	0.003206
4.645000E-8	0.003472
4.650000E-8	0.003463
4.655000E-8	0.003647
4.660000E-8	0.003553
4.665000E-8	0.003506
4.670000E-8	0.003306
4.675000E-8	0.003069
4.680000E-8	0.002759
4.685000E-8	0.002472
4.690000E-8	0.002072
4.695000E-8	0.001866
4.700000E-8	0.001488
4.705000E-8	0.001259
4.710000E-8	0.001031
4.715000E-8	0.001034
4.720000E-8	0.001081
4.725000E-8	0.001247
4.730000E-8	0.001434
4.735000E-8	0.001681
4.740000E-8	0.001944
4.745000E-8	0.002234
4.750000E-8	0.002497
4.755000E-8	0.002841
4.760000E-8	0.003025
4.765000E-8	0.003147
4.770000E-8	0.003203
4.775000E-8	0.003172
4.780000E-8	0.003150
4.785000E-8	0.003147
4.790000E-8	0.002956
4.795000E-8	0.002847
4.800000E-8	0.002584
4.805000E-8	0.002512
4.810000E-8	0.002250
4.815000E-8	0.002031
4.820000E-8	0.001756
4.825000E-8	0.001575
4.830000E-8	0.001347
4.835000E-8	0.001306
4.840000E-8	0.001225
4.845000E-8	0.001191
4.850000E-8	0.001150
4.855000E-8	0.001309
4.860000E-8	0.001272
4.865000E-8	0.001484
4.870000E-8	0.001681
4.875000E-8	0.002066
4.880000E-8	0.002144
4.885000E-8	0.002563
4.890000E-8	0.002728
4.895000E-8	0.002988
4.900000E-8	0.003006
4.905000E-8	0.003153
4.910000E-8	0.003153
4.915000E-8	0.003078
4.920000E-8	0.002909
4.925000E-8	0.002763
4.930000E-8	0.002469
4.935000E-8	0.002200
4.940000E-8	0.001937
4.945000E-8	0.001781
4.950000E-8	0.001513
4.955000E-8	0.001331
4.960000E-8	0.001253
4.965000E-8	0.001394
4.970000E-8	0.001391
4.975000E-8	0.001509
4.980000E-8	0.001697
4.985000E-8	0.001922
4.990000E-8	0.002072
4.995000E-8	0.002200
5.000000E-8	0.002472
5.005000E-8	0.002597
5.010000E-8	0.002694
5.015000E-8	0.002953
5.020000E-8	0.003031
5.025000E-8	0.003162
5.030000E-8	0.003116
5.035000E-8	0.003091
5.040000E-8	0.002881
5.045000E-8	0.002894
5.050000E-8	0.002594
5.055000E-8	0.002378
5.060000E-8	0.002181
5.065000E-8	0.001919
5.070000E-8	0.001550
5.075000E-8	0.001391
5.080000E-8	0.001313
5.085000E-8	0.001159
5.090000E-8	0.001097
5.095000E-8	0.001138
5.100000E-8	0.001231
5.105000E-8	0.001456
5.110000E-8	0.001709
5.115000E-8	0.001856
5.120000E-8	0.002103
5.125000E-8	0.002244
5.130000E-8	0.002541
5.135000E-8	0.002684
5.140000E-8	0.002844
5.145000E-8	0.002978
5.150000E-8	0.002963
5.155000E-8	0.003106
5.160000E-8	0.003172
5.165000E-8	0.003138
5.170000E-8	0.002981
5.175000E-8	0.002888
5.180000E-8	0.002728
5.185000E-8	0.002519
5.190000E-8	0.002272
5.195000E-8	0.001994
5.200000E-8	0.001834
5.205000E-8	0.001609
5.210000E-8	0.001550
5.215000E-8	0.001522
5.220000E-8	0.001425
5.225000E-8	0.001647
5.230000E-8	0.001709
5.235000E-8	0.001916
5.240000E-8	0.002153
5.245000E-8	0.002344
5.250000E-8	0.002572
5.255000E-8	0.002844
5.260000E-8	0.002944
5.265000E-8	0.003203
5.270000E-8	0.003313
5.275000E-8	0.003456
5.280000E-8	0.003384
5.285000E-8	0.003363
5.290000E-8	0.003322
5.295000E-8	0.003150
5.300000E-8	0.003006
5.305000E-8	0.002741
5.310000E-8	0.002519
5.315000E-8	0.002297
5.320000E-8	0.001978
5.325000E-8	0.001694
5.330000E-8	0.001450
5.335000E-8	0.001403
5.340000E-8	0.001281
5.345000E-8	0.001228
5.350000E-8	0.001475
5.355000E-8	0.001503
5.360000E-8	0.001616
5.365000E-8	0.001800
5.370000E-8	0.002031
5.375000E-8	0.002331
5.380000E-8	0.002497
5.385000E-8	0.002659
5.390000E-8	0.002694
5.395000E-8	0.002769
5.400000E-8	0.002784
5.405000E-8	0.002813
5.410000E-8	0.002706
5.415000E-8	0.002591
5.420000E-8	0.002525
5.425000E-8	0.002506
5.430000E-8	0.002222
5.435000E-8	0.001928
5.440000E-8	0.001775
5.445000E-8	0.001669
5.450000E-8	0.001456
5.455000E-8	0.001437
5.460000E-8	0.001331
5.465000E-8	0.001447
5.470000E-8	0.001428
5.475000E-8	0.001553
5.480000E-8	0.001666
5.485000E-8	0.001681
5.490000E-8	0.001759
5.495000E-8	0.002113
5.500000E-8	0.002316
5.505000E-8	0.002456
5.510000E-8	0.002709
5.515000E-8	0.002888
5.520000E-8	0.002953
5.525000E-8	0.003044
5.530000E-8	0.002969
5.535000E-8	0.003072
5.540000E-8	0.002913
5.545000E-8	0.002756
5.550000E-8	0.002522
5.555000E-8	0.002475
5.560000E-8	0.002306
5.565000E-8	0.002022
5.570000E-8	0.001784
5.575000E-8	0.001678
5.580000E-8	0.001503
5.585000E-8	0.001422
5.590000E-8	0.001328
5.595000E-8	0.001269
5.600000E-8	0.001250
5.605000E-8	0.001269
5.610000E-8	0.001284
5.615000E-8	0.001481
5.620000E-8	0.001687
5.625000E-8	0.001916
5.630000E-8	0.002084
5.635000E-8	0.002231
5.640000E-8	0.002413
5.645000E-8	0.002522
5.650000E-8	0.002525
5.655000E-8	0.002603
5.660000E-8	0.002619
5.665000E-8	0.002641
5.670000E-8	0.002606
5.675000E-8	0.002437
5.680000E-8	0.002375
5.685000E-8	0.002097
5.690000E-8	0.001884
5.695000E-8	0.001772
5.700000E-8	0.001519
5.705000E-8	0.001481
5.710000E-8	0.001453
5.715000E-8	0.001472
5.720000E-8	0.001409
5.725000E-8	0.001384
5.730000E-8	0.001463
5.735000E-8	0.001650
5.740000E-8	0.001697
5.745000E-8	0.001850
5.750000E-8	0.002050
5.755000E-8	0.002269
5.760000E-8	0.002466
5.765000E-8	0.002628
5.770000E-8	0.002828
5.775000E-8	0.003028
5.780000E-8	0.003081
5.785000E-8	0.003206
5.790000E-8	0.003162
5.795000E-8	0.003113
5.800000E-8	0.002969
5.805000E-8	0.002800
5.810000E-8	0.002563
5.815000E-8	0.002528
5.820000E-8	0.002344
5.825000E-8	0.002144
5.830000E-8	0.001969
5.835000E-8	0.001784
5.840000E-8	0.001556
5.845000E-8	0.001475
5.850000E-8	0.001309
5.855000E-8	0.001478
5.860000E-8	0.001478
5.865000E-8	0.001534
5.870000E-8	0.001750
5.875000E-8	0.001872
5.880000E-8	0.002084
5.885000E-8	0.002216
5.890000E-8	0.002359
5.895000E-8	0.002550
5.900000E-8	0.002631
5.905000E-8	0.002681
5.910000E-8	0.002606
5.915000E-8	0.002556
5.920000E-8	0.002478
5.925000E-8	0.002263
5.930000E-8	0.002087
5.935000E-8	0.001966
5.940000E-8	0.001828
5.945000E-8	0.001831
5.950000E-8	0.001656
5.955000E-8	0.001606
5.960000E-8	0.001466
5.965000E-8	0.001359
5.970000E-8	0.001259
5.975000E-8	0.001341
5.980000E-8	0.001163
5.985000E-8	0.001291
5.990000E-8	0.001347
5.995000E-8	0.001422
6.000000E-8	0.001684
6.005000E-8	0.001947
6.010000E-8	0.002147
6.015000E-8	0.002534
6.020000E-8	0.002791
6.025000E-8	0.003044
6.030000E-8	0.003103
6.035000E-8	0.003134
6.040000E-8	0.003028
6.045000E-8	0.003022
6.050000E-8	0.002863
6.055000E-8	0.002547
6.060000E-8	0.002184
6.065000E-8	0.002038
6.070000E-8	0.001897
6.075000E-8	0.001794
6.080000E-8	0.001638
6.085000E-8	0.001597
6.090000E-8	0.001509
6.095000E-8	0.001550
6.100000E-8	0.001437
6.105000E-8	0.001569
6.110000E-8	0.001663
6.115000E-8	0.001713
6.120000E-8	0.001822
6.125000E-8	0.002053
6.130000E-8	0.002156
6.135000E-8	0.002413
6.140000E-8	0.002538
6.145000E-8	0.002794
6.150000E-8	0.002728
6.155000E-8	0.002850
6.160000E-8	0.002916
6.165000E-8	0.002928
6.170000E-8	0.002719
6.175000E-8	0.002666
6.180000E-8	0.002534
6.185000E-8	0.002431
6.190000E-8	0.002100
6.195000E-8	0.002025
6.200000E-8	0.001766
6.205000E-8	0.001684
6.210000E-8	0.001437
6.215000E-8	0.001444
6.220000E-8	0.001447
6.225000E-8	0.001603
6.230000E-8	0.001494
6.235000E-8	0.001578
6.240000E-8	0.001597
6.245000E-8	0.001969
6.250000E-8	0.002131
6.255000E-8	0.002309
6.260000E-8	0.002463
6.265000E-8	0.002653
6.270000E-8	0.002831
6.275000E-8	0.003059
6.280000E-8	0.003081
6.285000E-8	0.003109
6.290000E-8	0.003025
6.295000E-8	0.003022
6.300000E-8	0.002841
6.305000E-8	0.002803
6.310000E-8	0.002606
6.315000E-8	0.002406
6.320000E-8	0.002284
6.325000E-8	0.002119
6.330000E-8	0.001937
6.335000E-8	0.001791
6.340000E-8	0.001709
6.345000E-8	0.001697
6.350000E-8	0.001663
6.355000E-8	0.001634
6.360000E-8	0.001697
6.365000E-8	0.001656
6.370000E-8	0.001722
6.375000E-8	0.002081
6.380000E-8	0.002291
6.385000E-8	0.002522
6.390000E-8	0.002709
6.395000E-8	0.003038
6.400000E-8	0.003012
6.405000E-8	0.003113
6.410000E-8	0.003109
6.415000E-8	0.003069
6.420000E-8	0.003003
6.425000E-8	0.002813
6.430000E-8	0.002522
6.435000E-8	0.002363
6.440000E-8	0.002178
6.445000E-8	0.001937
6.450000E-8	0.001875
6.455000E-8	0.001834
6.460000E-8	0.001747
6.465000E-8	0.001747
6.470000E-8	0.001703
6.475000E-8	0.001816
6.480000E-8	0.001841
6.485000E-8	0.001853
6.490000E-8	0.001884
6.495000E-8	0.002050
6.500000E-8	0.002053
6.505000E-8	0.002303
6.510000E-8	0.002441
6.515000E-8	0.002691
6.520000E-8	0.002744
6.525000E-8	0.002813
6.530000E-8	0.002797
6.535000E-8	0.002831
6.540000E-8	0.002903
6.545000E-8	0.002822
6.550000E-8	0.002703
6.555000E-8	0.002569
6.560000E-8	0.002244
6.565000E-8	0.002106
6.570000E-8	0.001856
6.575000E-8	0.001719
6.580000E-8	0.001481
6.585000E-8	0.001413
6.590000E-8	0.001344
6.595000E-8	0.001397
6.600000E-8	0.001394
6.605000E-8	0.001475
6.610000E-8	0.001563
6.615000E-8	0.001672
6.620000E-8	0.001859
6.625000E-8	0.002044
6.630000E-8	0.002103
6.635000E-8	0.002200
6.640000E-8	0.002237
6.645000E-8	0.002463
6.650000E-8	0.002600
6.655000E-8	0.002831
6.660000E-8	0.002769
6.665000E-8	0.002772
6.670000E-8	0.002703
6.675000E-8	0.002662
6.680000E-8	0.002559
6.685000E-8	0.002353
6.690000E-8	0.002178
6.695000E-8	0.002094
6.700000E-8	0.001863
6.705000E-8	0.001759
6.710000E-8	0.001597
6.715000E-8	0.001638
6.720000E-8	0.001534
6.725000E-8	0.001600
6.730000E-8	0.001603
6.735000E-8	0.001725
6.740000E-8	0.001819
6.745000E-8	0.002094
6.750000E-8	0.002234
6.755000E-8	0.002391
6.760000E-8	0.002506
6.765000E-8	0.002634
6.770000E-8	0.002625
6.775000E-8	0.002713
6.780000E-8	0.002662
6.785000E-8	0.002550
6.790000E-8	0.002497
6.795000E-8	0.002512
6.800000E-8	0.002347
6.805000E-8	0.002419
6.810000E-8	0.002341
6.815000E-8	0.002300
6.820000E-8	0.002059
6.825000E-8	0.002025
6.830000E-8	0.001869
6.835000E-8	0.001825
6.840000E-8	0.001800
6.845000E-8	0.001738
6.850000E-8	0.001612
6.855000E-8	0.001800
6.860000E-8	0.001809
6.865000E-8	0.001897
6.870000E-8	0.001959
6.875000E-8	0.002219
6.880000E-8	0.002291
6.885000E-8	0.002447
6.890000E-8	0.002503
6.895000E-8	0.002688
6.900000E-8	0.002863
6.905000E-8	0.003044
6.910000E-8	0.003059
6.915000E-8	0.003131
6.920000E-8	0.003247
6.925000E-8	0.003162
6.930000E-8	0.003044
6.935000E-8	0.002816
6.940000E-8	0.002672
6.945000E-8	0.002659
6.950000E-8	0.002344
6.955000E-8	0.002131
6.960000E-8	0.001991
6.965000E-8	0.001956
6.970000E-8	0.001834
6.975000E-8	0.001981
6.980000E-8	0.001997
6.985000E-8	0.002056
6.990000E-8	0.002247
6.995000E-8	0.002366
7.000000E-8	0.002406
7.005000E-8	0.002481
7.010000E-8	0.002584
7.015000E-8	0.002681
7.020000E-8	0.002725
7.025000E-8	0.002781
7.030000E-8	0.002644
7.035000E-8	0.002516
7.040000E-8	0.002453
7.045000E-8	0.002400
7.050000E-8	0.002334
7.055000E-8	0.002338
7.060000E-8	0.002313
7.065000E-8	0.002241
7.070000E-8	0.002078
7.075000E-8	0.002025
7.080000E-8	0.002003
7.085000E-8	0.001981
7.090000E-8	0.001988
7.095000E-8	0.001897
7.100000E-8	0.001991
7.105000E-8	0.002053
7.110000E-8	0.002097
7.115000E-8	0.002144
7.120000E-8	0.002253
7.125000E-8	0.002497
7.130000E-8	0.002431
7.135000E-8	0.002641
7.140000E-8	0.002688
7.145000E-8	0.002728
7.150000E-8	0.002775
7.155000E-8	0.002791
7.160000E-8	0.002859
7.165000E-8	0.002794
7.170000E-8	0.002737
7.175000E-8	0.002753
7.180000E-8	0.002594
7.185000E-8	0.002559
7.190000E-8	0.002500
7.195000E-8	0.002347
7.200000E-8	0.002356
7.205000E-8	0.002366
7.210000E-8	0.002297
7.215000E-8	0.002188
7.220000E-8	0.002116
7.225000E-8	0.002166
7.230000E-8	0.002091
7.235000E-8	0.002087
7.240000E-8	0.002228
7.245000E-8	0.002234
7.250000E-8	0.002266
7.255000E-8	0.002316
7.260000E-8	0.002300
7.265000E-8	0.002422
7.270000E-8	0.002434
7.275000E-8	0.002406
7.280000E-8	0.002491
7.285000E-8	0.002544
7.290000E-8	0.002488
7.295000E-8	0.002450
7.300000E-8	0.002550
7.305000E-8	0.002512
7.310000E-8	0.002475
7.315000E-8	0.002378
7.320000E-8	0.002313
7.325000E-8	0.002325
7.330000E-8	0.002175
7.335000E-8	0.002103
7.340000E-8	0.001972
7.345000E-8	0.001991
7.350000E-8	0.001953
7.355000E-8	0.002012
7.360000E-8	0.001953
7.365000E-8	0.001972
7.370000E-8	0.001953
7.375000E-8	0.002044
7.380000E-8	0.002153
7.385000E-8	0.002216
7.390000E-8	0.002288
7.395000E-8	0.002394
7.400000E-8	0.002488
7.405000E-8	0.002538
7.410000E-8	0.002809
7.415000E-8	0.002828
7.420000E-8	0.002697
7.425000E-8	0.002681
7.430000E-8	0.002684
7.435000E-8	0.002622
7.440000E-8	0.002400
7.445000E-8	0.002300
7.450000E-8	0.002206
7.455000E-8	0.002231
7.460000E-8	0.002034
7.465000E-8	0.002019
7.470000E-8	0.001900
7.475000E-8	0.001881
7.480000E-8	0.001809
7.485000E-8	0.001872
7.490000E-8	0.001906
7.495000E-8	0.001975
7.500000E-8	0.002041
7.505000E-8	0.002172
7.510000E-8	0.002219
7.515000E-8	0.002275
7.520000E-8	0.002447
7.525000E-8	0.002556
7.530000E-8	0.002519
7.535000E-8	0.002575
7.540000E-8	0.002625
7.545000E-8	0.002634
7.550000E-8	0.002500
7.555000E-8	0.002350
7.560000E-8	0.002375
7.565000E-8	0.002341
7.570000E-8	0.002197
7.575000E-8	0.002147
7.580000E-8	0.002119
7.585000E-8	0.002128
7.590000E-8	0.002172
7.595000E-8	0.002100
7.600000E-8	0.001916
7.605000E-8	0.001963
7.610000E-8	0.001934
7.615000E-8	0.001975
7.620000E-8	0.001966
7.625000E-8	0.001981
7.630000E-8	0.002081
7.635000E-8	0.002181
7.640000E-8	0.002316
7.645000E-8	0.002359
7.650000E-8	0.002400
7.655000E-8	0.002441
7.660000E-8	0.002466
7.665000E-8	0.002578
7.670000E-8	0.002403
7.675000E-8	0.002525
7.680000E-8	0.002472
7.685000E-8	0.002384
7.690000E-8	0.002188
7.695000E-8	0.002053
7.700000E-8	0.001809
7.705000E-8	0.001800
7.710000E-8	0.001816
7.715000E-8	0.001687
7.720000E-8	0.001772
7.725000E-8	0.001709
7.730000E-8	0.001881
7.735000E-8	0.001963
7.740000E-8	0.002178
7.745000E-8	0.002281
7.750000E-8	0.002378
7.755000E-8	0.002428
7.760000E-8	0.002437
7.765000E-8	0.002578
7.770000E-8	0.002491
7.775000E-8	0.002594
7.780000E-8	0.002597
7.785000E-8	0.002653
7.790000E-8	0.002631
7.795000E-8	0.002528
7.800000E-8	0.002475
7.805000E-8	0.002538
7.810000E-8	0.002488
7.815000E-8	0.002584
7.820000E-8	0.002475
7.825000E-8	0.002453
7.830000E-8	0.002344
7.835000E-8	0.002316
7.840000E-8	0.002150
7.845000E-8	0.002141
7.850000E-8	0.002144
7.855000E-8	0.002050
7.860000E-8	0.002234
7.865000E-8	0.002247
7.870000E-8	0.002147
7.875000E-8	0.002341
7.880000E-8	0.002309
7.885000E-8	0.002481
7.890000E-8	0.002512
7.895000E-8	0.002566
7.900000E-8	0.002613
7.905000E-8	0.002622
7.910000E-8	0.002613
7.915000E-8	0.002559
7.920000E-8	0.002447
7.925000E-8	0.002431
7.930000E-8	0.002234
7.935000E-8	0.002147
7.940000E-8	0.002134
7.945000E-8	0.002153
7.950000E-8	0.002044
7.955000E-8	0.002012
7.960000E-8	0.001950
7.965000E-8	0.001944
7.970000E-8	0.002069
7.975000E-8	0.001984
7.980000E-8	0.001906
7.985000E-8	0.002047
7.990000E-8	0.001984
7.995000E-8	0.002003
8.000000E-8	0.001981
8.005000E-8	0.002022
8.010000E-8	0.002188
8.015000E-8	0.002184
8.020000E-8	0.002363
8.025000E-8	0.002509
8.030000E-8	0.002650
8.035000E-8	0.002716
8.040000E-8	0.002581
8.045000E-8	0.002631
8.050000E-8	0.002622
8.055000E-8	0.002719
8.060000E-8	0.002638
8.065000E-8	0.002603
8.070000E-8	0.002444
8.075000E-8	0.002466
8.080000E-8	0.002441
8.085000E-8	0.002509
8.090000E-8	0.002347
8.095000E-8	0.002400
8.100000E-8	0.002278
8.105000E-8	0.002313
8.110000E-8	0.002281
8.115000E-8	0.002353
8.120000E-8	0.002341
8.125000E-8	0.002394
8.130000E-8	0.002331
8.135000E-8	0.002538
8.140000E-8	0.002500
8.145000E-8	0.002572
8.150000E-8	0.002625
8.155000E-8	0.002672
8.160000E-8	0.002616
8.165000E-8	0.002550
8.170000E-8	0.002419
8.175000E-8	0.002313
8.180000E-8	0.002331
8.185000E-8	0.002284
8.190000E-8	0.002141
8.195000E-8	0.002094
8.200000E-8	0.002028
8.205000E-8	0.001988
8.210000E-8	0.001928
8.215000E-8	0.001909
8.220000E-8	0.001813
8.225000E-8	0.001822
8.230000E-8	0.001806
8.235000E-8	0.001747
8.240000E-8	0.001778
8.245000E-8	0.001872
8.250000E-8	0.001972
8.255000E-8	0.002106
8.260000E-8	0.002241
8.265000E-8	0.002431
8.270000E-8	0.002484
8.275000E-8	0.002472
8.280000E-8	0.002644
8.285000E-8	0.002641
8.290000E-8	0.002719
8.295000E-8	0.002659
8.300000E-8	0.002547
8.305000E-8	0.002497
8.310000E-8	0.002469
8.315000E-8	0.002416
8.320000E-8	0.002397
8.325000E-8	0.002413
8.330000E-8	0.002328
8.335000E-8	0.002381
8.340000E-8	0.002272
8.345000E-8	0.002431
8.350000E-8	0.002519
8.355000E-8	0.002403
8.360000E-8	0.002203
8.365000E-8	0.002175
8.370000E-8	0.002122
8.375000E-8	0.002300
8.380000E-8	0.002156
8.385000E-8	0.002066
8.390000E-8	0.001934
8.395000E-8	0.001863
8.400000E-8	0.001825
8.405000E-8	0.001894
8.410000E-8	0.001894
8.415000E-8	0.002022
8.420000E-8	0.002172
8.425000E-8	0.002175
8.430000E-8	0.002216
8.435000E-8	0.002397
8.440000E-8	0.002413
8.445000E-8	0.002422
8.450000E-8	0.002319
8.455000E-8	0.002353
8.460000E-8	0.002219
8.465000E-8	0.002091
8.470000E-8	0.002016
8.475000E-8	0.001956
8.480000E-8	0.001850
8.485000E-8	0.001781
8.490000E-8	0.001694
8.495000E-8	0.001700
8.500000E-8	0.001716
8.505000E-8	0.001844
8.510000E-8	0.001994
8.515000E-8	0.002141
8.520000E-8	0.002241
8.525000E-8	0.002241
8.530000E-8	0.002447
8.535000E-8	0.002494
8.540000E-8	0.002484
8.545000E-8	0.002625
8.550000E-8	0.002544
8.555000E-8	0.002581
8.560000E-8	0.002575
8.565000E-8	0.002481
8.570000E-8	0.002384
8.575000E-8	0.002388
8.580000E-8	0.002209
8.585000E-8	0.002291
8.590000E-8	0.002300
8.595000E-8	0.002213
8.600000E-8	0.002075
8.605000E-8	0.002228
8.610000E-8	0.002272
8.615000E-8	0.002325
8.620000E-8	0.002278
8.625000E-8	0.002400
8.630000E-8	0.002422
8.635000E-8	0.002497
8.640000E-8	0.002534
8.645000E-8	0.002659
8.650000E-8	0.002587
8.655000E-8	0.002538
8.660000E-8	0.002463
8.665000E-8	0.002559
8.670000E-8	0.002450
8.675000E-8	0.002288
8.680000E-8	0.002122
8.685000E-8	0.002122
8.690000E-8	0.001997
8.695000E-8	0.002031
8.700000E-8	0.001956
8.705000E-8	0.001934
8.710000E-8	0.001903
8.715000E-8	0.002028
8.720000E-8	0.002119
8.725000E-8	0.002100
8.730000E-8	0.002019
8.735000E-8	0.002209
8.740000E-8	0.002109
8.745000E-8	0.002172
8.750000E-8	0.002203
8.755000E-8	0.002197
8.760000E-8	0.002200
8.765000E-8	0.002253
8.770000E-8	0.002247
8.775000E-8	0.002222
8.780000E-8	0.002309
8.785000E-8	0.002403
8.790000E-8	0.002363
8.795000E-8	0.002441
8.800000E-8	0.002459
8.805000E-8	0.002463
8.810000E-8	0.002497
8.815000E-8	0.002525
8.820000E-8	0.002441
8.825000E-8	0.002313
8.830000E-8	0.002250
8.835000E-8	0.002275
8.840000E-8	0.002178
8.845000E-8	0.002194
8.850000E-8	0.002106
8.855000E-8	0.002134
8.860000E-8	0.001947
8.865000E-8	0.002072
8.870000E-8	0.002056
8.875000E-8	0.002219
8.880000E-8	0.002328
8.885000E-8	0.002334
8.890000E-8	0.002341
8.895000E-8	0.002281
8.900000E-8	0.002231
8.905000E-8	0.002269
8.910000E-8	0.002059
8.915000E-8	0.002047
8.920000E-8	0.002122
8.925000E-8	0.002116
8.930000E-8	0.002125
8.935000E-8	0.002272
8.940000E-8	0.002338
8.945000E-8	0.002406
8.950000E-8	0.002381
8.955000E-8	0.002331
8.960000E-8	0.002500
8.965000E-8	0.002484
8.970000E-8	0.002319
8.975000E-8	0.002213
8.980000E-8	0.002216
8.985000E-8	0.002178
8.990000E-8	0.002106
8.995000E-8	0.002072
9.000000E-8	0.002103
9.005000E-8	0.002109
9.010000E-8	0.002125
9.015000E-8	0.002159
9.020000E-8	0.002094
9.025000E-8	0.002228
9.030000E-8	0.002219
9.035000E-8	0.002341
9.040000E-8	0.002291
9.045000E-8	0.002428
9.050000E-8	0.002456
9.055000E-8	0.002434
9.060000E-8	0.002437
9.065000E-8	0.002425
9.070000E-8	0.002322
9.075000E-8	0.002288
9.080000E-8	0.002150
9.085000E-8	0.002022
9.090000E-8	0.001978
9.095000E-8	0.002025
9.100000E-8	0.001991
9.105000E-8	0.002009
9.110000E-8	0.002041
9.115000E-8	0.001991
9.120000E-8	0.002056
9.125000E-8	0.002222
9.130000E-8	0.002219
9.135000E-8	0.002328
9.140000E-8	0.002375
9.145000E-8	0.002434
9.150000E-8	0.002475
9.155000E-8	0.002512
9.160000E-8	0.002416
9.165000E-8	0.002613
9.170000E-8	0.002662
9.175000E-8	0.002628
9.180000E-8	0.002538
9.185000E-8	0.002497
9.190000E-8	0.002422
9.195000E-8	0.002431
9.200000E-8	0.002253
9.205000E-8	0.002159
9.210000E-8	0.001991
9.215000E-8	0.001978
9.220000E-8	0.001716
9.225000E-8	0.001828
9.230000E-8	0.001709
9.235000E-8	0.001822
9.240000E-8	0.001894
9.245000E-8	0.001847
9.250000E-8	0.001906
9.255000E-8	0.002109
9.260000E-8	0.002191
9.265000E-8	0.002313
9.270000E-8	0.002259
9.275000E-8	0.002481
9.280000E-8	0.002475
9.285000E-8	0.002569
9.290000E-8	0.002619
9.295000E-8	0.002775
9.300000E-8	0.002809
9.305000E-8	0.002863
9.310000E-8	0.002778
9.315000E-8	0.002662
9.320000E-8	0.002581
9.325000E-8	0.002437
9.330000E-8	0.002272
9.335000E-8	0.002078
9.340000E-8	0.001969
9.345000E-8	0.002000
9.350000E-8	0.001928
9.355000E-8	0.001950
9.360000E-8	0.001966
9.365000E-8	0.002172
9.370000E-8	0.002225
9.375000E-8	0.002225
9.380000E-8	0.002256
9.385000E-8	0.002322
9.390000E-8	0.002225
9.395000E-8	0.002306
9.400000E-8	0.002291
9.405000E-8	0.002266
9.410000E-8	0.002237
9.415000E-8	0.002216
9.420000E-8	0.002153
9.425000E-8	0.002222
9.430000E-8	0.002234
9.435000E-8	0.002353
9.440000E-8	0.002338
9.445000E-8	0.002463
9.450000E-8	0.002441
9.455000E-8	0.002356
9.460000E-8	0.002444
9.465000E-8	0.002541
9.470000E-8	0.002566
9.475000E-8	0.002528
9.480000E-8	0.002378
9.485000E-8	0.002384
9.490000E-8	0.002272
9.495000E-8	0.002247
9.500000E-8	0.002181
9.505000E-8	0.002231
9.510000E-8	0.002128
9.515000E-8	0.002122
9.520000E-8	0.002072
9.525000E-8	0.002144
9.530000E-8	0.002191
9.535000E-8	0.002228
9.540000E-8	0.002366
9.545000E-8	0.002359
9.550000E-8	0.002356
9.555000E-8	0.002450
9.560000E-8	0.002431
9.565000E-8	0.002409
9.570000E-8	0.002350
9.575000E-8	0.002316
9.580000E-8	0.002253
9.585000E-8	0.002156
9.590000E-8	0.002044
9.595000E-8	0.002044
9.600000E-8	0.001984
9.605000E-8	0.002003
9.610000E-8	0.001972
9.615000E-8	0.002116
9.620000E-8	0.002047
9.625000E-8	0.002247
9.630000E-8	0.002406
9.635000E-8	0.002459
9.640000E-8	0.002516
9.645000E-8	0.002628
9.650000E-8	0.002600
9.655000E-8	0.002747
9.660000E-8	0.002641
9.665000E-8	0.002628
9.670000E-8	0.002538
9.675000E-8	0.002422
9.680000E-8	0.002300
9.685000E-8	0.002244
9.690000E-8	0.002097
9.695000E-8	0.001956
9.700000E-8	0.001822
9.705000E-8	0.001891
9.710000E-8	0.001925
9.715000E-8	0.001894
9.720000E-8	0.001866
9.725000E-8	0.001922
9.730000E-8	0.001894
9.735000E-8	0.002038
9.740000E-8	0.001994
9.745000E-8	0.002106
9.750000E-8	0.002141
9.755000E-8	0.002094
9.760000E-8	0.002081
9.765000E-8	0.002091
9.770000E-8	0.002038
9.775000E-8	0.002109
9.780000E-8	0.002034
9.785000E-8	0.002181
9.790000E-8	0.002266
9.795000E-8	0.002353
9.800000E-8	0.002369
9.805000E-8	0.002406
9.810000E-8	0.002391
9.815000E-8	0.002334
9.820000E-8	0.002228
9.825000E-8	0.002272
9.830000E-8	0.002197
9.835000E-8	0.002219
9.840000E-8	0.002181
9.845000E-8	0.002103
9.850000E-8	0.002003
9.855000E-8	0.001988
9.860000E-8	0.001934
9.865000E-8	0.002022
9.870000E-8	0.002053
9.875000E-8	0.002066
9.880000E-8	0.002053
9.885000E-8	0.002069
9.890000E-8	0.001984
9.895000E-8	0.002103
9.900000E-8	0.002131
9.905000E-8	0.002091
9.910000E-8	0.002100
9.915000E-8	0.002216
9.920000E-8	0.002278
9.925000E-8	0.002328
9.930000E-8	0.002478
9.935000E-8	0.002516
9.940000E-8	0.002600
9.945000E-8	0.002619
9.950000E-8	0.002594
9.955000E-8	0.002587
9.960000E-8	0.002363
9.965000E-8	0.002313
9.970000E-8	0.002184
9.975000E-8	0.002322
9.980000E-8	0.002181
9.985000E-8	0.002166
9.990000E-8	0.002044
9.995000E-8	0.002025
