LabVIEW Measurement	
Writer_Version	2
Reader_Version	2
Separator	Tab
Decimal_Separator	.
Multi_Headings	No
X_Columns	Multi
Time_Pref	Relative
Operator	TG lab
Date	2015/03/06
Time	18:50:52.9453792572021484375
***End_of_Header***	
	
Channels	1	
Samples	2000	
Date	1903/12/31	
Time	19:00:00	
X_Dimension	Time	
X0	0.0000000000000000E+0	
Delta_X	5.000000E-11	
***End_of_Header***		
X_Value	Untitled	Comment
0.000000	0.001480
5.000000E-11	0.001511
1.000000E-10	0.001467
1.500000E-10	0.001420
2.000000E-10	0.001473
2.500000E-10	0.001536
3.000000E-10	0.001570
3.500000E-10	0.001633
4.000000E-10	0.001673
4.500000E-10	0.001655
5.000000E-10	0.001695
5.500000E-10	0.001753
6.000000E-10	0.001686
6.500000E-10	0.001723
7.000000E-10	0.001775
7.500000E-10	0.001797
8.000000E-10	0.001780
8.500000E-10	0.001836
9.000000E-10	0.001766
9.500000E-10	0.001800
1.000000E-9	0.001778
1.050000E-9	0.001719
1.100000E-9	0.001677
1.150000E-9	0.001622
1.200000E-9	0.001536
1.250000E-9	0.001555
1.300000E-9	0.001480
1.350000E-9	0.001428
1.400000E-9	0.001416
1.450000E-9	0.001406
1.500000E-9	0.001442
1.550000E-9	0.001466
1.600000E-9	0.001523
1.650000E-9	0.001556
1.700000E-9	0.001598
1.750000E-9	0.001600
1.800000E-9	0.001611
1.850000E-9	0.001648
1.900000E-9	0.001608
1.950000E-9	0.001616
2.000000E-9	0.001556
2.050000E-9	0.001516
2.100000E-9	0.001531
2.150000E-9	0.001484
2.200000E-9	0.001453
2.250000E-9	0.001338
2.300000E-9	0.001228
2.350000E-9	0.001258
2.400000E-9	0.001194
2.450000E-9	0.001244
2.500000E-9	0.001250
2.550000E-9	0.001309
2.600000E-9	0.001384
2.650000E-9	0.001497
2.700000E-9	0.001464
2.750000E-9	0.001645
2.800000E-9	0.001631
2.850000E-9	0.001678
2.900000E-9	0.001689
2.950000E-9	0.001647
3.000000E-9	0.001589
3.050000E-9	0.001523
3.100000E-9	0.001433
3.150000E-9	0.001377
3.200000E-9	0.001309
3.250000E-9	0.001250
3.300000E-9	0.001183
3.350000E-9	0.001181
3.400000E-9	0.001170
3.450000E-9	0.001098
3.500000E-9	0.001088
3.550000E-9	0.001077
3.600000E-9	0.001039
3.650000E-9	0.001073
3.700000E-9	0.001111
3.750000E-9	0.001056
3.800000E-9	0.001116
3.850000E-9	0.001120
3.900000E-9	0.001117
3.950000E-9	0.001142
4.000000E-9	0.001081
4.050000E-9	0.001092
4.100000E-9	0.001061
4.150000E-9	0.001112
4.200000E-9	0.001102
4.250000E-9	0.001084
4.300000E-9	0.001081
4.350000E-9	0.001072
4.400000E-9	0.000995
4.450000E-9	0.001002
4.500000E-9	0.000872
4.550000E-9	0.000816
4.600000E-9	0.000784
4.650000E-9	0.000731
4.700000E-9	0.000488
4.750000E-9	0.000198
4.800000E-9	-0.000327
4.850000E-9	-0.001002
4.900000E-9	-0.002003
4.950000E-9	-0.003161
5.000000E-9	-0.004542
5.050000E-9	-0.006148
5.100000E-9	-0.008016
5.150000E-9	-0.009920
5.200000E-9	-0.011917
5.250000E-9	-0.013795
5.300000E-9	-0.015602
5.350000E-9	-0.017233
5.400000E-9	-0.018672
5.450000E-9	-0.019817
5.500000E-9	-0.020705
5.550000E-9	-0.021361
5.600000E-9	-0.021847
5.650000E-9	-0.021995
5.700000E-9	-0.021855
5.750000E-9	-0.021439
5.800000E-9	-0.020794
5.850000E-9	-0.019903
5.900000E-9	-0.018923
5.950000E-9	-0.017731
6.000000E-9	-0.016514
6.050000E-9	-0.015277
6.100000E-9	-0.014153
6.150000E-9	-0.013066
6.200000E-9	-0.012242
6.250000E-9	-0.011619
6.300000E-9	-0.011294
6.350000E-9	-0.011227
6.400000E-9	-0.011395
6.450000E-9	-0.011783
6.500000E-9	-0.012242
6.550000E-9	-0.012764
6.600000E-9	-0.013303
6.650000E-9	-0.013870
6.700000E-9	-0.014384
6.750000E-9	-0.014773
6.800000E-9	-0.015005
6.850000E-9	-0.015159
6.900000E-9	-0.015123
6.950000E-9	-0.014833
7.000000E-9	-0.014389
7.050000E-9	-0.013853
7.100000E-9	-0.013075
7.150000E-9	-0.012202
7.200000E-9	-0.011202
7.250000E-9	-0.010117
7.300000E-9	-0.009072
7.350000E-9	-0.008022
7.400000E-9	-0.007130
7.450000E-9	-0.006409
7.500000E-9	-0.005850
7.550000E-9	-0.005420
7.600000E-9	-0.005280
7.650000E-9	-0.005334
7.700000E-9	-0.005539
7.750000E-9	-0.005991
7.800000E-9	-0.006484
7.850000E-9	-0.007027
7.900000E-9	-0.007720
7.950000E-9	-0.008270
8.000000E-9	-0.008872
8.050000E-9	-0.009311
8.100000E-9	-0.009711
8.150000E-9	-0.009841
8.200000E-9	-0.009908
8.250000E-9	-0.009705
8.300000E-9	-0.009305
8.350000E-9	-0.008659
8.400000E-9	-0.007892
8.450000E-9	-0.007016
8.500000E-9	-0.006086
8.550000E-9	-0.005102
8.600000E-9	-0.004261
8.650000E-9	-0.003419
8.700000E-9	-0.002752
8.750000E-9	-0.002273
8.800000E-9	-0.002052
8.850000E-9	-0.001973
8.900000E-9	-0.002050
8.950000E-9	-0.002367
9.000000E-9	-0.002844
9.050000E-9	-0.003353
9.100000E-9	-0.004083
9.150000E-9	-0.004766
9.200000E-9	-0.005481
9.250000E-9	-0.006169
9.300000E-9	-0.006809
9.350000E-9	-0.007233
9.400000E-9	-0.007595
9.450000E-9	-0.007681
9.500000E-9	-0.007495
9.550000E-9	-0.007208
9.600000E-9	-0.006659
9.650000E-9	-0.005863
9.700000E-9	-0.005030
9.750000E-9	-0.003972
9.800000E-9	-0.003061
9.850000E-9	-0.002053
9.900000E-9	-0.001270
9.950000E-9	-0.000498
1.000000E-8	-4.531250E-5
1.005000E-8	0.000244
1.010000E-8	0.000263
1.015000E-8	0.000111
1.020000E-8	-0.000217
1.025000E-8	-0.000772
1.030000E-8	-0.001409
1.035000E-8	-0.002150
1.040000E-8	-0.002880
1.045000E-8	-0.003600
1.050000E-8	-0.004292
1.055000E-8	-0.004892
1.060000E-8	-0.005355
1.065000E-8	-0.005642
1.070000E-8	-0.005731
1.075000E-8	-0.005591
1.080000E-8	-0.005234
1.085000E-8	-0.004781
1.090000E-8	-0.004116
1.095000E-8	-0.003277
1.100000E-8	-0.002417
1.105000E-8	-0.001598
1.110000E-8	-0.000713
1.115000E-8	3.125000E-5
1.120000E-8	0.000653
1.125000E-8	0.001219
1.130000E-8	0.001513
1.135000E-8	0.001655
1.140000E-8	0.001553
1.145000E-8	0.001211
1.150000E-8	0.000705
1.155000E-8	0.000153
1.160000E-8	-0.000570
1.165000E-8	-0.001392
1.170000E-8	-0.002178
1.175000E-8	-0.002900
1.180000E-8	-0.003614
1.185000E-8	-0.004119
1.190000E-8	-0.004466
1.195000E-8	-0.004619
1.200000E-8	-0.004638
1.205000E-8	-0.004333
1.210000E-8	-0.003944
1.215000E-8	-0.003363
1.220000E-8	-0.002619
1.225000E-8	-0.001867
1.230000E-8	-0.000998
1.235000E-8	-0.000139
1.240000E-8	0.000634
1.245000E-8	0.001345
1.250000E-8	0.001834
1.255000E-8	0.002216
1.260000E-8	0.002388
1.265000E-8	0.002342
1.270000E-8	0.002147
1.275000E-8	0.001766
1.280000E-8	0.001175
1.285000E-8	0.000431
1.290000E-8	-0.000342
1.295000E-8	-0.001086
1.300000E-8	-0.001825
1.305000E-8	-0.002430
1.310000E-8	-0.002927
1.315000E-8	-0.003291
1.320000E-8	-0.003478
1.325000E-8	-0.003400
1.330000E-8	-0.003177
1.335000E-8	-0.002737
1.340000E-8	-0.002214
1.345000E-8	-0.001417
1.350000E-8	-0.000628
1.355000E-8	0.000217
1.360000E-8	0.000977
1.365000E-8	0.001736
1.370000E-8	0.002330
1.375000E-8	0.002830
1.380000E-8	0.003162
1.385000E-8	0.003252
1.390000E-8	0.003181
1.395000E-8	0.002845
1.400000E-8	0.002413
1.405000E-8	0.001745
1.410000E-8	0.001089
1.415000E-8	0.000266
1.420000E-8	-0.000542
1.425000E-8	-0.001317
1.430000E-8	-0.002069
1.435000E-8	-0.002586
1.440000E-8	-0.003009
1.445000E-8	-0.003206
1.450000E-8	-0.003139
1.455000E-8	-0.002952
1.460000E-8	-0.002564
1.465000E-8	-0.001977
1.470000E-8	-0.001319
1.475000E-8	-0.000472
1.480000E-8	0.000320
1.485000E-8	0.001100
1.490000E-8	0.001838
1.495000E-8	0.002498
1.500000E-8	0.002989
1.505000E-8	0.003339
1.510000E-8	0.003531
1.515000E-8	0.003486
1.520000E-8	0.003197
1.525000E-8	0.002806
1.530000E-8	0.002197
1.535000E-8	0.001491
1.540000E-8	0.000809
1.545000E-8	8.593750E-5
1.550000E-8	-0.000653
1.555000E-8	-0.001263
1.560000E-8	-0.001805
1.565000E-8	-0.002152
1.570000E-8	-0.002361
1.575000E-8	-0.002348
1.580000E-8	-0.002197
1.585000E-8	-0.001756
1.590000E-8	-0.001170
1.595000E-8	-0.000461
1.600000E-8	0.000298
1.605000E-8	0.001128
1.610000E-8	0.001906
1.615000E-8	0.002634
1.620000E-8	0.003252
1.625000E-8	0.003688
1.630000E-8	0.003955
1.635000E-8	0.003983
1.640000E-8	0.003895
1.645000E-8	0.003634
1.650000E-8	0.003189
1.655000E-8	0.002639
1.660000E-8	0.002012
1.665000E-8	0.001377
1.670000E-8	0.000686
1.675000E-8	8.125000E-5
1.680000E-8	-0.000430
1.685000E-8	-0.000852
1.690000E-8	-0.001208
1.695000E-8	-0.001389
1.700000E-8	-0.001447
1.705000E-8	-0.001305
1.710000E-8	-0.001031
1.715000E-8	-0.000544
1.720000E-8	3.593750E-5
1.725000E-8	0.000652
1.730000E-8	0.001386
1.735000E-8	0.002078
1.740000E-8	0.002775
1.745000E-8	0.003352
1.750000E-8	0.003777
1.755000E-8	0.004069
1.760000E-8	0.004216
1.765000E-8	0.004116
1.770000E-8	0.003831
1.775000E-8	0.003433
1.780000E-8	0.002783
1.785000E-8	0.002131
1.790000E-8	0.001319
1.795000E-8	0.000503
1.800000E-8	-0.000289
1.805000E-8	-0.000870
1.810000E-8	-0.001439
1.815000E-8	-0.001802
1.820000E-8	-0.001914
1.825000E-8	-0.001848
1.830000E-8	-0.001614
1.835000E-8	-0.001234
1.840000E-8	-0.000727
1.845000E-8	-2.187500E-5
1.850000E-8	0.000670
1.855000E-8	0.001423
1.860000E-8	0.002100
1.865000E-8	0.002739
1.870000E-8	0.003278
1.875000E-8	0.003744
1.880000E-8	0.003984
1.885000E-8	0.004108
1.890000E-8	0.003978
1.895000E-8	0.003786
1.900000E-8	0.003392
1.905000E-8	0.002866
1.910000E-8	0.002253
1.915000E-8	0.001522
1.920000E-8	0.000869
1.925000E-8	0.000195
1.930000E-8	-0.000333
1.935000E-8	-0.000778
1.940000E-8	-0.001119
1.945000E-8	-0.001205
1.950000E-8	-0.001209
1.955000E-8	-0.000984
1.960000E-8	-0.000656
1.965000E-8	-0.000205
1.970000E-8	0.000316
1.975000E-8	0.000917
1.980000E-8	0.001553
1.985000E-8	0.002161
1.990000E-8	0.002750
1.995000E-8	0.003266
2.000000E-8	0.003587
2.005000E-8	0.003856
2.010000E-8	0.003892
2.015000E-8	0.003931
2.020000E-8	0.003688
2.025000E-8	0.003370
2.030000E-8	0.002911
2.035000E-8	0.002391
2.040000E-8	0.001752
2.045000E-8	0.001094
2.050000E-8	0.000491
2.055000E-8	-9.687500E-5
2.060000E-8	-0.000664
2.065000E-8	-0.000980
2.070000E-8	-0.001213
2.075000E-8	-0.001270
2.080000E-8	-0.001120
2.085000E-8	-0.000834
2.090000E-8	-0.000456
2.095000E-8	9.375000E-5
2.100000E-8	0.000714
2.105000E-8	0.001359
2.110000E-8	0.001959
2.115000E-8	0.002580
2.120000E-8	0.003091
2.125000E-8	0.003447
2.130000E-8	0.003656
2.135000E-8	0.003773
2.140000E-8	0.003744
2.145000E-8	0.003620
2.150000E-8	0.003356
2.155000E-8	0.002961
2.160000E-8	0.002512
2.165000E-8	0.001972
2.170000E-8	0.001381
2.175000E-8	0.000888
2.180000E-8	0.000397
2.185000E-8	6.093750E-5
2.190000E-8	-0.000323
2.195000E-8	-0.000464
2.200000E-8	-0.000559
2.205000E-8	-0.000483
2.210000E-8	-0.000339
2.215000E-8	-9.218750E-5
2.220000E-8	0.000372
2.225000E-8	0.000867
2.230000E-8	0.001409
2.235000E-8	0.002067
2.240000E-8	0.002653
2.245000E-8	0.003148
2.250000E-8	0.003527
2.255000E-8	0.003925
2.260000E-8	0.004103
2.265000E-8	0.004048
2.270000E-8	0.003913
2.275000E-8	0.003725
2.280000E-8	0.003263
2.285000E-8	0.002728
2.290000E-8	0.002144
2.295000E-8	0.001459
2.300000E-8	0.000802
2.305000E-8	0.000253
2.310000E-8	-0.000280
2.315000E-8	-0.000652
2.320000E-8	-0.000883
2.325000E-8	-0.000947
2.330000E-8	-0.000888
2.335000E-8	-0.000645
2.340000E-8	-0.000172
2.345000E-8	0.000331
2.350000E-8	0.000838
2.355000E-8	0.001597
2.360000E-8	0.002128
2.365000E-8	0.002753
2.370000E-8	0.003189
2.375000E-8	0.003630
2.380000E-8	0.003848
2.385000E-8	0.004016
2.390000E-8	0.003956
2.395000E-8	0.003822
2.400000E-8	0.003416
2.405000E-8	0.003009
2.410000E-8	0.002428
2.415000E-8	0.001794
2.420000E-8	0.001088
2.425000E-8	0.000534
2.430000E-8	0.000000
2.435000E-8	-0.000391
2.440000E-8	-0.000669
2.445000E-8	-0.000820
2.450000E-8	-0.000748
2.455000E-8	-0.000516
2.460000E-8	-0.000239
2.465000E-8	0.000164
2.470000E-8	0.000689
2.475000E-8	0.001178
2.480000E-8	0.001684
2.485000E-8	0.002302
2.490000E-8	0.002766
2.495000E-8	0.003239
2.500000E-8	0.003606
2.505000E-8	0.003908
2.510000E-8	0.004020
2.515000E-8	0.004087
2.520000E-8	0.003917
2.525000E-8	0.003647
2.530000E-8	0.003273
2.535000E-8	0.002836
2.540000E-8	0.002258
2.545000E-8	0.001738
2.550000E-8	0.001097
2.555000E-8	0.000537
2.560000E-8	8.125000E-5
2.565000E-8	-0.000359
2.570000E-8	-0.000569
2.575000E-8	-0.000684
2.580000E-8	-0.000588
2.585000E-8	-0.000364
2.590000E-8	-3.125000E-6
2.595000E-8	0.000456
2.600000E-8	0.000938
2.605000E-8	0.001555
2.610000E-8	0.002039
2.615000E-8	0.002606
2.620000E-8	0.003011
2.625000E-8	0.003423
2.630000E-8	0.003659
2.635000E-8	0.003767
2.640000E-8	0.003722
2.645000E-8	0.003580
2.650000E-8	0.003333
2.655000E-8	0.003017
2.660000E-8	0.002536
2.665000E-8	0.002073
2.670000E-8	0.001564
2.675000E-8	0.001105
2.680000E-8	0.000527
2.685000E-8	0.000177
2.690000E-8	-0.000111
2.695000E-8	-0.000319
2.700000E-8	-0.000425
2.705000E-8	-0.000347
2.710000E-8	-0.000188
2.715000E-8	0.000131
2.720000E-8	0.000506
2.725000E-8	0.001005
2.730000E-8	0.001508
2.735000E-8	0.002083
2.740000E-8	0.002597
2.745000E-8	0.003102
2.750000E-8	0.003488
2.755000E-8	0.003736
2.760000E-8	0.003839
2.765000E-8	0.003931
2.770000E-8	0.003758
2.775000E-8	0.003566
2.780000E-8	0.003270
2.785000E-8	0.002845
2.790000E-8	0.002430
2.795000E-8	0.002020
2.800000E-8	0.001569
2.805000E-8	0.001091
2.810000E-8	0.000733
2.815000E-8	0.000505
2.820000E-8	0.000244
2.825000E-8	0.000175
2.830000E-8	0.000248
2.835000E-8	0.000383
2.840000E-8	0.000655
2.845000E-8	0.000980
2.850000E-8	0.001392
2.855000E-8	0.001861
2.860000E-8	0.002244
2.865000E-8	0.002647
2.870000E-8	0.003002
2.875000E-8	0.003259
2.880000E-8	0.003512
2.885000E-8	0.003587
2.890000E-8	0.003584
2.895000E-8	0.003442
2.900000E-8	0.003295
2.905000E-8	0.003045
2.910000E-8	0.002652
2.915000E-8	0.002305
2.920000E-8	0.001833
2.925000E-8	0.001394
2.930000E-8	0.000956
2.935000E-8	0.000552
2.940000E-8	0.000172
2.945000E-8	-8.906250E-5
2.950000E-8	-0.000256
2.955000E-8	-0.000194
2.960000E-8	-0.000172
2.965000E-8	8.593750E-5
2.970000E-8	0.000313
2.975000E-8	0.000744
2.980000E-8	0.001225
2.985000E-8	0.001736
2.990000E-8	0.002164
2.995000E-8	0.002700
3.000000E-8	0.003122
3.005000E-8	0.003411
3.010000E-8	0.003622
3.015000E-8	0.003767
3.020000E-8	0.003713
3.025000E-8	0.003441
3.030000E-8	0.003127
3.035000E-8	0.002745
3.040000E-8	0.002272
3.045000E-8	0.001700
3.050000E-8	0.001152
3.055000E-8	0.000675
3.060000E-8	0.000287
3.065000E-8	-1.250000E-5
3.070000E-8	-0.000166
3.075000E-8	-0.000237
3.080000E-8	-0.000284
3.085000E-8	-7.031250E-5
3.090000E-8	0.000200
3.095000E-8	0.000612
3.100000E-8	0.001084
3.105000E-8	0.001547
3.110000E-8	0.002036
3.115000E-8	0.002511
3.120000E-8	0.002873
3.125000E-8	0.003236
3.130000E-8	0.003400
3.135000E-8	0.003531
3.140000E-8	0.003677
3.145000E-8	0.003548
3.150000E-8	0.003402
3.155000E-8	0.003145
3.160000E-8	0.002709
3.165000E-8	0.002336
3.170000E-8	0.001848
3.175000E-8	0.001414
3.180000E-8	0.000969
3.185000E-8	0.000603
3.190000E-8	0.000300
3.195000E-8	0.000106
3.200000E-8	-3.906250E-5
3.205000E-8	1.562500E-6
3.210000E-8	8.125000E-5
3.215000E-8	0.000328
3.220000E-8	0.000563
3.225000E-8	0.000964
3.230000E-8	0.001347
3.235000E-8	0.001784
3.240000E-8	0.002152
3.245000E-8	0.002547
3.250000E-8	0.002828
3.255000E-8	0.003120
3.260000E-8	0.003259
3.265000E-8	0.003331
3.270000E-8	0.003338
3.275000E-8	0.003234
3.280000E-8	0.002986
3.285000E-8	0.002634
3.290000E-8	0.002264
3.295000E-8	0.001808
3.300000E-8	0.001311
3.305000E-8	0.000989
3.310000E-8	0.000620
3.315000E-8	0.000336
3.320000E-8	9.531250E-5
3.325000E-8	3.906250E-5
3.330000E-8	4.531250E-5
3.335000E-8	0.000216
3.340000E-8	0.000427
3.345000E-8	0.000737
3.350000E-8	0.001120
3.355000E-8	0.001572
3.360000E-8	0.001980
3.365000E-8	0.002364
3.370000E-8	0.002791
3.375000E-8	0.003050
3.380000E-8	0.003245
3.385000E-8	0.003384
3.390000E-8	0.003358
3.395000E-8	0.003250
3.400000E-8	0.002992
3.405000E-8	0.002694
3.410000E-8	0.002378
3.415000E-8	0.002012
3.420000E-8	0.001628
3.425000E-8	0.001252
3.430000E-8	0.000917
3.435000E-8	0.000633
3.440000E-8	0.000378
3.445000E-8	0.000267
3.450000E-8	0.000105
3.455000E-8	0.000122
3.460000E-8	0.000230
3.465000E-8	0.000430
3.470000E-8	0.000594
3.475000E-8	0.000986
3.480000E-8	0.001231
3.485000E-8	0.001581
3.490000E-8	0.001916
3.495000E-8	0.002259
3.500000E-8	0.002517
3.505000E-8	0.002814
3.510000E-8	0.002961
3.515000E-8	0.003045
3.520000E-8	0.003120
3.525000E-8	0.002978
3.530000E-8	0.002820
3.535000E-8	0.002670
3.540000E-8	0.002255
3.545000E-8	0.001905
3.550000E-8	0.001508
3.555000E-8	0.001175
3.560000E-8	0.000798
3.565000E-8	0.000461
3.570000E-8	0.000239
3.575000E-8	0.000113
3.580000E-8	3.125000E-5
3.585000E-8	0.000111
3.590000E-8	0.000248
3.595000E-8	0.000492
3.600000E-8	0.000819
3.605000E-8	0.001213
3.610000E-8	0.001542
3.615000E-8	0.001981
3.620000E-8	0.002355
3.625000E-8	0.002720
3.630000E-8	0.002955
3.635000E-8	0.003209
3.640000E-8	0.003238
3.645000E-8	0.003219
3.650000E-8	0.003041
3.655000E-8	0.002848
3.660000E-8	0.002592
3.665000E-8	0.002267
3.670000E-8	0.001884
3.675000E-8	0.001525
3.680000E-8	0.001161
3.685000E-8	0.000855
3.690000E-8	0.000536
3.695000E-8	0.000353
3.700000E-8	0.000203
3.705000E-8	0.000252
3.710000E-8	0.000253
3.715000E-8	0.000350
3.720000E-8	0.000494
3.725000E-8	0.000858
3.730000E-8	0.001144
3.735000E-8	0.001508
3.740000E-8	0.001919
3.745000E-8	0.002303
3.750000E-8	0.002672
3.755000E-8	0.003030
3.760000E-8	0.003180
3.765000E-8	0.003344
3.770000E-8	0.003328
3.775000E-8	0.003289
3.780000E-8	0.003052
3.785000E-8	0.002802
3.790000E-8	0.002445
3.795000E-8	0.002070
3.800000E-8	0.001666
3.805000E-8	0.001261
3.810000E-8	0.000933
3.815000E-8	0.000642
3.820000E-8	0.000373
3.825000E-8	0.000206
3.830000E-8	0.000195
3.835000E-8	0.000261
3.840000E-8	0.000366
3.845000E-8	0.000598
3.850000E-8	0.000866
3.855000E-8	0.001180
3.860000E-8	0.001481
3.865000E-8	0.001861
3.870000E-8	0.002177
3.875000E-8	0.002503
3.880000E-8	0.002722
3.885000E-8	0.002961
3.890000E-8	0.003025
3.895000E-8	0.003042
3.900000E-8	0.002956
3.905000E-8	0.002828
3.910000E-8	0.002609
3.915000E-8	0.002319
3.920000E-8	0.001944
3.925000E-8	0.001700
3.930000E-8	0.001362
3.935000E-8	0.001061
3.940000E-8	0.000752
3.945000E-8	0.000570
3.950000E-8	0.000412
3.955000E-8	0.000350
3.960000E-8	0.000350
3.965000E-8	0.000500
3.970000E-8	0.000577
3.975000E-8	0.000878
3.980000E-8	0.001194
3.985000E-8	0.001573
3.990000E-8	0.001967
3.995000E-8	0.002261
4.000000E-8	0.002528
4.005000E-8	0.002819
4.010000E-8	0.002980
4.015000E-8	0.003091
4.020000E-8	0.003108
4.025000E-8	0.003108
4.030000E-8	0.002933
4.035000E-8	0.002786
4.040000E-8	0.002538
4.045000E-8	0.002253
4.050000E-8	0.001958
4.055000E-8	0.001606
4.060000E-8	0.001362
4.065000E-8	0.001091
4.070000E-8	0.000909
4.075000E-8	0.000698
4.080000E-8	0.000631
4.085000E-8	0.000634
4.090000E-8	0.000703
4.095000E-8	0.000900
4.100000E-8	0.001084
4.105000E-8	0.001378
4.110000E-8	0.001691
4.115000E-8	0.001880
4.120000E-8	0.002231
4.125000E-8	0.002539
4.130000E-8	0.002748
4.135000E-8	0.002972
4.140000E-8	0.003108
4.145000E-8	0.003255
4.150000E-8	0.003291
4.155000E-8	0.003125
4.160000E-8	0.002928
4.165000E-8	0.002680
4.170000E-8	0.002308
4.175000E-8	0.001947
4.180000E-8	0.001586
4.185000E-8	0.001239
4.190000E-8	0.000991
4.195000E-8	0.000747
4.200000E-8	0.000602
4.205000E-8	0.000605
4.210000E-8	0.000589
4.215000E-8	0.000753
4.220000E-8	0.000934
4.225000E-8	0.001203
4.230000E-8	0.001409
4.235000E-8	0.001663
4.240000E-8	0.001925
4.245000E-8	0.002200
4.250000E-8	0.002408
4.255000E-8	0.002623
4.260000E-8	0.002717
4.265000E-8	0.002875
4.270000E-8	0.002822
4.275000E-8	0.002792
4.280000E-8	0.002639
4.285000E-8	0.002445
4.290000E-8	0.002130
4.295000E-8	0.001841
4.300000E-8	0.001495
4.305000E-8	0.001248
4.310000E-8	0.000944
4.315000E-8	0.000798
4.320000E-8	0.000673
4.325000E-8	0.000586
4.330000E-8	0.000592
4.335000E-8	0.000664
4.340000E-8	0.000791
4.345000E-8	0.000881
4.350000E-8	0.001027
4.355000E-8	0.001300
4.360000E-8	0.001548
4.365000E-8	0.001817
4.370000E-8	0.002012
4.375000E-8	0.002242
4.380000E-8	0.002436
4.385000E-8	0.002659
4.390000E-8	0.002792
4.395000E-8	0.002831
4.400000E-8	0.002906
4.405000E-8	0.002864
4.410000E-8	0.002752
4.415000E-8	0.002555
4.420000E-8	0.002311
4.425000E-8	0.001975
4.430000E-8	0.001792
4.435000E-8	0.001528
4.440000E-8	0.001280
4.445000E-8	0.000967
4.450000E-8	0.000845
4.455000E-8	0.000770
4.460000E-8	0.000708
4.465000E-8	0.000808
4.470000E-8	0.000870
4.475000E-8	0.001098
4.480000E-8	0.001306
4.485000E-8	0.001570
4.490000E-8	0.001817
4.495000E-8	0.002055
4.500000E-8	0.002288
4.505000E-8	0.002509
4.510000E-8	0.002625
4.515000E-8	0.002781
4.520000E-8	0.002675
4.525000E-8	0.002628
4.530000E-8	0.002486
4.535000E-8	0.002330
4.540000E-8	0.002167
4.545000E-8	0.001898
4.550000E-8	0.001648
4.555000E-8	0.001425
4.560000E-8	0.001169
4.565000E-8	0.001059
4.570000E-8	0.000886
4.575000E-8	0.000777
4.580000E-8	0.000734
4.585000E-8	0.000775
4.590000E-8	0.000842
4.595000E-8	0.001061
4.600000E-8	0.001180
4.605000E-8	0.001459
4.610000E-8	0.001678
4.615000E-8	0.001947
4.620000E-8	0.002072
4.625000E-8	0.002363
4.630000E-8	0.002478
4.635000E-8	0.002630
4.640000E-8	0.002734
4.645000E-8	0.002673
4.650000E-8	0.002666
4.655000E-8	0.002594
4.660000E-8	0.002450
4.665000E-8	0.002289
4.670000E-8	0.002080
4.675000E-8	0.001881
4.680000E-8	0.001638
4.685000E-8	0.001417
4.690000E-8	0.001219
4.695000E-8	0.001017
4.700000E-8	0.000955
4.705000E-8	0.000911
4.710000E-8	0.000981
4.715000E-8	0.000942
4.720000E-8	0.001064
4.725000E-8	0.001209
4.730000E-8	0.001352
4.735000E-8	0.001553
4.740000E-8	0.001816
4.745000E-8	0.002025
4.750000E-8	0.002298
4.755000E-8	0.002484
4.760000E-8	0.002611
4.765000E-8	0.002692
4.770000E-8	0.002725
4.775000E-8	0.002717
4.780000E-8	0.002589
4.785000E-8	0.002406
4.790000E-8	0.002234
4.795000E-8	0.002044
4.800000E-8	0.001802
4.805000E-8	0.001520
4.810000E-8	0.001286
4.815000E-8	0.001017
4.820000E-8	0.000822
4.825000E-8	0.000705
4.830000E-8	0.000648
4.835000E-8	0.000639
4.840000E-8	0.000666
4.845000E-8	0.000833
4.850000E-8	0.001027
4.855000E-8	0.001231
4.860000E-8	0.001536
4.865000E-8	0.001816
4.870000E-8	0.002116
4.875000E-8	0.002402
4.880000E-8	0.002628
4.885000E-8	0.002858
4.890000E-8	0.002905
4.895000E-8	0.003034
4.900000E-8	0.002998
4.905000E-8	0.002970
4.910000E-8	0.002783
4.915000E-8	0.002591
4.920000E-8	0.002378
4.925000E-8	0.002111
4.930000E-8	0.001900
4.935000E-8	0.001706
4.940000E-8	0.001475
4.945000E-8	0.001344
4.950000E-8	0.001155
4.955000E-8	0.001042
4.960000E-8	0.001048
4.965000E-8	0.001078
4.970000E-8	0.001205
4.975000E-8	0.001377
4.980000E-8	0.001552
4.985000E-8	0.001770
4.990000E-8	0.001988
4.995000E-8	0.002213
5.000000E-8	0.002398
5.005000E-8	0.002528
5.010000E-8	0.002655
5.015000E-8	0.002750
5.020000E-8	0.002758
5.025000E-8	0.002661
5.030000E-8	0.002594
5.035000E-8	0.002494
5.040000E-8	0.002275
5.045000E-8	0.002097
5.050000E-8	0.001870
5.055000E-8	0.001645
5.060000E-8	0.001478
5.065000E-8	0.001217
5.070000E-8	0.000977
5.075000E-8	0.000844
5.080000E-8	0.000734
5.085000E-8	0.000702
5.090000E-8	0.000720
5.095000E-8	0.000827
5.100000E-8	0.000925
5.105000E-8	0.001116
5.110000E-8	0.001353
5.115000E-8	0.001595
5.120000E-8	0.001838
5.125000E-8	0.002070
5.130000E-8	0.002222
5.135000E-8	0.002414
5.140000E-8	0.002480
5.145000E-8	0.002545
5.150000E-8	0.002498
5.155000E-8	0.002445
5.160000E-8	0.002322
5.165000E-8	0.002173
5.170000E-8	0.002022
5.175000E-8	0.001950
5.180000E-8	0.001781
5.185000E-8	0.001591
5.190000E-8	0.001413
5.195000E-8	0.001220
5.200000E-8	0.001011
5.205000E-8	0.000941
5.210000E-8	0.000881
5.215000E-8	0.000831
5.220000E-8	0.000895
5.225000E-8	0.001098
5.230000E-8	0.001222
5.235000E-8	0.001523
5.240000E-8	0.001723
5.245000E-8	0.002053
5.250000E-8	0.002270
5.255000E-8	0.002494
5.260000E-8	0.002664
5.265000E-8	0.002777
5.270000E-8	0.002761
5.275000E-8	0.002816
5.280000E-8	0.002719
5.285000E-8	0.002553
5.290000E-8	0.002242
5.295000E-8	0.002056
5.300000E-8	0.001847
5.305000E-8	0.001519
5.310000E-8	0.001352
5.315000E-8	0.001152
5.320000E-8	0.000959
5.325000E-8	0.000848
5.330000E-8	0.000766
5.335000E-8	0.000730
5.340000E-8	0.000730
5.345000E-8	0.000791
5.350000E-8	0.001012
5.355000E-8	0.001148
5.360000E-8	0.001325
5.365000E-8	0.001563
5.370000E-8	0.001828
5.375000E-8	0.002003
5.380000E-8	0.002277
5.385000E-8	0.002437
5.390000E-8	0.002559
5.395000E-8	0.002673
5.400000E-8	0.002644
5.405000E-8	0.002644
5.410000E-8	0.002461
5.415000E-8	0.002244
5.420000E-8	0.002063
5.425000E-8	0.001811
5.430000E-8	0.001544
5.435000E-8	0.001367
5.440000E-8	0.001183
5.445000E-8	0.001011
5.450000E-8	0.000923
5.455000E-8	0.000864
5.460000E-8	0.000911
5.465000E-8	0.000981
5.470000E-8	0.001045
5.475000E-8	0.001244
5.480000E-8	0.001383
5.485000E-8	0.001527
5.490000E-8	0.001620
5.495000E-8	0.001741
5.500000E-8	0.001884
5.505000E-8	0.002020
5.510000E-8	0.002139
5.515000E-8	0.002197
5.520000E-8	0.002241
5.525000E-8	0.002319
5.530000E-8	0.002206
5.535000E-8	0.002242
5.540000E-8	0.002083
5.545000E-8	0.001975
5.550000E-8	0.001819
5.555000E-8	0.001609
5.560000E-8	0.001397
5.565000E-8	0.001253
5.570000E-8	0.001033
5.575000E-8	0.000864
5.580000E-8	0.000778
5.585000E-8	0.000788
5.590000E-8	0.000764
5.595000E-8	0.000814
5.600000E-8	0.000933
5.605000E-8	0.001077
5.610000E-8	0.001220
5.615000E-8	0.001372
5.620000E-8	0.001652
5.625000E-8	0.001816
5.630000E-8	0.001983
5.635000E-8	0.002122
5.640000E-8	0.002253
5.645000E-8	0.002289
5.650000E-8	0.002239
5.655000E-8	0.002255
5.660000E-8	0.002177
5.665000E-8	0.001994
5.670000E-8	0.001827
5.675000E-8	0.001686
5.680000E-8	0.001580
5.685000E-8	0.001411
5.690000E-8	0.001236
5.695000E-8	0.001161
5.700000E-8	0.000972
5.705000E-8	0.000906
5.710000E-8	0.000913
5.715000E-8	0.000927
5.720000E-8	0.001061
5.725000E-8	0.001223
5.730000E-8	0.001409
5.735000E-8	0.001627
5.740000E-8	0.001870
5.745000E-8	0.002067
5.750000E-8	0.002230
5.755000E-8	0.002409
5.760000E-8	0.002534
5.765000E-8	0.002598
5.770000E-8	0.002580
5.775000E-8	0.002606
5.780000E-8	0.002538
5.785000E-8	0.002516
5.790000E-8	0.002398
5.795000E-8	0.002197
5.800000E-8	0.002084
5.805000E-8	0.001934
5.810000E-8	0.001739
5.815000E-8	0.001516
5.820000E-8	0.001367
5.825000E-8	0.001167
5.830000E-8	0.001039
5.835000E-8	0.000945
5.840000E-8	0.000873
5.845000E-8	0.000877
5.850000E-8	0.000964
5.855000E-8	0.001144
5.860000E-8	0.001295
5.865000E-8	0.001519
5.870000E-8	0.001761
5.875000E-8	0.001995
5.880000E-8	0.002142
5.885000E-8	0.002336
5.890000E-8	0.002489
5.895000E-8	0.002533
5.900000E-8	0.002533
5.905000E-8	0.002563
5.910000E-8	0.002431
5.915000E-8	0.002389
5.920000E-8	0.002233
5.925000E-8	0.002078
5.930000E-8	0.001827
5.935000E-8	0.001602
5.940000E-8	0.001370
5.945000E-8	0.001213
5.950000E-8	0.001000
5.955000E-8	0.000870
5.960000E-8	0.000852
5.965000E-8	0.000861
5.970000E-8	0.000914
5.975000E-8	0.001053
5.980000E-8	0.001259
5.985000E-8	0.001453
5.990000E-8	0.001669
5.995000E-8	0.001903
6.000000E-8	0.002106
6.005000E-8	0.002283
6.010000E-8	0.002452
6.015000E-8	0.002617
6.020000E-8	0.002680
6.025000E-8	0.002736
6.030000E-8	0.002716
6.035000E-8	0.002662
6.040000E-8	0.002555
6.045000E-8	0.002392
6.050000E-8	0.002189
6.055000E-8	0.002009
6.060000E-8	0.001772
6.065000E-8	0.001623
6.070000E-8	0.001405
6.075000E-8	0.001294
6.080000E-8	0.001209
6.085000E-8	0.001153
6.090000E-8	0.001202
6.095000E-8	0.001217
6.100000E-8	0.001248
6.105000E-8	0.001347
6.110000E-8	0.001436
6.115000E-8	0.001578
6.120000E-8	0.001687
6.125000E-8	0.001848
6.130000E-8	0.001969
6.135000E-8	0.002066
6.140000E-8	0.002194
6.145000E-8	0.002275
6.150000E-8	0.002270
6.155000E-8	0.002289
6.160000E-8	0.002162
6.165000E-8	0.002094
6.170000E-8	0.001937
6.175000E-8	0.001758
6.180000E-8	0.001583
6.185000E-8	0.001500
6.190000E-8	0.001298
6.195000E-8	0.001167
6.200000E-8	0.001070
6.205000E-8	0.001034
6.210000E-8	0.000991
6.215000E-8	0.001039
6.220000E-8	0.001056
6.225000E-8	0.001122
6.230000E-8	0.001209
6.235000E-8	0.001323
6.240000E-8	0.001522
6.245000E-8	0.001709
6.250000E-8	0.001788
6.255000E-8	0.002053
6.260000E-8	0.002158
6.265000E-8	0.002472
6.270000E-8	0.002598
6.275000E-8	0.002739
6.280000E-8	0.002731
6.285000E-8	0.002742
6.290000E-8	0.002628
6.295000E-8	0.002444
6.300000E-8	0.002248
6.305000E-8	0.001902
6.310000E-8	0.001659
6.315000E-8	0.001431
6.320000E-8	0.001141
6.325000E-8	0.001003
6.330000E-8	0.000861
6.335000E-8	0.000811
6.340000E-8	0.000830
6.345000E-8	0.000963
6.350000E-8	0.001109
6.355000E-8	0.001259
6.360000E-8	0.001458
6.365000E-8	0.001680
6.370000E-8	0.001888
6.375000E-8	0.002092
6.380000E-8	0.002250
6.385000E-8	0.002430
6.390000E-8	0.002509
6.395000E-8	0.002572
6.400000E-8	0.002528
6.405000E-8	0.002502
6.410000E-8	0.002472
6.415000E-8	0.002377
6.420000E-8	0.002295
6.425000E-8	0.002184
6.430000E-8	0.002030
6.435000E-8	0.001909
6.440000E-8	0.001764
6.445000E-8	0.001630
6.450000E-8	0.001516
6.455000E-8	0.001380
6.460000E-8	0.001253
6.465000E-8	0.001206
6.470000E-8	0.001152
6.475000E-8	0.001138
6.480000E-8	0.001239
6.485000E-8	0.001377
6.490000E-8	0.001458
6.495000E-8	0.001572
6.500000E-8	0.001783
6.505000E-8	0.001931
6.510000E-8	0.002103
6.515000E-8	0.002237
6.520000E-8	0.002273
6.525000E-8	0.002291
6.530000E-8	0.002248
6.535000E-8	0.002145
6.540000E-8	0.002003
6.545000E-8	0.001797
6.550000E-8	0.001594
6.555000E-8	0.001470
6.560000E-8	0.001317
6.565000E-8	0.001231
6.570000E-8	0.001133
6.575000E-8	0.001112
6.580000E-8	0.001108
6.585000E-8	0.001164
6.590000E-8	0.001202
6.595000E-8	0.001269
6.600000E-8	0.001339
6.605000E-8	0.001475
6.610000E-8	0.001578
6.615000E-8	0.001684
6.620000E-8	0.001773
6.625000E-8	0.001917
6.630000E-8	0.002023
6.635000E-8	0.002092
6.640000E-8	0.002162
6.645000E-8	0.002202
6.650000E-8	0.002194
6.655000E-8	0.002206
6.660000E-8	0.002209
6.665000E-8	0.002237
6.670000E-8	0.002205
6.675000E-8	0.002103
6.680000E-8	0.002048
6.685000E-8	0.001978
6.690000E-8	0.001870
6.695000E-8	0.001778
6.700000E-8	0.001673
6.705000E-8	0.001486
6.710000E-8	0.001423
6.715000E-8	0.001253
6.720000E-8	0.001206
6.725000E-8	0.001247
6.730000E-8	0.001298
6.735000E-8	0.001331
6.740000E-8	0.001414
6.745000E-8	0.001520
6.750000E-8	0.001659
6.755000E-8	0.001791
6.760000E-8	0.001927
6.765000E-8	0.002027
6.770000E-8	0.002056
6.775000E-8	0.002183
6.780000E-8	0.002188
6.785000E-8	0.002167
6.790000E-8	0.002073
6.795000E-8	0.002025
6.800000E-8	0.001808
6.805000E-8	0.001739
6.810000E-8	0.001570
6.815000E-8	0.001458
6.820000E-8	0.001366
6.825000E-8	0.001294
6.830000E-8	0.001263
6.835000E-8	0.001356
6.840000E-8	0.001308
6.845000E-8	0.001348
6.850000E-8	0.001419
6.855000E-8	0.001558
6.860000E-8	0.001600
6.865000E-8	0.001786
6.870000E-8	0.001842
6.875000E-8	0.001989
6.880000E-8	0.002058
6.885000E-8	0.002184
6.890000E-8	0.002236
6.895000E-8	0.002320
6.900000E-8	0.002309
6.905000E-8	0.002323
6.910000E-8	0.002242
6.915000E-8	0.002122
6.920000E-8	0.002027
6.925000E-8	0.001889
6.930000E-8	0.001775
6.935000E-8	0.001633
6.940000E-8	0.001517
6.945000E-8	0.001456
6.950000E-8	0.001372
6.955000E-8	0.001302
6.960000E-8	0.001267
6.965000E-8	0.001273
6.970000E-8	0.001269
6.975000E-8	0.001298
6.980000E-8	0.001388
6.985000E-8	0.001450
6.990000E-8	0.001509
6.995000E-8	0.001692
7.000000E-8	0.001739
7.005000E-8	0.001886
7.010000E-8	0.002002
7.015000E-8	0.002142
7.020000E-8	0.002211
7.025000E-8	0.002203
7.030000E-8	0.002253
7.035000E-8	0.002205
7.040000E-8	0.002141
7.045000E-8	0.002092
7.050000E-8	0.001867
7.055000E-8	0.001748
7.060000E-8	0.001641
7.065000E-8	0.001464
7.070000E-8	0.001333
7.075000E-8	0.001213
7.080000E-8	0.001142
7.085000E-8	0.001105
7.090000E-8	0.001023
7.095000E-8	0.001133
7.100000E-8	0.001252
7.105000E-8	0.001370
7.110000E-8	0.001473
7.115000E-8	0.001616
7.120000E-8	0.001711
7.125000E-8	0.001834
7.130000E-8	0.001959
7.135000E-8	0.002059
7.140000E-8	0.002170
7.145000E-8	0.002245
7.150000E-8	0.002308
7.155000E-8	0.002355
7.160000E-8	0.002313
7.165000E-8	0.002278
7.170000E-8	0.002213
7.175000E-8	0.002045
7.180000E-8	0.001930
7.185000E-8	0.001734
7.190000E-8	0.001650
7.195000E-8	0.001500
7.200000E-8	0.001356
7.205000E-8	0.001270
7.210000E-8	0.001192
7.215000E-8	0.001098
7.220000E-8	0.001111
7.225000E-8	0.001145
7.230000E-8	0.001170
7.235000E-8	0.001250
7.240000E-8	0.001308
7.245000E-8	0.001437
7.250000E-8	0.001595
7.255000E-8	0.001734
7.260000E-8	0.001763
7.265000E-8	0.001941
7.270000E-8	0.001969
7.275000E-8	0.002127
7.280000E-8	0.002178
7.285000E-8	0.002239
7.290000E-8	0.002205
7.295000E-8	0.002141
7.300000E-8	0.001980
7.305000E-8	0.001964
7.310000E-8	0.001736
7.315000E-8	0.001588
7.320000E-8	0.001425
7.325000E-8	0.001319
7.330000E-8	0.001158
7.335000E-8	0.001119
7.340000E-8	0.001058
7.345000E-8	0.001116
7.350000E-8	0.001152
7.355000E-8	0.001222
7.360000E-8	0.001292
7.365000E-8	0.001434
7.370000E-8	0.001430
7.375000E-8	0.001619
7.380000E-8	0.001747
7.385000E-8	0.001872
7.390000E-8	0.001963
7.395000E-8	0.002128
7.400000E-8	0.002155
7.405000E-8	0.002270
7.410000E-8	0.002219
7.415000E-8	0.002180
7.420000E-8	0.002123
7.425000E-8	0.002125
7.430000E-8	0.001939
7.435000E-8	0.001934
7.440000E-8	0.001792
7.445000E-8	0.001741
7.450000E-8	0.001597
7.455000E-8	0.001477
7.460000E-8	0.001406
7.465000E-8	0.001341
7.470000E-8	0.001344
7.475000E-8	0.001386
7.480000E-8	0.001439
7.485000E-8	0.001681
7.490000E-8	0.001708
7.495000E-8	0.001944
7.500000E-8	0.002125
7.505000E-8	0.002277
7.510000E-8	0.002369
7.515000E-8	0.002500
7.520000E-8	0.002494
7.525000E-8	0.002459
7.530000E-8	0.002433
7.535000E-8	0.002291
7.540000E-8	0.002170
7.545000E-8	0.001980
7.550000E-8	0.001883
7.555000E-8	0.001728
7.560000E-8	0.001577
7.565000E-8	0.001488
7.570000E-8	0.001383
7.575000E-8	0.001313
7.580000E-8	0.001278
7.585000E-8	0.001292
7.590000E-8	0.001263
7.595000E-8	0.001325
7.600000E-8	0.001356
7.605000E-8	0.001494
7.610000E-8	0.001523
7.615000E-8	0.001594
7.620000E-8	0.001669
7.625000E-8	0.001736
7.630000E-8	0.001820
7.635000E-8	0.001888
7.640000E-8	0.002047
7.645000E-8	0.002166
7.650000E-8	0.002203
7.655000E-8	0.002223
7.660000E-8	0.002214
7.665000E-8	0.002255
7.670000E-8	0.002192
7.675000E-8	0.002122
7.680000E-8	0.001825
7.685000E-8	0.001616
7.690000E-8	0.001473
7.695000E-8	0.001320
7.700000E-8	0.001186
7.705000E-8	0.001109
7.710000E-8	0.001097
7.715000E-8	0.001184
7.720000E-8	0.001250
7.725000E-8	0.001317
7.730000E-8	0.001414
7.735000E-8	0.001528
7.740000E-8	0.001566
7.745000E-8	0.001672
7.750000E-8	0.001753
7.755000E-8	0.001805
7.760000E-8	0.001830
7.765000E-8	0.001944
7.770000E-8	0.001959
7.775000E-8	0.002048
7.780000E-8	0.002028
7.785000E-8	0.002134
7.790000E-8	0.002166
7.795000E-8	0.002125
7.800000E-8	0.002158
7.805000E-8	0.002141
7.810000E-8	0.002053
7.815000E-8	0.001942
7.820000E-8	0.001848
7.825000E-8	0.001700
7.830000E-8	0.001623
7.835000E-8	0.001581
7.840000E-8	0.001503
7.845000E-8	0.001494
7.850000E-8	0.001528
7.855000E-8	0.001555
7.860000E-8	0.001653
7.865000E-8	0.001708
7.870000E-8	0.001725
7.875000E-8	0.001852
7.880000E-8	0.001898
7.885000E-8	0.001937
7.890000E-8	0.001927
7.895000E-8	0.002019
7.900000E-8	0.002019
7.905000E-8	0.002025
7.910000E-8	0.002048
7.915000E-8	0.002019
7.920000E-8	0.001850
7.925000E-8	0.001794
7.930000E-8	0.001733
7.935000E-8	0.001658
7.940000E-8	0.001542
7.945000E-8	0.001483
7.950000E-8	0.001377
7.955000E-8	0.001294
7.960000E-8	0.001267
7.965000E-8	0.001306
7.970000E-8	0.001362
7.975000E-8	0.001417
7.980000E-8	0.001491
7.985000E-8	0.001570
7.990000E-8	0.001684
7.995000E-8	0.001803
8.000000E-8	0.001884
8.005000E-8	0.001972
8.010000E-8	0.002005
8.015000E-8	0.002108
8.020000E-8	0.002145
8.025000E-8	0.002206
8.030000E-8	0.002219
8.035000E-8	0.002319
8.040000E-8	0.002281
8.045000E-8	0.002208
8.050000E-8	0.002136
8.055000E-8	0.001995
8.060000E-8	0.001763
8.065000E-8	0.001627
8.070000E-8	0.001494
8.075000E-8	0.001417
8.080000E-8	0.001327
8.085000E-8	0.001275
8.090000E-8	0.001347
8.095000E-8	0.001423
8.100000E-8	0.001481
8.105000E-8	0.001655
8.110000E-8	0.001805
8.115000E-8	0.001928
8.120000E-8	0.002039
8.125000E-8	0.002038
8.130000E-8	0.002117
8.135000E-8	0.002194
8.140000E-8	0.002244
8.145000E-8	0.002233
8.150000E-8	0.002284
8.155000E-8	0.002361
8.160000E-8	0.002245
8.165000E-8	0.002214
8.170000E-8	0.002172
8.175000E-8	0.002142
8.180000E-8	0.002016
8.185000E-8	0.001864
8.190000E-8	0.001756
8.195000E-8	0.001663
8.200000E-8	0.001556
8.205000E-8	0.001441
8.210000E-8	0.001416
8.215000E-8	0.001441
8.220000E-8	0.001437
8.225000E-8	0.001414
8.230000E-8	0.001413
8.235000E-8	0.001519
8.240000E-8	0.001539
8.245000E-8	0.001681
8.250000E-8	0.001711
8.255000E-8	0.001817
8.260000E-8	0.001911
8.265000E-8	0.001948
8.270000E-8	0.002041
8.275000E-8	0.002100
8.280000E-8	0.002158
8.285000E-8	0.002136
8.290000E-8	0.002092
8.295000E-8	0.002133
8.300000E-8	0.002063
8.305000E-8	0.001931
8.310000E-8	0.001827
8.315000E-8	0.001775
8.320000E-8	0.001730
8.325000E-8	0.001606
8.330000E-8	0.001533
8.335000E-8	0.001489
8.340000E-8	0.001420
8.345000E-8	0.001483
8.350000E-8	0.001492
8.355000E-8	0.001581
8.360000E-8	0.001641
8.365000E-8	0.001791
8.370000E-8	0.001842
8.375000E-8	0.001984
8.380000E-8	0.002041
8.385000E-8	0.002106
8.390000E-8	0.002087
8.395000E-8	0.002184
8.400000E-8	0.002133
8.405000E-8	0.002045
8.410000E-8	0.002019
8.415000E-8	0.001914
8.420000E-8	0.001856
8.425000E-8	0.001833
8.430000E-8	0.001764
8.435000E-8	0.001831
8.440000E-8	0.001713
8.445000E-8	0.001709
8.450000E-8	0.001588
8.455000E-8	0.001480
8.460000E-8	0.001347
8.465000E-8	0.001325
8.470000E-8	0.001161
8.475000E-8	0.001141
8.480000E-8	0.001084
8.485000E-8	0.001144
8.490000E-8	0.001252
8.495000E-8	0.001319
8.500000E-8	0.001450
8.505000E-8	0.001634
8.510000E-8	0.001775
8.515000E-8	0.001964
8.520000E-8	0.002012
8.525000E-8	0.002097
8.530000E-8	0.002144
8.535000E-8	0.002145
8.540000E-8	0.002081
8.545000E-8	0.002100
8.550000E-8	0.001991
8.555000E-8	0.001972
8.560000E-8	0.001930
8.565000E-8	0.001913
8.570000E-8	0.001803
8.575000E-8	0.001789
8.580000E-8	0.001753
8.585000E-8	0.001698
8.590000E-8	0.001687
8.595000E-8	0.001692
8.600000E-8	0.001644
8.605000E-8	0.001670
8.610000E-8	0.001612
8.615000E-8	0.001709
8.620000E-8	0.001716
8.625000E-8	0.001797
8.630000E-8	0.001795
8.635000E-8	0.001902
8.640000E-8	0.001969
8.645000E-8	0.002045
8.650000E-8	0.002095
8.655000E-8	0.002113
8.660000E-8	0.002138
8.665000E-8	0.002175
8.670000E-8	0.002169
8.675000E-8	0.002145
8.680000E-8	0.002033
8.685000E-8	0.002033
8.690000E-8	0.001883
8.695000E-8	0.001869
8.700000E-8	0.001664
8.705000E-8	0.001609
8.710000E-8	0.001542
8.715000E-8	0.001475
8.720000E-8	0.001406
8.725000E-8	0.001386
8.730000E-8	0.001356
8.735000E-8	0.001448
8.740000E-8	0.001572
8.745000E-8	0.001639
8.750000E-8	0.001727
8.755000E-8	0.001886
8.760000E-8	0.002005
8.765000E-8	0.002031
8.770000E-8	0.002108
8.775000E-8	0.002091
8.780000E-8	0.002063
8.785000E-8	0.002022
8.790000E-8	0.001937
8.795000E-8	0.001817
8.800000E-8	0.001745
8.805000E-8	0.001580
8.810000E-8	0.001498
8.815000E-8	0.001347
8.820000E-8	0.001239
8.825000E-8	0.001189
8.830000E-8	0.001152
8.835000E-8	0.001141
8.840000E-8	0.001081
8.845000E-8	0.001163
8.850000E-8	0.001263
8.855000E-8	0.001347
8.860000E-8	0.001420
8.865000E-8	0.001569
8.870000E-8	0.001636
8.875000E-8	0.001758
8.880000E-8	0.001822
8.885000E-8	0.001894
8.890000E-8	0.001909
8.895000E-8	0.001984
8.900000E-8	0.001939
8.905000E-8	0.002033
8.910000E-8	0.001994
8.915000E-8	0.001944
8.920000E-8	0.001903
8.925000E-8	0.001870
8.930000E-8	0.001817
8.935000E-8	0.001741
8.940000E-8	0.001713
8.945000E-8	0.001622
8.950000E-8	0.001569
8.955000E-8	0.001578
8.960000E-8	0.001577
8.965000E-8	0.001488
8.970000E-8	0.001503
8.975000E-8	0.001559
8.980000E-8	0.001602
8.985000E-8	0.001661
8.990000E-8	0.001687
8.995000E-8	0.001817
9.000000E-8	0.001798
9.005000E-8	0.001897
9.010000E-8	0.001919
9.015000E-8	0.002058
9.020000E-8	0.002022
9.025000E-8	0.002063
9.030000E-8	0.002059
9.035000E-8	0.002067
9.040000E-8	0.002058
9.045000E-8	0.002042
9.050000E-8	0.001978
9.055000E-8	0.001988
9.060000E-8	0.001928
9.065000E-8	0.001906
9.070000E-8	0.001816
9.075000E-8	0.001744
9.080000E-8	0.001728
9.085000E-8	0.001708
9.090000E-8	0.001713
9.095000E-8	0.001783
9.100000E-8	0.001709
9.105000E-8	0.001770
9.110000E-8	0.001828
9.115000E-8	0.001931
9.120000E-8	0.002033
9.125000E-8	0.002123
9.130000E-8	0.002127
9.135000E-8	0.002206
9.140000E-8	0.002208
9.145000E-8	0.002313
9.150000E-8	0.002214
9.155000E-8	0.002202
9.160000E-8	0.002147
9.165000E-8	0.002036
9.170000E-8	0.001934
9.175000E-8	0.001898
9.180000E-8	0.001750
9.185000E-8	0.001731
9.190000E-8	0.001623
9.195000E-8	0.001556
9.200000E-8	0.001494
9.205000E-8	0.001419
9.210000E-8	0.001413
9.215000E-8	0.001455
9.220000E-8	0.001392
9.225000E-8	0.001386
9.230000E-8	0.001447
9.235000E-8	0.001419
9.240000E-8	0.001369
9.245000E-8	0.001403
9.250000E-8	0.001414
9.255000E-8	0.001434
9.260000E-8	0.001464
9.265000E-8	0.001466
9.270000E-8	0.001542
9.275000E-8	0.001620
9.280000E-8	0.001655
9.285000E-8	0.001744
9.290000E-8	0.001791
9.295000E-8	0.001873
9.300000E-8	0.001891
9.305000E-8	0.001917
9.310000E-8	0.001855
9.315000E-8	0.001872
9.320000E-8	0.001752
9.325000E-8	0.001752
9.330000E-8	0.001575
9.335000E-8	0.001505
9.340000E-8	0.001448
9.345000E-8	0.001427
9.350000E-8	0.001344
9.355000E-8	0.001319
9.360000E-8	0.001395
9.365000E-8	0.001464
9.370000E-8	0.001488
9.375000E-8	0.001588
9.380000E-8	0.001705
9.385000E-8	0.001802
9.390000E-8	0.001847
9.395000E-8	0.001988
9.400000E-8	0.001984
9.405000E-8	0.001995
9.410000E-8	0.001997
9.415000E-8	0.001919
9.420000E-8	0.001897
9.425000E-8	0.001836
9.430000E-8	0.001797
9.435000E-8	0.001736
9.440000E-8	0.001709
9.445000E-8	0.001641
9.450000E-8	0.001678
9.455000E-8	0.001681
9.460000E-8	0.001728
9.465000E-8	0.001722
9.470000E-8	0.001709
9.475000E-8	0.001739
9.480000E-8	0.001736
9.485000E-8	0.001761
9.490000E-8	0.001852
9.495000E-8	0.001869
9.500000E-8	0.001897
9.505000E-8	0.001983
9.510000E-8	0.001950
9.515000E-8	0.002081
9.520000E-8	0.002080
9.525000E-8	0.002008
9.530000E-8	0.001973
9.535000E-8	0.002005
9.540000E-8	0.001955
9.545000E-8	0.001931
9.550000E-8	0.001884
9.555000E-8	0.001833
9.560000E-8	0.001725
9.565000E-8	0.001687
9.570000E-8	0.001616
9.575000E-8	0.001534
9.580000E-8	0.001403
9.585000E-8	0.001450
9.590000E-8	0.001406
9.595000E-8	0.001383
9.600000E-8	0.001358
9.605000E-8	0.001453
9.610000E-8	0.001489
9.615000E-8	0.001653
9.620000E-8	0.001798
9.625000E-8	0.001872
9.630000E-8	0.002048
9.635000E-8	0.002148
9.640000E-8	0.002180
9.645000E-8	0.002214
9.650000E-8	0.002180
9.655000E-8	0.002142
9.660000E-8	0.001994
9.665000E-8	0.001883
9.670000E-8	0.001755
9.675000E-8	0.001627
9.680000E-8	0.001591
9.685000E-8	0.001545
9.690000E-8	0.001483
9.695000E-8	0.001478
9.700000E-8	0.001511
9.705000E-8	0.001541
9.710000E-8	0.001564
9.715000E-8	0.001578
9.720000E-8	0.001566
9.725000E-8	0.001569
9.730000E-8	0.001617
9.735000E-8	0.001558
9.740000E-8	0.001666
9.745000E-8	0.001616
9.750000E-8	0.001625
9.755000E-8	0.001706
9.760000E-8	0.001756
9.765000E-8	0.001827
9.770000E-8	0.001898
9.775000E-8	0.001988
9.780000E-8	0.001981
9.785000E-8	0.002083
9.790000E-8	0.002109
9.795000E-8	0.002100
9.800000E-8	0.002067
9.805000E-8	0.002022
9.810000E-8	0.001936
9.815000E-8	0.001842
9.820000E-8	0.001742
9.825000E-8	0.001638
9.830000E-8	0.001572
9.835000E-8	0.001553
9.840000E-8	0.001575
9.845000E-8	0.001522
9.850000E-8	0.001545
9.855000E-8	0.001583
9.860000E-8	0.001683
9.865000E-8	0.001722
9.870000E-8	0.001858
9.875000E-8	0.001986
9.880000E-8	0.001953
9.885000E-8	0.002092
9.890000E-8	0.002086
9.895000E-8	0.002166
9.900000E-8	0.002189
9.905000E-8	0.002189
9.910000E-8	0.002162
9.915000E-8	0.002148
9.920000E-8	0.002044
9.925000E-8	0.001956
9.930000E-8	0.001839
9.935000E-8	0.001725
9.940000E-8	0.001612
9.945000E-8	0.001561
9.950000E-8	0.001528
9.955000E-8	0.001523
9.960000E-8	0.001498
9.965000E-8	0.001616
9.970000E-8	0.001619
9.975000E-8	0.001742
9.980000E-8	0.001786
9.985000E-8	0.001900
9.990000E-8	0.001828
9.995000E-8	0.001884
